fit_time[ns] Functional_fit[mV] Thermal_fit[mV]
3.600000 38.657092 37.971113
3.650000 38.309542 37.292024
3.700000 37.946003 36.625070
3.750000 37.558688 35.970019
3.800000 37.140774 35.326643
3.850000 36.686563 34.694720
3.900000 36.191617 34.074031
3.950000 35.652856 33.464364
4.000000 35.068620 32.865510
4.050000 34.438701 32.277263
4.100000 33.764329 31.699424
4.150000 33.048130 31.131797
4.200000 32.294042 30.574189
4.250000 31.507202 30.026412
4.300000 30.693801 29.488281
4.350000 29.860919 28.959617
4.400000 29.016327 28.440243
4.450000 28.168284 27.929984
4.500000 27.325320 27.428673
4.550000 26.496008 26.936141
4.600000 25.688743 26.452226
4.650000 24.911527 25.976769
4.700000 24.171758 25.509613
4.750000 23.476046 25.050605
4.800000 22.830043 24.599595
4.850000 22.238303 24.156435
4.900000 21.704168 23.720981
4.950000 21.229687 23.293091
5.000000 20.815570 22.872627
5.050000 20.461171 22.459454
5.100000 20.164515 22.053437
5.150000 19.922351 21.654446
5.200000 19.730241 21.262354
5.250000 19.582675 20.877035
5.300000 19.473219 20.498365
5.350000 19.394679 20.126223
5.400000 19.339288 19.760493
5.450000 19.298905 19.401057
5.500000 19.265221 19.047803
5.550000 19.229969 18.700617
5.600000 19.185134 18.359392
5.650000 19.123149 18.024019
5.700000 19.037086 17.694393
5.750000 18.920826 17.370412
5.800000 18.769202 17.051974
5.850000 18.578128 16.738980
5.900000 18.344691 16.431331
5.950000 18.067214 16.128934
6.000000 17.745290 15.831694
6.050000 17.379783 15.539519
6.100000 16.972789 15.252319
6.150000 16.527581 14.970005
6.200000 16.048509 14.692491
6.250000 15.540882 14.419692
6.300000 15.010824 14.151523
6.350000 14.465110 13.887904
6.400000 13.910987 13.628753
6.450000 13.355985 13.373992
6.500000 12.807719 13.123542
6.550000 12.273694 12.877329
6.600000 11.761111 12.635277
6.650000 11.276684 12.397314
6.700000 10.826471 12.163367
6.750000 10.415719 11.933366
6.800000 10.048738 11.707241
6.850000 9.728792 11.484926
6.900000 9.458022 11.266352
6.950000 9.237395 11.051456
7.000000 9.066691 10.840171
7.050000 8.944507 10.632436
7.100000 8.868306 10.428189
7.150000 8.834482 10.227368
7.200000 8.838462 10.029915
7.250000 8.874823 9.835770
7.300000 8.937438 9.644876
7.350000 9.019634 9.457177
7.400000 9.114364 9.272617
7.450000 9.214387 9.091142
7.500000 9.312457 8.912699
7.550000 9.401499 8.737235
7.600000 9.474795 8.564698
7.650000 9.526144 8.395038
7.700000 9.550023 8.228206
7.750000 9.541717 8.064153
7.800000 9.497434 7.902830
7.850000 9.414394 7.744191
7.900000 9.290895 7.588190
7.950000 9.126344 7.434781
8.000000 8.921266 7.283920
8.050000 8.677282 7.135563
8.100000 8.397061 6.989668
8.150000 8.084238 6.846192
8.200000 7.743322 6.705093
8.250000 7.379568 6.566332
8.300000 6.998840 6.429867
8.350000 6.607455 6.295661
8.400000 6.212019 6.163674
8.450000 5.819256 6.033869
8.500000 5.435832 5.906208
8.550000 5.068188 5.780654
8.600000 4.722373 5.657173
8.650000 4.403894 5.535729
8.700000 4.117577 5.416287
8.750000 3.867446 5.298814
8.800000 3.656630 5.183275
8.850000 3.487280 5.069638
8.900000 3.360526 4.957871
8.950000 3.276452 4.847943
9.000000 3.234101 4.739821
9.050000 3.231504 4.633476
9.100000 3.265734 4.528878
9.150000 3.332993 4.425996
9.200000 3.428707 4.324803
9.250000 3.547648 4.225269
9.300000 3.684077 4.127367
9.350000 3.831883 4.031070
9.400000 3.984750 3.936349
9.450000 4.136312 3.843179
9.500000 4.280321 3.751534
9.550000 4.410799 3.661388
9.600000 4.522192 3.572715
9.650000 4.609505 3.485492
9.700000 4.668431 3.399694
9.750000 4.695449 3.315296
9.800000 4.687910 3.232276
9.850000 4.644103 3.150611
9.900000 4.563285 3.070277
9.950000 4.445697 2.991253
10.000000 4.292549 2.913517
10.050000 4.105986 2.837046
10.100000 3.889020 2.761821
10.150000 3.645454 2.687820
10.200000 3.379775 2.615023
10.250000 3.097035 2.543409
10.300000 2.802719 2.472960
10.350000 2.502602 2.403655
10.400000 2.202596 2.335476
10.450000 1.908604 2.268404
10.500000 1.626363 2.202421
10.550000 1.361301 2.137508
10.600000 1.118401 2.073648
10.650000 0.902073 2.010823
10.700000 0.716050 1.949016
10.750000 0.563290 1.888210
10.800000 0.445912 1.828389
10.850000 0.365142 1.769536
10.900000 0.321291 1.711636
10.950000 0.313748 1.654672
11.000000 0.341007 1.598630
11.050000 0.400705 1.543493
11.100000 0.489692 1.489247
11.150000 0.604114 1.435877
11.200000 0.739516 1.383369
11.250000 0.890959 1.331709
11.300000 1.053149 1.280882
11.350000 1.220574 1.230875
11.400000 1.387645 1.181674
11.450000 1.548840 1.133267
11.500000 1.698844 1.085639
11.550000 1.832680 1.038779
11.600000 1.945838 0.992673
11.650000 2.034383 0.947309
11.700000 2.095053 0.902675
11.750000 2.125338 0.858760
11.800000 2.123536 0.815550
11.850000 2.088795 0.773036
11.900000 2.021124 0.731204
11.950000 1.921392 0.690045
12.000000 1.791296 0.649546
12.050000 1.633313 0.609698
12.100000 1.450633 0.570490
12.150000 1.247071 0.531910
12.200000 1.026965 0.493950
12.250000 0.795064 0.456598
12.300000 0.556402 0.419845
12.350000 0.316166 0.383681
12.400000 0.079568 0.348096
12.450000 -0.148296 0.313082
12.500000 -0.362569 0.278628
12.550000 -0.558758 0.244725
12.600000 -0.732848 0.211365
12.650000 -0.881399 0.178539
12.700000 -1.001631 0.146238
12.750000 -1.091493 0.114453
12.800000 -1.149705 0.083176
12.850000 -1.175794 0.052399
12.900000 -1.170094 0.022113
12.950000 -1.133736 -0.007688
13.000000 -1.068612 -0.037014
13.050000 -0.977325 -0.065872
13.100000 -0.863115 -0.094270
13.150000 -0.729773 -0.122214
13.200000 -0.581544 -0.149713
13.250000 -0.423012 -0.176773
13.300000 -0.258982 -0.203402
13.350000 -0.094357 -0.229607
13.400000 0.065986 -0.255394
13.450000 0.217325 -0.280771
13.500000 0.355206 -0.305743
13.550000 0.475560 -0.330318
13.600000 0.574801 -0.354502
13.650000 0.649914 -0.378302
13.700000 0.698532 -0.401722
13.750000 0.718986 -0.424770
13.800000 0.710348 -0.447452
13.850000 0.672445 -0.469774
13.900000 0.605864 -0.491740
13.950000 0.511927 -0.513358
14.000000 0.392654 -0.534633
14.050000 0.250708 -0.555569
14.100000 0.089319 -0.576174
14.150000 -0.087796 -0.596451
14.200000 -0.276538 -0.616407
14.250000 -0.472528 -0.636046
14.300000 -0.671224 -0.655374
14.350000 -0.868035 -0.674395
14.400000 -1.058442 -0.693115
14.450000 -1.238110 -0.711539
14.500000 -1.403000 -0.729670
14.550000 -1.549468 -0.747514
14.600000 -1.674355 -0.765076
14.650000 -1.775069 -0.782360
14.700000 -1.849642 -0.799370
14.750000 -1.896779 -0.816111
14.800000 -1.915887 -0.832587
14.850000 -1.907086 -0.848802
14.900000 -1.871197 -0.864761
14.950000 -1.809724 -0.880468
15.000000 -1.724805 -0.895927
15.050000 -1.619156 -0.911141
15.100000 -1.495998 -0.926115
15.150000 -1.358970 -0.940853
15.200000 -1.212038 -0.955357
15.250000 -1.059387 -0.969633
15.300000 -0.905312 -0.983683
15.350000 -0.754116 -0.997512
15.400000 -0.609989 -1.011123
15.450000 -0.476912 -1.024518
15.500000 -0.358550 -1.037703
15.550000 -0.258164 -1.050680
15.600000 -0.178531 -1.063452
15.650000 -0.121873 -1.076023
15.700000 -0.089808 -1.088395
15.750000 -0.083310 -1.100573
15.800000 -0.102690 -1.112559
15.850000 -0.147593 -1.124357
15.900000 -0.217008 -1.135968
15.950000 -0.309302 -1.147397
16.000000 -0.422265 -1.158646
16.050000 -0.553168 -1.169718
16.100000 -0.698840 -1.180615
16.150000 -0.855747 -1.191342
16.200000 -1.020089 -1.201899
16.250000 -1.187897 -1.212291
16.300000 -1.355133 -1.222520
16.350000 -1.517798 -1.232587
16.400000 -1.672032 -1.242497
16.450000 -1.814210 -1.252250
16.500000 -1.941033 -1.261851
16.550000 -2.049614 -1.271301
16.600000 -2.137546 -1.280602
16.650000 -2.202959 -1.289758
16.700000 -2.244566 -1.298769
16.750000 -2.261694 -1.307640
16.800000 -2.254293 -1.316371
16.850000 -2.222937 -1.324965
16.900000 -2.168803 -1.333425
16.950000 -2.093637 -1.341752
17.000000 -1.999708 -1.349948
17.050000 -1.889745 -1.358016
17.100000 -1.766865 -1.365957
17.150000 -1.634491 -1.373774
17.200000 -1.496262 -1.381469
17.250000 -1.355938 -1.389043
17.300000 -1.217309 -1.396498
17.350000 -1.084089 -1.403837
17.400000 -0.959830 -1.411061
17.450000 -0.847828 -1.418172
17.500000 -0.751042 -1.425171
17.550000 -0.672021 -1.432061
17.600000 -0.612841 -1.438843
17.650000 -0.575056 -1.445520
17.700000 -0.559661 -1.452091
17.750000 -0.567071 -1.458560
17.800000 -0.597113 -1.464928
17.850000 -0.649036 -1.471197
17.900000 -0.721533 -1.477367
17.950000 -0.812780 -1.483441
18.000000 -0.920481 -1.489420
18.050000 -1.041936 -1.495306
18.100000 -1.174106 -1.501100
18.150000 -1.313700 -1.506803
18.200000 -1.457254 -1.512418
18.250000 -1.601226 -1.517945
18.300000 -1.742080 -1.523385
18.350000 -1.876386 -1.528741
18.400000 -2.000896 -1.534013
18.450000 -2.112635 -1.539203
18.500000 -2.208969 -1.544312
18.550000 -2.287673 -1.549341
18.600000 -2.346983 -1.554292
18.650000 -2.385641 -1.559165
18.700000 -2.402921 -1.563963
18.750000 -2.398644 -1.568686
18.800000 -2.373183 -1.573335
18.850000 -2.327444 -1.577912
18.900000 -2.262845 -1.582418
18.950000 -2.181271 -1.586854
19.000000 -2.085030 -1.591220
19.050000 -1.976782 -1.595519
19.100000 -1.859480 -1.599750
19.150000 -1.736281 -1.603916
19.200000 -1.610476 -1.608017
19.250000 -1.485393 -1.612054
19.300000 -1.364324 -1.616028
19.350000 -1.250431 -1.619941
19.400000 -1.146673 -1.623792
19.450000 -1.055730 -1.627584
19.500000 -0.979935 -1.631317
19.550000 -0.921216 -1.634992
19.600000 -0.881056 -1.638609
19.650000 -0.860449 -1.642171
19.700000 -0.859885 -1.645677
19.750000 -0.879336 -1.649129
19.800000 -0.918264 -1.652527
19.850000 -0.975637 -1.655872
19.900000 -1.049955 -1.659165
19.950000 -1.139296 -1.662407
20.000000 -1.241367 -1.665599
20.050000 -1.353562 -1.668742
20.100000 -1.473035 -1.671835
20.150000 -1.596769 -1.674881
20.200000 -1.721658 -1.677879
20.250000 -1.844586 -1.680831
20.300000 -1.962507 -1.683737
20.350000 -2.072519 -1.686598
20.400000 -2.171942 -1.689414
20.450000 -2.258381 -1.692187
20.500000 -2.329787 -1.694917
20.550000 -2.384508 -1.697605
20.600000 -2.421325 -1.700251
20.650000 -2.439485 -1.702856
20.700000 -2.438714 -1.705420
20.750000 -2.419220 -1.707945
20.800000 -2.381688 -1.710431
20.850000 -2.327257 -1.712878
20.900000 -2.257490 -1.715287
20.950000 -2.174327 -1.717659
21.000000 -2.080039 -1.719995
21.050000 -1.977163 -1.722294
21.100000 -1.868439 -1.724558
21.150000 -1.756736 -1.726786
21.200000 -1.644980 -1.728980
21.250000 -1.536079 -1.731140
21.300000 -1.432846 -1.733267
21.350000 -1.337933 -1.735361
21.400000 -1.253759 -1.737422
21.450000 -1.182455 -1.739452
21.500000 -1.125807 -1.741450
21.550000 -1.085216 -1.743418
21.600000 -1.061661 -1.745354
21.650000 -1.055683 -1.747261
21.700000 -1.067367 -1.749139
21.750000 -1.096348 -1.750987
21.800000 -1.141822 -1.752807
21.850000 -1.202566 -1.754599
21.900000 -1.276978 -1.756363
21.950000 -1.363115 -1.758100
22.000000 -1.458748 -1.759810
22.050000 -1.561419 -1.761494
22.100000 -1.668507 -1.763152
22.150000 -1.777293 -1.764784
22.200000 -1.885035 -1.766391
22.250000 -1.989030 -1.767973
22.300000 -2.086692 -1.769530
22.350000 -2.175612 -1.771064
22.400000 -2.253617 -1.772574
22.450000 -2.318828 -1.774061
22.500000 -2.369703 -1.775525
22.550000 -2.405077 -1.776966
22.600000 -2.424185 -1.778385
22.650000 -2.426682 -1.779782
22.700000 -2.412650 -1.781157
22.750000 -2.382590 -1.782512
22.800000 -2.337408 -1.783845
22.850000 -2.278390 -1.785158
22.900000 -2.207165 -1.786451
22.950000 -2.125664 -1.787724
23.000000 -2.036065 -1.788977
23.050000 -1.940738 -1.790211
23.100000 -1.842184 -1.791426
23.150000 -1.742971 -1.792622
23.200000 -1.645662 -1.793800
23.250000 -1.552758 -1.794959
23.300000 -1.466629 -1.796101
23.350000 -1.389459 -1.797225
23.400000 -1.323184 -1.798332
23.450000 -1.269453 -1.799422
23.500000 -1.229582 -1.800495
23.550000 -1.204525 -1.801551
23.600000 -1.194851 -1.802592
23.650000 -1.200733 -1.803616
23.700000 -1.221946 -1.804625
23.750000 -1.257874 -1.805618
23.800000 -1.307529 -1.806595
23.850000 -1.369581 -1.807558
23.900000 -1.442389 -1.808506
23.950000 -1.524052 -1.809439
24.000000 -1.612452 -1.810358
24.050000 -1.705313 -1.811263
24.100000 -1.800261 -1.812154
24.150000 -1.894883 -1.813032
24.200000 -1.986790 -1.813895
24.250000 -2.073679 -1.814746
24.300000 -2.153386 -1.815583
24.350000 -2.223948 -1.816408
24.400000 -2.283646 -1.817220
24.450000 -2.331049 -1.818019
24.500000 -2.365048 -1.818807
24.550000 -2.384885 -1.819582
24.600000 -2.390166 -1.820345
24.650000 -2.380870 -1.821096
24.700000 -2.357351 -1.821836
24.750000 -2.320319 -1.822565
24.800000 -2.270827 -1.823282
24.850000 -2.210236 -1.823989
24.900000 -2.140184 -1.824684
24.950000 -2.062536 -1.825369
25.000000 -1.979341 -1.826044
25.050000 -1.892774 -1.826708
25.100000 -1.805083 -1.827361
25.150000 -1.718528 -1.828005
25.200000 -1.635326 -1.828639
25.250000 -1.557594 -1.829264
25.300000 -1.487295 -1.829878
25.350000 -1.426188 -1.830483
25.400000 -1.375789 -1.831079
25.450000 -1.337328 -1.831666
25.500000 -1.311722 -1.832244
25.550000 -1.299556 -1.832813
25.600000 -1.301067 -1.833373
25.650000 -1.316141 -1.833925
25.700000 -1.344318 -1.834468
25.750000 -1.384809 -1.835003
25.800000 -1.436514 -1.835530
25.850000 -1.498053 -1.836049
25.900000 -1.567807 -1.836559
25.950000 -1.643955 -1.837062
26.000000 -1.724526 -1.837557
26.050000 -1.807448 -1.838045
26.100000 -1.890604 -1.838525
26.150000 -1.971883 -1.838998
26.200000 -2.049237 -1.839463
26.250000 -2.120730 -1.839922
26.300000 -2.184588 -1.840373
26.350000 -2.239244 -1.840818
26.400000 -2.283376 -1.841255
26.450000 -2.315938 -1.841686
26.500000 -2.336186 -1.842111
26.550000 -2.343695 -1.842529
26.600000 -2.338368 -1.842940
26.650000 -2.320435 -1.843346
26.700000 -2.290447 -1.843745
26.750000 -2.249257 -1.844138
26.800000 -2.198000 -1.844524
26.850000 -2.138058 -1.844905
26.900000 -2.071028 -1.845281
26.950000 -1.998675 -1.845650
27.000000 -1.922889 -1.846014
27.050000 -1.845635 -1.846372
27.100000 -1.768901 -1.846725
27.150000 -1.694652 -1.847072
27.200000 -1.624774 -1.847414
27.250000 -1.561029 -1.847751
27.300000 -1.505012 -1.848083
27.350000 -1.458109 -1.848410
27.400000 -1.421466 -1.848731
27.450000 -1.395958 -1.849048
27.500000 -1.382171 -1.849360
27.550000 -1.380389 -1.849667
27.600000 -1.390586 -1.849969
27.650000 -1.412431 -1.850267
27.700000 -1.445299 -1.850561
27.750000 -1.488286 -1.850849
27.800000 -1.540238 -1.851134
27.850000 -1.599777 -1.851414
27.900000 -1.665343 -1.851690
27.950000 -1.735231 -1.851961
28.000000 -1.807636 -1.852229
28.050000 -1.880703 -1.852492
28.100000 -1.952570 -1.852751
28.150000 -2.021418 -1.853007
28.200000 -2.085517 -1.853258
28.250000 -2.143271 -1.853506
28.300000 -2.193253 -1.853750
28.350000 -2.234247 -1.853990
28.400000 -2.265270 -1.854226
28.450000 -2.285604 -1.854459
28.500000 -2.294806 -1.854689
28.550000 -2.292719 -1.854914
28.600000 -2.279476 -1.855137
28.650000 -2.255494 -1.855356
28.700000 -2.221461 -1.855571
28.750000 -2.178316 -1.855784
28.800000 -2.127224 -1.855993
28.850000 -2.069546 -1.856199
28.900000 -2.006802 -1.856402
28.950000 -1.940631 -1.856601
29.000000 -1.872747 -1.856798
29.050000 -1.804899 -1.856992
29.100000 -1.738822 -1.857183
29.150000 -1.676195 -1.857370
29.200000 -1.618598 -1.857555
29.250000 -1.567470 -1.857737
29.300000 -1.524080 -1.857917
29.350000 -1.489488 -1.858094
29.400000 -1.464522 -1.858267
29.450000 -1.449762 -1.858439
29.500000 -1.445521 -1.858608
29.550000 -1.451844 -1.858774
29.600000 -1.468503 -1.858937
29.650000 -1.495011 -1.859098
29.700000 -1.530630 -1.859257
29.750000 -1.574398 -1.859413
29.800000 -1.625148 -1.859567
29.850000 -1.681544 -1.859719
29.900000 -1.742115 -1.859868
29.950000 -1.805291 -1.860015
30.000000 -1.869449 -1.860160
30.050000 -1.932948 -1.860302
30.100000 -1.994178 -1.860442
30.150000 -2.051595 -1.860581
30.200000 -2.103762 -1.860717
30.250000 -2.149388 -1.860851
30.300000 -2.187354 -1.860983
30.350000 -2.216745 -1.861113
30.400000 -2.236872 -1.861241
30.450000 -2.247284 -1.861367
30.500000 -2.247784 -1.861491
30.550000 -2.238426 -1.861613
30.600000 -2.219516 -1.861734
30.650000 -2.191603 -1.861852
30.700000 -2.155461 -1.861969
30.750000 -2.112068 -1.862084
30.800000 -2.062581 -1.862197
30.850000 -2.008306 -1.862309
30.900000 -1.950661 -1.862419
30.950000 -1.891142 -1.862527
31.000000 -1.831281 -1.862633
31.050000 -1.772611 -1.862738
31.100000 -1.716622 -1.862842
31.150000 -1.664729 -1.862943
31.200000 -1.618231 -1.863044
31.250000 -1.578280 -1.863142
31.300000 -1.545856 -1.863240
31.350000 -1.521739 -1.863335
31.400000 -1.506492 -1.863430
31.450000 -1.500449 -1.863522
31.500000 -1.503706 -1.863614
31.550000 -1.516120 -1.863704
31.600000 -1.537319 -1.863792
31.650000 -1.566706 -1.863880
31.700000 -1.603480 -1.863966
31.750000 -1.646657 -1.864050
31.800000 -1.695095 -1.864134
31.850000 -1.747528 -1.864216
31.900000 -1.802594 -1.864297
31.950000 -1.858872 -1.864377
32.000000 -1.914922 -1.864455
32.050000 -1.969316 -1.864532
32.100000 -2.020682 -1.864608
32.150000 -2.067730 -1.864683
32.200000 -2.109290 -1.864757
32.250000 -2.144340 -1.864830
32.300000 -2.172030 -1.864901
32.350000 -2.191705 -1.864972
32.400000 -2.202916 -1.865041
32.450000 -2.205435 -1.865110
32.500000 -2.199256 -1.865177
32.550000 -2.184595 -1.865243
32.600000 -2.161884 -1.865309
32.650000 -2.131756 -1.865373
32.700000 -2.095030 -1.865436
32.750000 -2.052687 -1.865499
32.800000 -2.005846 -1.865560
32.850000 -1.955733 -1.865621
32.900000 -1.903649 -1.865680
32.950000 -1.850936 -1.865739
33.000000 -1.798945 -1.865797
33.050000 -1.749000 -1.865854
33.100000 -1.702361 -1.865910
33.150000 -1.660199 -1.865965
33.200000 -1.623561 -1.866019
33.250000 -1.593346 -1.866073
33.300000 -1.570285 -1.866126
33.350000 -1.554921 -1.866178
33.400000 -1.547597 -1.866229
33.450000 -1.548447 -1.866279
33.500000 -1.557398 -1.866329
33.550000 -1.574171 -1.866378
33.600000 -1.598286 -1.866426
33.650000 -1.629083 -1.866473
33.700000 -1.665734 -1.866520
33.750000 -1.707265 -1.866566
33.800000 -1.752588 -1.866611
33.850000 -1.800522 -1.866656
33.900000 -1.849829 -1.866699
33.950000 -1.899244 -1.866743
34.000000 -1.947505 -1.866785
34.050000 -1.993392 -1.866827
34.100000 -2.035749 -1.866869
34.150000 -2.073522 -1.866909
34.200000 -2.105776 -1.866949
34.250000 -2.131728 -1.866989
34.300000 -2.150756 -1.867028
34.350000 -2.162422 -1.867066
34.400000 -2.166478 -1.867104
34.450000 -2.162871 -1.867141
34.500000 -2.151744 -1.867177
34.550000 -2.133430 -1.867213
34.600000 -2.108446 -1.867249
34.650000 -2.077473 -1.867284
34.700000 -2.041340 -1.867318
34.750000 -2.001005 -1.867352
34.800000 -1.957524 -1.867386
34.850000 -1.912029 -1.867418
34.900000 -1.865693 -1.867451
34.950000 -1.819704 -1.867483
35.000000 -1.775235 -1.867514
35.050000 -1.733411 -1.867545
35.100000 -1.695281 -1.867576
35.150000 -1.661796 -1.867606
35.200000 -1.633779 -1.867635
35.250000 -1.611910 -1.867664
35.300000 -1.596707 -1.867693
35.350000 -1.588516 -1.867721
35.400000 -1.587500 -1.867749
35.450000 -1.593639 -1.867776
35.500000 -1.606730 -1.867803
35.550000 -1.626395 -1.867830
35.600000 -1.652089 -1.867856
35.650000 -1.683118 -1.867882
35.700000 -1.718657 -1.867907
35.750000 -1.757770 -1.867932
35.800000 -1.799437 -1.867957
35.850000 -1.842579 -1.867981
35.900000 -1.886086 -1.868005
35.950000 -1.928847 -1.868028
36.000000 -1.969777 -1.868051
36.050000 -2.007844 -1.868074
36.100000 -2.042096 -1.868097
36.150000 -2.071686 -1.868119
36.200000 -2.095890 -1.868141
36.250000 -2.114126 -1.868162
36.300000 -2.125968 -1.868183
36.350000 -2.131157 -1.868204
36.400000 -2.129605 -1.868225
36.450000 -2.121396 -1.868245
36.500000 -2.106783 -1.868265
36.550000 -2.086181 -1.868284
36.600000 -2.060156 -1.868304
36.650000 -2.029408 -1.868323
36.700000 -1.994752 -1.868341
36.750000 -1.957097 -1.868360
36.800000 -1.917426 -1.868378
36.850000 -1.876763 -1.868396
36.900000 -1.836153 -1.868413
36.950000 -1.796631 -1.868431
37.000000 -1.759199 -1.868448
37.050000 -1.724798 -1.868465
37.100000 -1.694287 -1.868481
37.150000 -1.668419 -1.868498
37.200000 -1.647823 -1.868514
37.250000 -1.632991 -1.868530
37.300000 -1.624264 -1.868545
37.350000 -1.621826 -1.868560
37.400000 -1.625696 -1.868576
37.450000 -1.635736 -1.868591
37.500000 -1.651650 -1.868605
37.550000 -1.672994 -1.868620
37.600000 -1.699187 -1.868634
37.650000 -1.729532 -1.868648
37.700000 -1.763226 -1.868662
37.750000 -1.799389 -1.868675
37.800000 -1.837083 -1.868689
37.850000 -1.875336 -1.868702
37.900000 -1.913169 -1.868715
37.950000 -1.949621 -1.868728
38.000000 -1.983770 -1.868740
38.050000 -2.014762 -1.868753
38.100000 -2.041827 -1.868765
38.150000 -2.064301 -1.868777
38.200000 -2.081639 -1.868789
38.250000 -2.093435 -1.868801
38.300000 -2.099424 -1.868812
38.350000 -2.099491 -1.868823
38.400000 -2.093674 -1.868835
38.450000 -2.082160 -1.868846
38.500000 -2.065280 -1.868856
38.550000 -2.043500 -1.868867
38.600000 -2.017408 -1.868878
38.650000 -1.987698 -1.868888
38.700000 -1.955152 -1.868898
38.750000 -1.920619 -1.868908
38.800000 -1.884992 -1.868918
38.850000 -1.849189 -1.868928
38.900000 -1.814123 -1.868937
38.950000 -1.780685 -1.868947
39.000000 -1.749717 -1.868956
39.050000 -1.721992 -1.868965
39.100000 -1.698199 -1.868974
39.150000 -1.678917 -1.868983
39.200000 -1.664609 -1.868992
39.250000 -1.655608 -1.869001
39.300000 -1.652108 -1.869009
39.350000 -1.654165 -1.869018
39.400000 -1.661688 -1.869026
39.450000 -1.674450 -1.869034
39.500000 -1.692092 -1.869042
39.550000 -1.714133 -1.869050
39.600000 -1.739980 -1.869058
39.650000 -1.768951 -1.869065
39.700000 -1.800286 -1.869073
39.750000 -1.833170 -1.869080
39.800000 -1.866755 -1.869087
39.850000 -1.900179 -1.869095
39.900000 -1.932592 -1.869102
39.950000 -1.963174 -1.869109
40.000000 -1.991155 -1.869116
40.050000 -2.015841 -1.869122
40.100000 -2.036623 -1.869129
40.150000 -2.052996 -1.869136
40.200000 -2.064572 -1.869142
40.250000 -2.071088 -1.869148
40.300000 -2.072410 -1.869155
40.350000 -2.068539 -1.869161
40.400000 -2.059607 -1.869167
40.450000 -2.045876 -1.869173
40.500000 -2.027728 -1.869179
40.550000 -2.005654 -1.869185
40.600000 -1.980244 -1.869190
40.650000 -1.952167 -1.869196
40.700000 -1.922157 -1.869202
40.750000 -1.890993 -1.869207
40.800000 -1.859477 -1.869213
40.850000 -1.828416 -1.869218
40.900000 -1.798599 -1.869223
40.950000 -1.770778 -1.869228
41.000000 -1.745650 -1.869233
41.050000 -1.723839 -1.869238
41.100000 -1.705880 -1.869243
41.150000 -1.692205 -1.869248
41.200000 -1.683135 -1.869253
41.250000 -1.678872 -1.869258
41.300000 -1.679493 -1.869262
41.350000 -1.684951 -1.869267
41.400000 -1.695074 -1.869271
41.450000 -1.709574 -1.869276
41.500000 -1.728053 -1.869280
41.550000 -1.750013 -1.869284
41.600000 -1.774872 -1.869289
41.650000 -1.801977 -1.869293
41.700000 -1.830621 -1.869297
41.750000 -1.860064 -1.869301
41.800000 -1.889550 -1.869305
41.850000 -1.918327 -1.869309
41.900000 -1.945665 -1.869313
41.950000 -1.970876 -1.869317
42.000000 -1.993332 -1.869320
42.050000 -2.012478 -1.869324
42.100000 -2.027847 -1.869328
42.150000 -2.039072 -1.869331
42.200000 -2.045894 -1.869335
42.250000 -2.048168 -1.869338
42.300000 -2.045865 -1.869342
42.350000 -2.039074 -1.869345
42.400000 -2.027999 -1.869348
42.450000 -2.012949 -1.869352
42.500000 -1.994335 -1.869355
42.550000 -1.972655 -1.869358
42.600000 -1.948482 -1.869361
42.650000 -1.922449 -1.869364
42.700000 -1.895232 -1.869367
42.750000 -1.867533 -1.869370
42.800000 -1.840062 -1.869373
42.850000 -1.813519 -1.869376
42.900000 -1.788575 -1.869379
42.950000 -1.765854 -1.869382
43.000000 -1.745923 -1.869384
43.050000 -1.729272 -1.869387
43.100000 -1.716303 -1.869390
43.150000 -1.707324 -1.869393
43.200000 -1.702538 -1.869395
43.250000 -1.702039 -1.869398
43.300000 -1.705813 -1.869400
43.350000 -1.713734 -1.869403
43.400000 -1.725574 -1.869405
43.450000 -1.741006 -1.869408
43.500000 -1.759611 -1.869410
43.550000 -1.780896 -1.869412
43.600000 -1.804299 -1.869415
43.650000 -1.829210 -1.869417
43.700000 -1.854983 -1.869419
43.750000 -1.880956 -1.869421
43.800000 -1.906465 -1.869424
43.850000 -1.930862 -1.869426
43.900000 -1.953532 -1.869428
43.950000 -1.973909 -1.869430
44.000000 -1.991487 -1.869432
44.050000 -2.005837 -1.869434
44.100000 -2.016614 -1.869436
44.150000 -2.023566 -1.869438
44.200000 -2.026541 -1.869440
44.250000 -2.025489 -1.869442
44.300000 -2.020464 -1.869444
44.350000 -2.011620 -1.869445
44.400000 -1.999207 -1.869447
44.450000 -1.983565 -1.869449
44.500000 -1.965115 -1.869451
44.550000 -1.944345 -1.869453
44.600000 -1.921801 -1.869454
44.650000 -1.898070 -1.869456
44.700000 -1.873763 -1.869458
44.750000 -1.849506 -1.869459
44.800000 -1.825917 -1.869461
44.850000 -1.803592 -1.869462
44.900000 -1.783094 -1.869464
44.950000 -1.764933 -1.869466
45.000000 -1.749557 -1.869467
45.050000 -1.737341 -1.869469
45.100000 -1.728574 -1.869470
45.150000 -1.723459 -1.869471
45.200000 -1.722102 -1.869473
45.250000 -1.724513 -1.869474
45.300000 -1.730605 -1.869476
45.350000 -1.740200 -1.869477
45.400000 -1.753029 -1.869478
45.450000 -1.768745 -1.869480
45.500000 -1.786928 -1.869481
45.550000 -1.807097 -1.869482
45.600000 -1.828725 -1.869484
45.650000 -1.851252 -1.869485
45.700000 -1.874096 -1.869486
45.750000 -1.896674 -1.869487
45.800000 -1.918410 -1.869488
45.850000 -1.938755 -1.869490
45.900000 -1.957201 -1.869491
45.950000 -1.973289 -1.869492
46.000000 -1.986624 -1.869493
46.050000 -1.996885 -1.869494
46.100000 -2.003828 -1.869495
46.150000 -2.007300 -1.869496
46.200000 -2.007234 -1.869497
46.250000 -2.003655 -1.869498
46.300000 -1.996677 -1.869499
46.350000 -1.986501 -1.869500
46.400000 -1.973407 -1.869501
46.450000 -1.957749 -1.869502
46.500000 -1.939942 -1.869503
46.550000 -1.920455 -1.869504
46.600000 -1.899796 -1.869505
46.650000 -1.878499 -1.869506
46.700000 -1.857112 -1.869507
46.750000 -1.836182 -1.869508
46.800000 -1.816238 -1.869509
46.850000 -1.797784 -1.869510
46.900000 -1.781280 -1.869511
46.950000 -1.767134 -1.869511
47.000000 -1.755693 -1.869512
47.050000 -1.747229 -1.869513
47.100000 -1.741940 -1.869514
47.150000 -1.739940 -1.869515
47.200000 -1.741258 -1.869515
47.250000 -1.745839 -1.869516
47.300000 -1.753545 -1.869517
47.350000 -1.764158 -1.869518
47.400000 -1.777389 -1.869518
47.450000 -1.792884 -1.869519
47.500000 -1.810232 -1.869520
47.550000 -1.828979 -1.869521
47.600000 -1.848637 -1.869521
47.650000 -1.868699 -1.869522
47.700000 -1.888651 -1.869523
47.750000 -1.907985 -1.869523
47.800000 -1.926211 -1.869524
47.850000 -1.942871 -1.869525
47.900000 -1.957552 -1.869525
47.950000 -1.969892 -1.869526
48.000000 -1.979590 -1.869526
48.050000 -1.986418 -1.869527
48.100000 -1.990219 -1.869528
48.150000 -1.990917 -1.869528
48.200000 -1.988514 -1.869529
48.250000 -1.983092 -1.869529
48.300000 -1.974809 -1.869530
48.350000 -1.963894 -1.869530
48.400000 -1.950644 -1.869531
48.450000 -1.935411 -1.869531
48.500000 -1.918598 -1.869532
48.550000 -1.900643 -1.869533
48.600000 -1.882013 -1.869533
48.650000 -1.863185 -1.869534
48.700000 -1.844643 -1.869534
48.750000 -1.826857 -1.869535
48.800000 -1.810276 -1.869535
48.850000 -1.795315 -1.869535
48.900000 -1.782346 -1.869536
48.950000 -1.771685 -1.869536
49.000000 -1.763589 -1.869537
49.050000 -1.758250 -1.869537
49.100000 -1.755783 -1.869538
49.150000 -1.756235 -1.869538
49.200000 -1.759573 -1.869539
49.250000 -1.765695 -1.869539
49.300000 -1.774425 -1.869539
49.350000 -1.785525 -1.869540
49.400000 -1.798695 -1.869540
49.450000 -1.813585 -1.869541
49.500000 -1.829806 -1.869541
49.550000 -1.846934 -1.869541
49.600000 -1.864526 -1.869542
49.650000 -1.882131 -1.869542
49.700000 -1.899300 -1.869543
49.750000 -1.915598 -1.869543
49.800000 -1.930614 -1.869543
49.850000 -1.943974 -1.869544
49.900000 -1.955349 -1.869544
49.950000 -1.964460 -1.869544
50.000000 -1.971090 -1.869545
50.050000 -1.975087 -1.869545
50.100000 -1.976366 -1.869545
50.150000 -1.974911 -1.869546
50.200000 -1.970779 -1.869546
50.250000 -1.964091 -1.869546
50.300000 -1.955035 -1.869547
50.350000 -1.943859 -1.869547
50.400000 -1.930859 -1.869547
50.450000 -1.916381 -1.869547
50.500000 -1.900803 -1.869548
50.550000 -1.884530 -1.869548
50.600000 -1.867981 -1.869548
50.650000 -1.851580 -1.869549
50.700000 -1.835745 -1.869549
50.750000 -1.820876 -1.869549
50.800000 -1.807346 -1.869549
50.850000 -1.795490 -1.869550
50.900000 -1.785602 -1.869550
50.950000 -1.777919 -1.869550
51.000000 -1.772624 -1.869550
51.050000 -1.769836 -1.869551
51.100000 -1.769610 -1.869551
51.150000 -1.771934 -1.869551
51.200000 -1.776734 -1.869551
51.250000 -1.783869 -1.869552
51.300000 -1.793143 -1.869552
51.350000 -1.804305 -1.869552
51.400000 -1.817059 -1.869552
51.450000 -1.831068 -1.869552
51.500000 -1.845967 -1.869553
51.550000 -1.861371 -1.869553
51.600000 -1.876882 -1.869553
51.650000 -1.892104 -1.869553
51.700000 -1.906652 -1.869554
51.750000 -1.920159 -1.869554
51.800000 -1.932286 -1.869554
51.850000 -1.942734 -1.869554
51.900000 -1.951246 -1.869554
51.950000 -1.957620 -1.869554
52.000000 -1.961705 -1.869555
52.050000 -1.963413 -1.869555
52.100000 -1.962716 -1.869555
52.150000 -1.959647 -1.869555
52.200000 -1.954300 -1.869555
52.250000 -1.946826 -1.869556
52.300000 -1.937430 -1.869556
52.350000 -1.926365 -1.869556
52.400000 -1.913923 -1.869556
52.450000 -1.900431 -1.869556
52.500000 -1.886239 -1.869556
52.550000 -1.871715 -1.869557
52.600000 -1.857230 -1.869557
52.650000 -1.843155 -1.869557
52.700000 -1.829846 -1.869557
52.750000 -1.817636 -1.869557
52.800000 -1.806831 -1.869557
52.850000 -1.797696 -1.869557
52.900000 -1.790455 -1.869558
52.950000 -1.785278 -1.869558
53.000000 -1.782285 -1.869558
53.050000 -1.781537 -1.869558
53.100000 -1.783040 -1.869558
53.150000 -1.786740 -1.869558
53.200000 -1.792528 -1.869558
53.250000 -1.800243 -1.869558
53.300000 -1.809675 -1.869559
53.350000 -1.820574 -1.869559
53.400000 -1.832650 -1.869559
53.450000 -1.845589 -1.869559
53.500000 -1.859054 -1.869559
53.550000 -1.872700 -1.869559
53.600000 -1.886176 -1.869559
53.650000 -1.899140 -1.869559
53.700000 -1.911265 -1.869560
53.750000 -1.922246 -1.869560
53.800000 -1.931812 -1.869560
53.850000 -1.939727 -1.869560
53.900000 -1.945801 -1.869560
53.950000 -1.949890 -1.869560
54.000000 -1.951904 -1.869560
54.050000 -1.951804 -1.869560
54.100000 -1.949606 -1.869560
54.150000 -1.945382 -1.869560
54.200000 -1.939251 -1.869561
54.250000 -1.931382 -1.869561
54.300000 -1.921988 -1.869561
54.350000 -1.911318 -1.869561
54.400000 -1.899653 -1.869561
54.450000 -1.887297 -1.869561
54.500000 -1.874569 -1.869561
54.550000 -1.861797 -1.869561
54.600000 -1.849306 -1.869561
54.650000 -1.837414 -1.869561
54.700000 -1.826419 -1.869561
54.750000 -1.816597 -1.869561
54.800000 -1.808190 -1.869562
54.850000 -1.801404 -1.869562
54.900000 -1.796401 -1.869562
54.950000 -1.793296 -1.869562
55.000000 -1.792157 -1.869562
55.050000 -1.793000 -1.869562
55.100000 -1.795790 -1.869562
55.150000 -1.800444 -1.869562
55.200000 -1.806830 -1.869562
55.250000 -1.814775 -1.869562
55.300000 -1.824065 -1.869562
55.350000 -1.834455 -1.869562
55.400000 -1.845672 -1.869562
55.450000 -1.857426 -1.869562
55.500000 -1.869412 -1.869563
55.550000 -1.881323 -1.869563
55.600000 -1.892857 -1.869563
55.650000 -1.903721 -1.869563
55.700000 -1.913642 -1.869563
55.750000 -1.922374 -1.869563
55.800000 -1.929702 -1.869563
55.850000 -1.935448 -1.869563
55.900000 -1.939476 -1.869563
55.950000 -1.941695 -1.869563
56.000000 -1.942058 -1.869563
56.050000 -1.940571 -1.869563
56.100000 -1.937281 -1.869563
56.150000 -1.932286 -1.869563
56.200000 -1.925724 -1.869563
56.250000 -1.917772 -1.869563
56.300000 -1.908643 -1.869563
56.350000 -1.898576 -1.869564
56.400000 -1.887835 -1.869564
56.450000 -1.876699 -1.869564
56.500000 -1.865453 -1.869564
56.550000 -1.854386 -1.869564
56.600000 -1.843779 -1.869564
56.650000 -1.833898 -1.869564
56.700000 -1.824992 -1.869564
56.750000 -1.817281 -1.869564
56.800000 -1.810954 -1.869564
56.850000 -1.806164 -1.869564
56.900000 -1.803022 -1.869564
56.950000 -1.801598 -1.869564
57.000000 -1.801917 -1.869564
57.050000 -1.803959 -1.869564
57.100000 -1.807661 -1.869564
57.150000 -1.812918 -1.869564
57.200000 -1.819586 -1.869564
57.250000 -1.827485 -1.869564
57.300000 -1.836405 -1.869564
57.350000 -1.846113 -1.869564
57.400000 -1.856356 -1.869564
57.450000 -1.866868 -1.869564
57.500000 -1.877381 -1.869564
57.550000 -1.887625 -1.869565
57.600000 -1.897342 -1.869565
57.650000 -1.906286 -1.869565
57.700000 -1.914235 -1.869565
57.750000 -1.920993 -1.869565
57.800000 -1.926395 -1.869565
57.850000 -1.930312 -1.869565
57.900000 -1.932653 -1.869565
57.950000 -1.933371 -1.869565
58.000000 -1.932456 -1.869565
58.050000 -1.929942 -1.869565
58.100000 -1.925905 -1.869565
58.150000 -1.920458 -1.869565
58.200000 -1.913748 -1.869565
58.250000 -1.905955 -1.869565
58.300000 -1.897284 -1.869565
58.350000 -1.887964 -1.869565
58.400000 -1.878235 -1.869565
58.450000 -1.868348 -1.869565
58.500000 -1.858557 -1.869565
58.550000 -1.849112 -1.869565
58.600000 -1.840249 -1.869565
58.650000 -1.832193 -1.869565
58.700000 -1.825142 -1.869565
58.750000 -1.819271 -1.869565
58.800000 -1.814721 -1.869565
58.850000 -1.811599 -1.869565
58.900000 -1.809977 -1.869565
58.950000 -1.809885 -1.869565
59.000000 -1.811316 -1.869565
59.050000 -1.814224 -1.869565
59.100000 -1.818524 -1.869565
59.150000 -1.824098 -1.869565
59.200000 -1.830795 -1.869565
59.250000 -1.838437 -1.869565
59.300000 -1.846824 -1.869565
59.350000 -1.855735 -1.869565
59.400000 -1.864941 -1.869565
59.450000 -1.874205 -1.869566
59.500000 -1.883290 -1.869566
59.550000 -1.891965 -1.869566
59.600000 -1.900012 -1.869566
59.650000 -1.907230 -1.869566
59.700000 -1.913440 -1.869566
59.750000 -1.918490 -1.869566
59.800000 -1.922259 -1.869566
59.850000 -1.924659 -1.869566
59.900000 -1.925639 -1.869566
59.950000 -1.925181 -1.869566
60.000000 -1.923309 -1.869566
60.050000 -1.920077 -1.869566
60.100000 -1.915578 -1.869566
60.150000 -1.909935 -1.869566
60.200000 -1.903299 -1.869566
60.250000 -1.895847 -1.869566
60.300000 -1.887772 -1.869566
60.350000 -1.879286 -1.869566
60.400000 -1.870608 -1.869566
60.450000 -1.861960 -1.869566
60.500000 -1.853562 -1.869566
60.550000 -1.845628 -1.869566
60.600000 -1.838356 -1.869566
60.650000 -1.831928 -1.869566
60.700000 -1.826501 -1.869566
60.750000 -1.822209 -1.869566
60.800000 -1.819153 -1.869566
60.850000 -1.817403 -1.869566
60.900000 -1.816995 -1.869566
60.950000 -1.817930 -1.869566
61.000000 -1.820177 -1.869566
61.050000 -1.823668 -1.869566
61.100000 -1.828308 -1.869566
61.150000 -1.833969 -1.869566
61.200000 -1.840501 -1.869566
61.250000 -1.847732 -1.869566
61.300000 -1.855473 -1.869566
61.350000 -1.863522 -1.869566
61.400000 -1.871673 -1.869566
61.450000 -1.879717 -1.869566
61.500000 -1.887449 -1.869566
61.550000 -1.894675 -1.869566
61.600000 -1.901213 -1.869566
61.650000 -1.906900 -1.869566
61.700000 -1.911599 -1.869566
61.750000 -1.915194 -1.869566
61.800000 -1.917602 -1.869566
61.850000 -1.918769 -1.869566
61.900000 -1.918673 -1.869566
61.950000 -1.917326 -1.869566
62.000000 -1.914768 -1.869566
62.050000 -1.911075 -1.869566
62.100000 -1.906347 -1.869566
62.150000 -1.900712 -1.869566
62.200000 -1.894319 -1.869566
62.250000 -1.887337 -1.869566
62.300000 -1.879947 -1.869566
62.350000 -1.872341 -1.869566
62.400000 -1.864713 -1.869566
62.450000 -1.857260 -1.869566
62.500000 -1.850169 -1.869566
62.550000 -1.843619 -1.869566
62.600000 -1.837774 -1.869566
62.650000 -1.832778 -1.869566
62.700000 -1.828753 -1.869566
62.750000 -1.825796 -1.869566
62.800000 -1.823974 -1.869566
62.850000 -1.823327 -1.869566
62.900000 -1.823864 -1.869566
62.950000 -1.825563 -1.869566
63.000000 -1.828374 -1.869566
63.050000 -1.832217 -1.869566
63.100000 -1.836987 -1.869566
63.150000 -1.842557 -1.869566
63.200000 -1.848780 -1.869566
63.250000 -1.855492 -1.869566
63.300000 -1.862519 -1.869566
63.350000 -1.869680 -1.869566
63.400000 -1.876791 -1.869566
63.450000 -1.883672 -1.869566
63.500000 -1.890147 -1.869566
63.550000 -1.896055 -1.869566
63.600000 -1.901249 -1.869566
63.650000 -1.905601 -1.869566
63.700000 -1.909005 -1.869566
63.750000 -1.911381 -1.869566
63.800000 -1.912675 -1.869566
63.850000 -1.912861 -1.869566
63.900000 -1.911941 -1.869566
63.950000 -1.909946 -1.869566
64.000000 -1.906935 -1.869566
64.050000 -1.902989 -1.869566
64.100000 -1.898218 -1.869566
64.150000 -1.892746 -1.869566
64.200000 -1.886719 -1.869566
64.250000 -1.880295 -1.869566
64.300000 -1.873638 -1.869566
64.350000 -1.866921 -1.869567
64.400000 -1.860316 -1.869567
64.450000 -1.853990 -1.869567
64.500000 -1.848102 -1.869567
64.550000 -1.842801 -1.869567
64.600000 -1.838217 -1.869567
64.650000 -1.834462 -1.869567
64.700000 -1.831628 -1.869567
64.750000 -1.829780 -1.869567
64.800000 -1.828959 -1.869567
64.850000 -1.829179 -1.869567
64.900000 -1.830427 -1.869567
64.950000 -1.832666 -1.869567
65.000000 -1.835832 -1.869567
65.050000 -1.839837 -1.869567
65.100000 -1.844574 -1.869567
65.150000 -1.849918 -1.869567
65.200000 -1.855728 -1.869567
65.250000 -1.861853 -1.869567
65.300000 -1.868135 -1.869567
65.350000 -1.874412 -1.869567
65.400000 -1.880525 -1.869567
65.450000 -1.886318 -1.869567
65.500000 -1.891645 -1.869567
65.550000 -1.896375 -1.869567
65.600000 -1.900390 -1.869567
65.650000 -1.903592 -1.869567
65.700000 -1.905906 -1.869567
65.750000 -1.907278 -1.869567
65.800000 -1.907678 -1.869567
65.850000 -1.907104 -1.869567
65.900000 -1.905576 -1.869567
65.950000 -1.903140 -1.869567
66.000000 -1.899863 -1.869567
66.050000 -1.895835 -1.869567
66.100000 -1.891163 -1.869567
66.150000 -1.885971 -1.869567
66.200000 -1.880394 -1.869567
66.250000 -1.874578 -1.869567
66.300000 -1.868672 -1.869567
66.350000 -1.862828 -1.869567
66.400000 -1.857193 -1.869567
66.450000 -1.851911 -1.869567
66.500000 -1.847114 -1.869567
66.550000 -1.842921 -1.869567
66.600000 -1.839435 -1.869567
66.650000 -1.836741 -1.869567
66.700000 -1.834901 -1.869567
66.750000 -1.833958 -1.869567
66.800000 -1.833929 -1.869567
66.850000 -1.834810 -1.869567
66.900000 -1.836571 -1.869567
66.950000 -1.839162 -1.869567
67.000000 -1.842512 -1.869567
67.050000 -1.846530 -1.869567
67.100000 -1.851109 -1.869567
67.150000 -1.856130 -1.869567
67.200000 -1.861460 -1.869567
67.250000 -1.866962 -1.869567
67.300000 -1.872494 -1.869567
67.350000 -1.877916 -1.869567
67.400000 -1.883089 -1.869567
67.450000 -1.887883 -1.869567
67.500000 -1.892179 -1.869567
67.550000 -1.895870 -1.869567
67.600000 -1.898866 -1.869567
67.650000 -1.901095 -1.869567
67.700000 -1.902505 -1.869567
67.750000 -1.903065 -1.869567
67.800000 -1.902768 -1.869567
67.850000 -1.901626 -1.869567
67.900000 -1.899673 -1.869567
67.950000 -1.896965 -1.869567
68.000000 -1.893576 -1.869567
68.050000 -1.889597 -1.869567
68.100000 -1.885133 -1.869567
68.150000 -1.880301 -1.869567
68.200000 -1.875227 -1.869567
68.250000 -1.870042 -1.869567
68.300000 -1.864878 -1.869567
68.350000 -1.859868 -1.869567
68.400000 -1.855138 -1.869567
68.450000 -1.850807 -1.869567
68.500000 -1.846983 -1.869567
68.550000 -1.843760 -1.869567
68.600000 -1.841217 -1.869567
68.650000 -1.839413 -1.869567
68.700000 -1.838390 -1.869567
68.750000 -1.838169 -1.869567
68.800000 -1.838750 -1.869567
68.850000 -1.840114 -1.869567
68.900000 -1.842220 -1.869567
68.950000 -1.845009 -1.869567
69.000000 -1.848407 -1.869567
69.050000 -1.852323 -1.869567
69.100000 -1.856652 -1.869567
69.150000 -1.861283 -1.869567
69.200000 -1.866095 -1.869567
69.250000 -1.870963 -1.869567
69.300000 -1.875765 -1.869567
69.350000 -1.880376 -1.869567
69.400000 -1.884682 -1.869567
69.450000 -1.888574 -1.869567
69.500000 -1.891956 -1.869567
69.550000 -1.894745 -1.869567
69.600000 -1.896873 -1.869567
69.650000 -1.898291 -1.869567
69.700000 -1.898966 -1.869567
69.750000 -1.898888 -1.869567
69.800000 -1.898062 -1.869567
69.850000 -1.896514 -1.869567
69.900000 -1.894290 -1.869567
69.950000 -1.891449 -1.869567
70.000000 -1.888069 -1.869567
70.050000 -1.884239 -1.869567
70.100000 -1.880059 -1.869567
70.150000 -1.875640 -1.869567
70.200000 -1.871094 -1.869567
70.250000 -1.866539 -1.869567
70.300000 -1.862092 -1.869567
70.350000 -1.857864 -1.869567
70.400000 -1.853962 -1.869567
70.450000 -1.850484 -1.869567
70.500000 -1.847515 -1.869567
70.550000 -1.845128 -1.869567
70.600000 -1.843380 -1.869567
70.650000 -1.842312 -1.869567
70.700000 -1.841946 -1.869567
70.750000 -1.842286 -1.869567
70.800000 -1.843321 -1.869567
70.850000 -1.845018 -1.869567
70.900000 -1.847330 -1.869567
70.950000 -1.850194 -1.869567
71.000000 -1.853534 -1.869567
71.050000 -1.857260 -1.869567
71.100000 -1.861277 -1.869567
71.150000 -1.865478 -1.869567
71.200000 -1.869756 -1.869567
71.250000 -1.874002 -1.869567
71.300000 -1.878106 -1.869567
71.350000 -1.881966 -1.869567
71.400000 -1.885484 -1.869567
71.450000 -1.888573 -1.869567
71.500000 -1.891158 -1.869567
71.550000 -1.893174 -1.869567
71.600000 -1.894575 -1.869567
71.650000 -1.895329 -1.869567
71.700000 -1.895422 -1.869567
71.750000 -1.894854 -1.869567
71.800000 -1.893644 -1.869567
71.850000 -1.891829 -1.869567
71.900000 -1.889457 -1.869567
71.950000 -1.886594 -1.869567
72.000000 -1.883315 -1.869567
72.050000 -1.879707 -1.869567
72.100000 -1.875864 -1.869567
72.150000 -1.871885 -1.869567
72.200000 -1.867873 -1.869567
72.250000 -1.863931 -1.869567
72.300000 -1.860158 -1.869567
72.350000 -1.856650 -1.869567
72.400000 -1.853494 -1.869567
72.450000 -1.850769 -1.869567
72.500000 -1.848542 -1.869567
72.550000 -1.846865 -1.869567
72.600000 -1.845778 -1.869567
72.650000 -1.845305 -1.869567
72.700000 -1.845454 -1.869567
72.750000 -1.846217 -1.869567
72.800000 -1.847571 -1.869567
72.850000 -1.849477 -1.869567
72.900000 -1.851883 -1.869567
72.950000 -1.854724 -1.869567
73.000000 -1.857925 -1.869567
73.050000 -1.861402 -1.869567
73.100000 -1.865065 -1.869567
73.150000 -1.868819 -1.869567
73.200000 -1.872567 -1.869567
73.250000 -1.876214 -1.869567
73.300000 -1.879667 -1.869567
73.350000 -1.882841 -1.869567
73.400000 -1.885655 -1.869567
73.450000 -1.888040 -1.869567
73.500000 -1.889939 -1.869567
73.550000 -1.891305 -1.869567
73.600000 -1.892108 -1.869567
73.650000 -1.892331 -1.869567
73.700000 -1.891971 -1.869567
73.750000 -1.891043 -1.869567
73.800000 -1.889573 -1.869567
73.850000 -1.887602 -1.869567
73.900000 -1.885184 -1.869567
73.950000 -1.882383 -1.869567
74.000000 -1.879274 -1.869567
74.050000 -1.875938 -1.869567
74.100000 -1.872460 -1.869567
74.150000 -1.868932 -1.869567
74.200000 -1.865444 -1.869567
74.250000 -1.862083 -1.869567
74.300000 -1.858935 -1.869567
74.350000 -1.856079 -1.869567
74.400000 -1.853585 -1.869567
74.450000 -1.851516 -1.869567
74.500000 -1.849920 -1.869567
74.550000 -1.848836 -1.869567
74.600000 -1.848288 -1.869567
74.650000 -1.848287 -1.869567
74.700000 -1.848828 -1.869567
74.750000 -1.849894 -1.869567
74.800000 -1.851456 -1.869567
74.850000 -1.853469 -1.869567
74.900000 -1.855880 -1.869567
74.950000 -1.858623 -1.869567
75.000000 -1.861629 -1.869567
75.050000 -1.864817 -1.869567
75.100000 -1.868105 -1.869567
75.150000 -1.871409 -1.869567
75.200000 -1.874644 -1.869567
75.250000 -1.877729 -1.869567
75.300000 -1.880585 -1.869567
75.350000 -1.883142 -1.869567
75.400000 -1.885336 -1.869567
75.450000 -1.887113 -1.869567
75.500000 -1.888430 -1.869567
75.550000 -1.889259 -1.869567
75.600000 -1.889579 -1.869567
75.650000 -1.889387 -1.869567
75.700000 -1.888690 -1.869567
75.750000 -1.887511 -1.869567
75.800000 -1.885881 -1.869567
75.850000 -1.883846 -1.869567
75.900000 -1.881460 -1.869567
75.950000 -1.878786 -1.869567
76.000000 -1.875894 -1.869567
76.050000 -1.872860 -1.869567
76.100000 -1.869762 -1.869567
76.150000 -1.866679 -1.869567
76.200000 -1.863691 -1.869567
76.250000 -1.860871 -1.869567
76.300000 -1.858292 -1.869567
76.350000 -1.856017 -1.869567
76.400000 -1.854103 -1.869567
76.450000 -1.852595 -1.869567
76.500000 -1.851531 -1.869567
76.550000 -1.850933 -1.869567
76.600000 -1.850815 -1.869567
76.650000 -1.851176 -1.869567
76.700000 -1.852003 -1.869567
76.750000 -1.853273 -1.869567
76.800000 -1.854951 -1.869567
76.850000 -1.856990 -1.869567
76.900000 -1.859337 -1.869567
76.950000 -1.861929 -1.869567
77.000000 -1.864699 -1.869567
77.050000 -1.867575 -1.869567
77.100000 -1.870483 -1.869567
77.150000 -1.873349 -1.869567
77.200000 -1.876100 -1.869567
77.250000 -1.878666 -1.869567
77.300000 -1.880983 -1.869567
77.350000 -1.882993 -1.869567
77.400000 -1.884648 -1.869567
77.450000 -1.885908 -1.869567
77.500000 -1.886742 -1.869567
77.550000 -1.887133 -1.869567
77.600000 -1.887073 -1.869567
77.650000 -1.886568 -1.869567
77.700000 -1.885631 -1.869567
77.750000 -1.884291 -1.869567
77.800000 -1.882585 -1.869567
77.850000 -1.880557 -1.869567
77.900000 -1.878263 -1.869567
77.950000 -1.875761 -1.869567
78.000000 -1.873118 -1.869567
78.050000 -1.870402 -1.869567
78.100000 -1.867682 -1.869567
78.150000 -1.865028 -1.869567
78.200000 -1.862507 -1.869567
78.250000 -1.860183 -1.869567
78.300000 -1.858113 -1.869567
78.350000 -1.856349 -1.869567
78.400000 -1.854934 -1.869567
78.450000 -1.853901 -1.869567
78.500000 -1.853274 -1.869567
78.550000 -1.853068 -1.869567
78.600000 -1.853283 -1.869567
78.650000 -1.853912 -1.869567
78.700000 -1.854937 -1.869567
78.750000 -1.856328 -1.869567
78.800000 -1.858048 -1.869567
78.850000 -1.860050 -1.869567
78.900000 -1.862282 -1.869567
78.950000 -1.864685 -1.869567
79.000000 -1.867197 -1.869567
79.050000 -1.869753 -1.869567
79.100000 -1.872287 -1.869567
79.150000 -1.874735 -1.869567
79.200000 -1.877036 -1.869567
79.250000 -1.879131 -1.869567
79.300000 -1.880968 -1.869567
79.350000 -1.882503 -1.869567
79.400000 -1.883697 -1.869567
79.450000 -1.884524 -1.869567
79.500000 -1.884963 -1.869567
79.550000 -1.885007 -1.869567
79.600000 -1.884656 -1.869567
79.650000 -1.883923 -1.869567
79.700000 -1.882829 -1.869567
79.750000 -1.881403 -1.869567
79.800000 -1.879685 -1.869567
79.850000 -1.877720 -1.869567
79.900000 -1.875560 -1.869567
79.950000 -1.873261 -1.869567
80.000000 -1.870883 -1.869567
80.050000 -1.868487 -1.869567
80.100000 -1.866135 -1.869567
80.150000 -1.863885 -1.869567
80.200000 -1.861794 -1.869567
80.250000 -1.859916 -1.869567
80.300000 -1.858296 -1.869567
80.350000 -1.856975 -1.869567
80.400000 -1.855983 -1.869567
80.450000 -1.855344 -1.869567
80.500000 -1.855072 -1.869567
80.550000 -1.855171 -1.869567
80.600000 -1.855637 -1.869567
80.650000 -1.856456 -1.869567
80.700000 -1.857603 -1.869567
80.750000 -1.859048 -1.869567
80.800000 -1.860752 -1.869567
80.850000 -1.862670 -1.869567
80.900000 -1.864751 -1.869567
80.950000 -1.866941 -1.869567
81.000000 -1.869184 -1.869567
81.050000 -1.871422 -1.869567
81.100000 -1.873598 -1.869567
81.150000 -1.875657 -1.869567
81.200000 -1.877547 -1.869567
81.250000 -1.879221 -1.869567
81.300000 -1.880638 -1.869567
81.350000 -1.881763 -1.869567
81.400000 -1.882570 -1.869567
81.450000 -1.883040 -1.869567
81.500000 -1.883163 -1.869567
81.550000 -1.882939 -1.869567
81.600000 -1.882375 -1.869567
81.650000 -1.881488 -1.869567
81.700000 -1.880302 -1.869567
81.750000 -1.878851 -1.869567
81.800000 -1.877172 -1.869567
81.850000 -1.875310 -1.869567
81.900000 -1.873314 -1.869567
81.950000 -1.871236 -1.869567
82.000000 -1.869128 -1.869567
82.050000 -1.867046 -1.869567
82.100000 -1.865041 -1.869567
82.150000 -1.863165 -1.869567
82.200000 -1.861464 -1.869567
82.250000 -1.859982 -1.869567
82.300000 -1.858753 -1.869567
82.350000 -1.857808 -1.869567
82.400000 -1.857170 -1.869567
82.450000 -1.856852 -1.869567
82.500000 -1.856860 -1.869567
82.550000 -1.857192 -1.869567
82.600000 -1.857838 -1.869567
82.650000 -1.858779 -1.869567
82.700000 -1.859989 -1.869567
82.750000 -1.861435 -1.869567
82.800000 -1.863079 -1.869567
82.850000 -1.864878 -1.869567
82.900000 -1.866784 -1.869567
82.950000 -1.868750 -1.869567
83.000000 -1.870723 -1.869567
83.050000 -1.872654 -1.869567
83.100000 -1.874493 -1.869567
83.150000 -1.876195 -1.869567
83.200000 -1.877716 -1.869567
83.250000 -1.879020 -1.869567
83.300000 -1.880074 -1.869567
83.350000 -1.880853 -1.869567
83.400000 -1.881339 -1.869567
83.450000 -1.881522 -1.869567
83.500000 -1.881398 -1.869567
83.550000 -1.880974 -1.869567
83.600000 -1.880261 -1.869567
83.650000 -1.879280 -1.869567
83.700000 -1.878058 -1.869567
83.750000 -1.876628 -1.869567
83.800000 -1.875026 -1.869567
83.850000 -1.873296 -1.869567
83.900000 -1.871482 -1.869567
83.950000 -1.869631 -1.869567
84.000000 -1.867790 -1.869567
84.050000 -1.866007 -1.869567
84.100000 -1.864327 -1.869567
84.150000 -1.862790 -1.869567
84.200000 -1.861437 -1.869567
84.250000 -1.860300 -1.869567
84.300000 -1.859407 -1.869567
84.350000 -1.858779 -1.869567
84.400000 -1.858430 -1.869567
84.450000 -1.858368 -1.869567
84.500000 -1.858591 -1.869567
84.550000 -1.859093 -1.869567
84.600000 -1.859859 -1.869567
84.650000 -1.860868 -1.869567
84.700000 -1.862092 -1.869567
84.750000 -1.863498 -1.869567
84.800000 -1.865050 -1.869567
84.850000 -1.866707 -1.869567
84.900000 -1.868426 -1.869567
84.950000 -1.870163 -1.869567
85.000000 -1.871874 -1.869567
85.050000 -1.873514 -1.869567
85.100000 -1.875043 -1.869567
85.150000 -1.876423 -1.869567
85.200000 -1.877618 -1.869567
85.250000 -1.878600 -1.869567
85.300000 -1.879346 -1.869567
85.350000 -1.879837 -1.869567
85.400000 -1.880063 -1.869567
85.450000 -1.880019 -1.869567
85.500000 -1.879710 -1.869567
85.550000 -1.879143 -1.869567
85.600000 -1.878336 -1.869567
85.650000 -1.877311 -1.869567
85.700000 -1.876095 -1.869567
85.750000 -1.874720 -1.869567
85.800000 -1.873223 -1.869567
85.850000 -1.871642 -1.869567
85.900000 -1.870019 -1.869567
85.950000 -1.868395 -1.869567
86.000000 -1.866811 -1.869567
86.050000 -1.865308 -1.869567
86.100000 -1.863924 -1.869567
86.150000 -1.862692 -1.869567
86.200000 -1.861644 -1.869567
86.250000 -1.860805 -1.869567
86.300000 -1.860195 -1.869567
86.350000 -1.859828 -1.869567
86.400000 -1.859711 -1.869567
86.450000 -1.859847 -1.869567
86.500000 -1.860230 -1.869567
86.550000 -1.860849 -1.869567
86.600000 -1.861685 -1.869567
86.650000 -1.862718 -1.869567
86.700000 -1.863918 -1.869567
86.750000 -1.865255 -1.869567
86.800000 -1.866692 -1.869567
86.850000 -1.868194 -1.869567
86.900000 -1.869721 -1.869567
86.950000 -1.871234 -1.869567
87.000000 -1.872695 -1.869567
87.050000 -1.874066 -1.869567
87.100000 -1.875313 -1.869567
87.150000 -1.876406 -1.869567
87.200000 -1.877317 -1.869567
87.250000 -1.878025 -1.869567
87.300000 -1.878512 -1.869567
87.350000 -1.878768 -1.869567
87.400000 -1.878787 -1.869567
87.450000 -1.878571 -1.869567
87.500000 -1.878127 -1.869567
87.550000 -1.877467 -1.869567
87.600000 -1.876610 -1.869567
87.650000 -1.875580 -1.869567
87.700000 -1.874402 -1.869567
87.750000 -1.873109 -1.869567
87.800000 -1.871734 -1.869567
87.850000 -1.870313 -1.869567
87.900000 -1.868882 -1.869567
87.950000 -1.867477 -1.869567
88.000000 -1.866136 -1.869567
88.050000 -1.864890 -1.869567
88.100000 -1.863772 -1.869567
88.150000 -1.862810 -1.869567
88.200000 -1.862025 -1.869567
88.250000 -1.861439 -1.869567
88.300000 -1.861063 -1.869567
88.350000 -1.860907 -1.869567
88.400000 -1.860973 -1.869567
88.450000 -1.861257 -1.869567
88.500000 -1.861752 -1.869567
88.550000 -1.862443 -1.869567
88.600000 -1.863311 -1.869567
88.650000 -1.864332 -1.869567
88.700000 -1.865481 -1.869567
88.750000 -1.866726 -1.869567
88.800000 -1.868036 -1.869567
88.850000 -1.869376 -1.869567
88.900000 -1.870712 -1.869567
88.950000 -1.872011 -1.869567
89.000000 -1.873238 -1.869567
89.050000 -1.874364 -1.869567
89.100000 -1.875360 -1.869567
89.150000 -1.876202 -1.869567
89.200000 -1.876869 -1.869567
89.250000 -1.877345 -1.869567
89.300000 -1.877620 -1.869567
89.350000 -1.877688 -1.869567
89.400000 -1.877548 -1.869567
89.450000 -1.877205 -1.869567
89.500000 -1.876670 -1.869567
89.550000 -1.875957 -1.869567
89.600000 -1.875086 -1.869567
89.650000 -1.874080 -1.869567
89.700000 -1.872965 -1.869567
89.750000 -1.871771 -1.869567
89.800000 -1.870528 -1.869567
89.850000 -1.869269 -1.869567
89.900000 -1.868026 -1.869567
89.950000 -1.866830 -1.869567
90.000000 -1.865712 -1.869567
90.050000 -1.864700 -1.869567
90.100000 -1.863818 -1.869567
90.150000 -1.863089 -1.869567
90.200000 -1.862530 -1.869567
90.250000 -1.862154 -1.869567
90.300000 -1.861969 -1.869567
90.350000 -1.861980 -1.869567
90.400000 -1.862184 -1.869567
90.450000 -1.862574 -1.869567
90.500000 -1.863141 -1.869567
90.550000 -1.863868 -1.869567
90.600000 -1.864736 -1.869567
90.650000 -1.865721 -1.869567
90.700000 -1.866797 -1.869567
90.750000 -1.867938 -1.869567
90.800000 -1.869112 -1.869567
90.850000 -1.870291 -1.869567
90.900000 -1.871443 -1.869567
90.950000 -1.872540 -1.869567
91.000000 -1.873553 -1.869567
91.050000 -1.874459 -1.869567
91.100000 -1.875233 -1.869567
91.150000 -1.875859 -1.869567
91.200000 -1.876319 -1.869567
91.250000 -1.876604 -1.869567
91.300000 -1.876708 -1.869567
91.350000 -1.876629 -1.869567
91.400000 -1.876371 -1.869567
91.450000 -1.875941 -1.869567
91.500000 -1.875350 -1.869567
91.550000 -1.874617 -1.869567
91.600000 -1.873759 -1.869567
91.650000 -1.872800 -1.869567
91.700000 -1.871764 -1.869567
91.750000 -1.870680 -1.869567
91.800000 -1.869574 -1.869567
91.850000 -1.868475 -1.869567
91.900000 -1.867411 -1.869567
91.950000 -1.866409 -1.869567
92.000000 -1.865494 -1.869567
92.050000 -1.864690 -1.869567
92.100000 -1.864014 -1.869567
92.150000 -1.863485 -1.869567
92.200000 -1.863115 -1.869567
92.250000 -1.862911 -1.869567
92.300000 -1.862879 -1.869567
92.350000 -1.863017 -1.869567
92.400000 -1.863321 -1.869567
92.450000 -1.863783 -1.869567
92.500000 -1.864390 -1.869567
92.550000 -1.865124 -1.869567
92.600000 -1.865967 -1.869567
92.650000 -1.866896 -1.869567
92.700000 -1.867887 -1.869567
92.750000 -1.868915 -1.869567
92.800000 -1.869953 -1.869567
92.850000 -1.870973 -1.869567
92.900000 -1.871952 -1.869567
92.950000 -1.872863 -1.869567
93.000000 -1.873684 -1.869567
93.050000 -1.874395 -1.869567
93.100000 -1.874978 -1.869567
93.150000 -1.875419 -1.869567
93.200000 -1.875707 -1.869567
93.250000 -1.875838 -1.869567
93.300000 -1.875807 -1.869567
93.350000 -1.875618 -1.869567
93.400000 -1.875275 -1.869567
93.450000 -1.874790 -1.869567
93.500000 -1.874174 -1.869567
93.550000 -1.873444 -1.869567
93.600000 -1.872621 -1.869567
93.650000 -1.871725 -1.869567
93.700000 -1.870779 -1.869567
93.750000 -1.869809 -1.869567
93.800000 -1.868840 -1.869567
93.850000 -1.867895 -1.869567
93.900000 -1.866999 -1.869567
93.950000 -1.866174 -1.869567
94.000000 -1.865441 -1.869567
94.050000 -1.864818 -1.869567
94.100000 -1.864321 -1.869567
94.150000 -1.863960 -1.869567
94.200000 -1.863745 -1.869567
94.250000 -1.863680 -1.869567
94.300000 -1.863765 -1.869567
94.350000 -1.863998 -1.869567
94.400000 -1.864372 -1.869567
94.450000 -1.864875 -1.869567
94.500000 -1.865495 -1.869567
94.550000 -1.866214 -1.869567
94.600000 -1.867015 -1.869567
94.650000 -1.867875 -1.869567
94.700000 -1.868773 -1.869567
94.750000 -1.869685 -1.869567
94.800000 -1.870588 -1.869567
94.850000 -1.871459 -1.869567
94.900000 -1.872277 -1.869567
94.950000 -1.873019 -1.869567
95.000000 -1.873669 -1.869567
95.050000 -1.874210 -1.869567
95.100000 -1.874629 -1.869567
95.150000 -1.874916 -1.869567
95.200000 -1.875065 -1.869567
95.250000 -1.875073 -1.869567
95.300000 -1.874940 -1.869567
95.350000 -1.874671 -1.869567
95.400000 -1.874273 -1.869567
95.450000 -1.873758 -1.869567
95.500000 -1.873140 -1.869567
95.550000 -1.872434 -1.869567
95.600000 -1.871660 -1.869567
95.650000 -1.870837 -1.869567
95.700000 -1.869988 -1.869567
95.750000 -1.869133 -1.869567
95.800000 -1.868295 -1.869567
95.850000 -1.867495 -1.869567
95.900000 -1.866753 -1.869567
95.950000 -1.866088 -1.869567
96.000000 -1.865516 -1.869567
96.050000 -1.865050 -1.869567
96.100000 -1.864703 -1.869567
96.150000 -1.864483 -1.869567
96.200000 -1.864393 -1.869567
96.250000 -1.864436 -1.869567
96.300000 -1.864610 -1.869567
96.350000 -1.864909 -1.869567
96.400000 -1.865325 -1.869567
96.450000 -1.865846 -1.869567
96.500000 -1.866459 -1.869567
96.550000 -1.867147 -1.869567
96.600000 -1.867892 -1.869567
96.650000 -1.868675 -1.869567
96.700000 -1.869476 -1.869567
96.750000 -1.870274 -1.869567
96.800000 -1.871048 -1.869567
96.850000 -1.871780 -1.869567
96.900000 -1.872450 -1.869567
96.950000 -1.873043 -1.869567
97.000000 -1.873543 -1.869567
97.050000 -1.873938 -1.869567
97.100000 -1.874219 -1.869567
97.150000 -1.874380 -1.869567
97.200000 -1.874417 -1.869567
97.250000 -1.874330 -1.869567
97.300000 -1.874122 -1.869567
97.350000 -1.873799 -1.869567
97.400000 -1.873370 -1.869567
97.450000 -1.872847 -1.869567
97.500000 -1.872244 -1.869567
97.550000 -1.871577 -1.869567
97.600000 -1.870862 -1.869567
97.650000 -1.870120 -1.869567
97.700000 -1.869368 -1.869567
97.750000 -1.868626 -1.869567
97.800000 -1.867912 -1.869567
97.850000 -1.867246 -1.869567
97.900000 -1.866643 -1.869567
97.950000 -1.866119 -1.869567
98.000000 -1.865686 -1.869567
98.050000 -1.865355 -1.869567
98.100000 -1.865134 -1.869567
98.150000 -1.865027 -1.869567
98.200000 -1.865037 -1.869567
98.250000 -1.865162 -1.869567
98.300000 -1.865398 -1.869567
98.350000 -1.865740 -1.869567
98.400000 -1.866176 -1.869567
98.450000 -1.866697 -1.869567
98.500000 -1.867287 -1.869567
98.550000 -1.867931 -1.869567
98.600000 -1.868613 -1.869567
98.650000 -1.869315 -1.869567
98.700000 -1.870019 -1.869567
98.750000 -1.870707 -1.869567
98.800000 -1.871360 -1.869567
98.850000 -1.871964 -1.869567
98.900000 -1.872503 -1.869567
98.950000 -1.872964 -1.869567
99.000000 -1.873334 -1.869567
99.050000 -1.873607 -1.869567
99.100000 -1.873774 -1.869567
99.150000 -1.873833 -1.869567
99.200000 -1.873783 -1.869567
99.250000 -1.873625 -1.869567
99.300000 -1.873365 -1.869567
99.350000 -1.873010 -1.869567
99.400000 -1.872570 -1.869567
99.450000 -1.872055 -1.869567
99.500000 -1.871481 -1.869567
99.550000 -1.870861 -1.869567
99.600000 -1.870213 -1.869567
99.650000 -1.869552 -1.869567
99.700000 -1.868896 -1.869567
99.750000 -1.868262 -1.869567
99.800000 -1.867664 -1.869567
99.850000 -1.867120 -1.869567
99.900000 -1.866641 -1.869567
99.950000 -1.866240 -1.869567
100.000000 -1.865926 -1.869567
100.050000 -1.865708 -1.869567
100.100000 -1.865589 -1.869567
100.150000 -1.865573 -1.869567
100.200000 -1.865658 -1.869567
100.250000 -1.865843 -1.869567
100.300000 -1.866121 -1.869567
100.350000 -1.866486 -1.869567
100.400000 -1.866926 -1.869567
100.450000 -1.867432 -1.869567
100.500000 -1.867988 -1.869567
100.550000 -1.868581 -1.869567
100.600000 -1.869195 -1.869567
100.650000 -1.869815 -1.869567
100.700000 -1.870424 -1.869567
100.750000 -1.871008 -1.869567
100.800000 -1.871550 -1.869567
100.850000 -1.872039 -1.869567
100.900000 -1.872462 -1.869567
100.950000 -1.872808 -1.869567
101.000000 -1.873068 -1.869567
101.050000 -1.873238 -1.869567
101.100000 -1.873314 -1.869567
101.150000 -1.873293 -1.869567
101.200000 -1.873177 -1.869567
101.250000 -1.872970 -1.869567
101.300000 -1.872677 -1.869567
101.350000 -1.872307 -1.869567
101.400000 -1.871870 -1.869567
101.450000 -1.871376 -1.869567
101.500000 -1.870840 -1.869567
101.550000 -1.870275 -1.869567
101.600000 -1.869695 -1.869567
101.650000 -1.869116 -1.869567
101.700000 -1.868552 -1.869567
101.750000 -1.868018 -1.869567
101.800000 -1.867527 -1.869567
101.850000 -1.867091 -1.869567
101.900000 -1.866721 -1.869567
101.950000 -1.866426 -1.869567
102.000000 -1.866213 -1.869567
102.050000 -1.866087 -1.869567
102.100000 -1.866051 -1.869567
102.150000 -1.866104 -1.869567
102.200000 -1.866246 -1.869567
102.250000 -1.866471 -1.869567
102.300000 -1.866774 -1.869567
102.350000 -1.867146 -1.869567
102.400000 -1.867577 -1.869567
102.450000 -1.868056 -1.869567
102.500000 -1.868571 -1.869567
102.550000 -1.869108 -1.869567
102.600000 -1.869653 -1.869567
102.650000 -1.870192 -1.869567
102.700000 -1.870712 -1.869567
102.750000 -1.871199 -1.869567
102.800000 -1.871641 -1.869567
102.850000 -1.872027 -1.869567
102.900000 -1.872349 -1.869567
102.950000 -1.872597 -1.869567
103.000000 -1.872766 -1.869567
103.050000 -1.872852 -1.869567
103.100000 -1.872855 -1.869567
103.150000 -1.872773 -1.869567
103.200000 -1.872610 -1.869567
103.250000 -1.872370 -1.869567
103.300000 -1.872061 -1.869567
103.350000 -1.871690 -1.869567
103.400000 -1.871267 -1.869567
103.450000 -1.870803 -1.869567
103.500000 -1.870312 -1.869567
103.550000 -1.869804 -1.869567
103.600000 -1.869293 -1.869567
103.650000 -1.868793 -1.869567
103.700000 -1.868316 -1.869567
103.750000 -1.867874 -1.869567
103.800000 -1.867478 -1.869567
103.850000 -1.867138 -1.869567
103.900000 -1.866862 -1.869567
103.950000 -1.866657 -1.869567
104.000000 -1.866527 -1.869567
104.050000 -1.866476 -1.869567
104.100000 -1.866504 -1.869567
104.150000 -1.866610 -1.869567
104.200000 -1.866791 -1.869567
104.250000 -1.867041 -1.869567
104.300000 -1.867354 -1.869567
104.350000 -1.867721 -1.869567
104.400000 -1.868133 -1.869567
104.450000 -1.868579 -1.869567
104.500000 -1.869048 -1.869567
104.550000 -1.869526 -1.869567
104.600000 -1.870002 -1.869567
104.650000 -1.870464 -1.869567
104.700000 -1.870901 -1.869567
104.750000 -1.871300 -1.869567
104.800000 -1.871652 -1.869567
104.850000 -1.871949 -1.869567
104.900000 -1.872184 -1.869567
104.950000 -1.872350 -1.869567
105.000000 -1.872444 -1.869567
105.050000 -1.872464 -1.869567
105.100000 -1.872409 -1.869567
105.150000 -1.872283 -1.869567
105.200000 -1.872088 -1.869567
105.250000 -1.871831 -1.869567
105.300000 -1.871517 -1.869567
105.350000 -1.871155 -1.869567
105.400000 -1.870756 -1.869567
105.450000 -1.870328 -1.869567
105.500000 -1.869884 -1.869567
105.550000 -1.869435 -1.869567
105.600000 -1.868992 -1.869567
105.650000 -1.868567 -1.869567
105.700000 -1.868170 -1.869567
105.750000 -1.867811 -1.869567
105.800000 -1.867499 -1.869567
105.850000 -1.867242 -1.869567
105.900000 -1.867046 -1.869567
105.950000 -1.866916 -1.869567
106.000000 -1.866854 -1.869567
106.050000 -1.866862 -1.869567
106.100000 -1.866939 -1.869567
106.150000 -1.867082 -1.869567
106.200000 -1.867287 -1.869567
106.250000 -1.867550 -1.869567
106.300000 -1.867862 -1.869567
106.350000 -1.868216 -1.869567
106.400000 -1.868601 -1.869567
106.450000 -1.869009 -1.869567
106.500000 -1.869429 -1.869567
106.550000 -1.869849 -1.869567
106.600000 -1.870259 -1.869567
106.650000 -1.870649 -1.869567
106.700000 -1.871009 -1.869567
106.750000 -1.871329 -1.869567
106.800000 -1.871603 -1.869567
106.850000 -1.871823 -1.869567
106.900000 -1.871984 -1.869567
106.950000 -1.872082 -1.869567
107.000000 -1.872115 -1.869567
107.050000 -1.872083 -1.869567
107.100000 -1.871988 -1.869567
107.150000 -1.871831 -1.869567
107.200000 -1.871617 -1.869567
107.250000 -1.871352 -1.869567
107.300000 -1.871044 -1.869567
107.350000 -1.870700 -1.869567
107.400000 -1.870329 -1.869567
107.450000 -1.869942 -1.869567
107.500000 -1.869547 -1.869567
107.550000 -1.869155 -1.869567
107.600000 -1.868777 -1.869567
107.650000 -1.868421 -1.869567
107.700000 -1.868096 -1.869567
107.750000 -1.867812 -1.869567
107.800000 -1.867573 -1.869567
107.850000 -1.867388 -1.869567
107.900000 -1.867259 -1.869567
107.950000 -1.867190 -1.869567
108.000000 -1.867182 -1.869567
108.050000 -1.867234 -1.869567
108.100000 -1.867346 -1.869567
108.150000 -1.867514 -1.869567
108.200000 -1.867733 -1.869567
108.250000 -1.867998 -1.869567
108.300000 -1.868300 -1.869567
108.350000 -1.868633 -1.869567
108.400000 -1.868988 -1.869567
108.450000 -1.869355 -1.869567
108.500000 -1.869725 -1.869567
108.550000 -1.870089 -1.869567
108.600000 -1.870437 -1.869567
108.650000 -1.870760 -1.869567
108.700000 -1.871051 -1.869567
108.750000 -1.871303 -1.869567
108.800000 -1.871508 -1.869567
108.850000 -1.871662 -1.869567
108.900000 -1.871762 -1.869567
108.950000 -1.871805 -1.869567
109.000000 -1.871791 -1.869567
109.050000 -1.871720 -1.869567
109.100000 -1.871595 -1.869567
109.150000 -1.871419 -1.869567
109.200000 -1.871197 -1.869567
109.250000 -1.870934 -1.869567
109.300000 -1.870639 -1.869567
109.350000 -1.870318 -1.869567
109.400000 -1.869980 -1.869567
109.450000 -1.869634 -1.869567
109.500000 -1.869288 -1.869567
109.550000 -1.868951 -1.869567
109.600000 -1.868633 -1.869567
109.650000 -1.868340 -1.869567
109.700000 -1.868081 -1.869567
109.750000 -1.867861 -1.869567
109.800000 -1.867686 -1.869567
109.850000 -1.867561 -1.869567
109.900000 -1.867487 -1.869567
109.950000 -1.867467 -1.869567
110.000000 -1.867500 -1.869567
110.050000 -1.867586 -1.869567
110.100000 -1.867722 -1.869567
110.150000 -1.867904 -1.869567
110.200000 -1.868128 -1.869567
110.250000 -1.868386 -1.869567
110.300000 -1.868673 -1.869567
110.350000 -1.868981 -1.869567
110.400000 -1.869302 -1.869567
110.450000 -1.869627 -1.869567
110.500000 -1.869949 -1.869567
110.550000 -1.870259 -1.869567
110.600000 -1.870550 -1.869567
110.650000 -1.870813 -1.869567
110.700000 -1.871043 -1.869567
110.750000 -1.871233 -1.869567
110.800000 -1.871380 -1.869567
110.850000 -1.871480 -1.869567
110.900000 -1.871530 -1.869567
110.950000 -1.871530 -1.869567
111.000000 -1.871480 -1.869567
111.050000 -1.871381 -1.869567
111.100000 -1.871237 -1.869567
111.150000 -1.871051 -1.869567
111.200000 -1.870828 -1.869567
111.250000 -1.870575 -1.869567
111.300000 -1.870297 -1.869567
111.350000 -1.870003 -1.869567
111.400000 -1.869700 -1.869567
111.450000 -1.869395 -1.869567
111.500000 -1.869096 -1.869567
111.550000 -1.868812 -1.869567
111.600000 -1.868549 -1.869567
111.650000 -1.868313 -1.869567
111.700000 -1.868111 -1.869567
111.750000 -1.867947 -1.869567
111.800000 -1.867826 -1.869567
111.850000 -1.867750 -1.869567
111.900000 -1.867720 -1.869567
111.950000 -1.867738 -1.869567
112.000000 -1.867803 -1.869567
112.050000 -1.867912 -1.869567
112.100000 -1.868063 -1.869567
112.150000 -1.868251 -1.869567
112.200000 -1.868471 -1.869567
112.250000 -1.868718 -1.869567
112.300000 -1.868985 -1.869567
112.350000 -1.869265 -1.869567
112.400000 -1.869551 -1.869567
112.450000 -1.869835 -1.869567
112.500000 -1.870111 -1.869567
112.550000 -1.870371 -1.869567
112.600000 -1.870608 -1.869567
112.650000 -1.870818 -1.869567
112.700000 -1.870995 -1.869567
112.750000 -1.871133 -1.869567
112.800000 -1.871231 -1.869567
112.850000 -1.871286 -1.869567
112.900000 -1.871297 -1.869567
112.950000 -1.871263 -1.869567
113.000000 -1.871187 -1.869567
113.050000 -1.871069 -1.869567
113.100000 -1.870914 -1.869567
113.150000 -1.870726 -1.869567
113.200000 -1.870509 -1.869567
113.250000 -1.870270 -1.869567
113.300000 -1.870014 -1.869567
113.350000 -1.869749 -1.869567
113.400000 -1.869481 -1.869567
113.450000 -1.869216 -1.869567
113.500000 -1.868963 -1.869567
113.550000 -1.868726 -1.869567
113.600000 -1.868512 -1.869567
113.650000 -1.868327 -1.869567
113.700000 -1.868174 -1.869567
113.750000 -1.868059 -1.869567
113.800000 -1.867982 -1.869567
113.850000 -1.867946 -1.869567
113.900000 -1.867952 -1.869567
113.950000 -1.867999 -1.869567
114.000000 -1.868085 -1.869567
114.050000 -1.868209 -1.869567
114.100000 -1.868367 -1.869567
114.150000 -1.868554 -1.869567
114.200000 -1.868766 -1.869567
114.250000 -1.868997 -1.869567
114.300000 -1.869241 -1.869567
114.350000 -1.869491 -1.869567
114.400000 -1.869742 -1.869567
114.450000 -1.869987 -1.869567
114.500000 -1.870220 -1.869567
114.550000 -1.870434 -1.869567
114.600000 -1.870625 -1.869567
114.650000 -1.870787 -1.869567
114.700000 -1.870918 -1.869567
114.750000 -1.871013 -1.869567
114.800000 -1.871070 -1.869567
114.850000 -1.871089 -1.869567
114.900000 -1.871069 -1.869567
114.950000 -1.871011 -1.869567
115.000000 -1.870916 -1.869567
115.050000 -1.870787 -1.869567
115.100000 -1.870628 -1.869567
115.150000 -1.870444 -1.869567
115.200000 -1.870238 -1.869567
115.250000 -1.870016 -1.869567
115.300000 -1.869784 -1.869567
115.350000 -1.869548 -1.869567
115.400000 -1.869314 -1.869567
115.450000 -1.869089 -1.869567
115.500000 -1.868876 -1.869567
115.550000 -1.868683 -1.869567
115.600000 -1.868514 -1.869567
115.650000 -1.868372 -1.869567
115.700000 -1.868262 -1.869567
115.750000 -1.868186 -1.869567
115.800000 -1.868146 -1.869567
115.850000 -1.868142 -1.869567
115.900000 -1.868175 -1.869567
115.950000 -1.868243 -1.869567
116.000000 -1.868344 -1.869567
116.050000 -1.868476 -1.869567
116.100000 -1.868634 -1.869567
116.150000 -1.868816 -1.869567
116.200000 -1.869015 -1.869567
116.250000 -1.869227 -1.869567
116.300000 -1.869447 -1.869567
116.350000 -1.869668 -1.869567
116.400000 -1.869885 -1.869567
116.450000 -1.870092 -1.869567
116.500000 -1.870285 -1.869567
116.550000 -1.870458 -1.869567
116.600000 -1.870608 -1.869567
116.650000 -1.870729 -1.869567
116.700000 -1.870821 -1.869567
116.750000 -1.870879 -1.869567
116.800000 -1.870904 -1.869567
116.850000 -1.870895 -1.869567
116.900000 -1.870852 -1.869567
116.950000 -1.870776 -1.869567
117.000000 -1.870670 -1.869567
117.050000 -1.870536 -1.869567
117.100000 -1.870379 -1.869567
117.150000 -1.870202 -1.869567
117.200000 -1.870010 -1.869567
117.250000 -1.869808 -1.869567
117.300000 -1.869601 -1.869567
117.350000 -1.869394 -1.869567
117.400000 -1.869194 -1.869567
117.450000 -1.869004 -1.869567
117.500000 -1.868830 -1.869567
117.550000 -1.868675 -1.869567
117.600000 -1.868545 -1.869567
117.650000 -1.868441 -1.869567
117.700000 -1.868367 -1.869567
117.750000 -1.868324 -1.869567
117.800000 -1.868312 -1.869567
117.850000 -1.868333 -1.869567
117.900000 -1.868386 -1.869567
117.950000 -1.868468 -1.869567
118.000000 -1.868577 -1.869567
118.050000 -1.868711 -1.869567
118.100000 -1.868866 -1.869567
118.150000 -1.869038 -1.869567
118.200000 -1.869222 -1.869567
118.250000 -1.869414 -1.869567
118.300000 -1.869609 -1.869567
118.350000 -1.869801 -1.869567
118.400000 -1.869986 -1.869567
118.450000 -1.870159 -1.869567
118.500000 -1.870315 -1.869567
118.550000 -1.870452 -1.869567
118.600000 -1.870565 -1.869567
118.650000 -1.870652 -1.869567
118.700000 -1.870711 -1.869567
118.750000 -1.870740 -1.869567
118.800000 -1.870739 -1.869567
118.850000 -1.870708 -1.869567
118.900000 -1.870648 -1.869567
118.950000 -1.870561 -1.869567
119.000000 -1.870450 -1.869567
119.050000 -1.870316 -1.869567
119.100000 -1.870164 -1.869567
119.150000 -1.869998 -1.869567
119.200000 -1.869822 -1.869567
119.250000 -1.869641 -1.869567
119.300000 -1.869459 -1.869567
119.350000 -1.869281 -1.869567
119.400000 -1.869111 -1.869567
119.450000 -1.868954 -1.869567
119.500000 -1.868814 -1.869567
119.550000 -1.868694 -1.869567
119.600000 -1.868597 -1.869567
119.650000 -1.868525 -1.869567
119.700000 -1.868480 -1.869567
119.750000 -1.868464 -1.869567
119.800000 -1.868475 -1.869567
119.850000 -1.868515 -1.869567
119.900000 -1.868581 -1.869567
119.950000 -1.868671 -1.869567
120.000000 -1.868784 -1.869567
120.050000 -1.868916 -1.869567
120.100000 -1.869064 -1.869567
120.150000 -1.869224 -1.869567
120.200000 -1.869391 -1.869567
120.250000 -1.869562 -1.869567
120.300000 -1.869732 -1.869567
120.350000 -1.869896 -1.869567
120.400000 -1.870051 -1.869567
120.450000 -1.870193 -1.869567
120.500000 -1.870318 -1.869567
120.550000 -1.870422 -1.869567
120.600000 -1.870505 -1.869567
120.650000 -1.870562 -1.869567
120.700000 -1.870594 -1.869567
120.750000 -1.870600 -1.869567
120.800000 -1.870579 -1.869567
120.850000 -1.870533 -1.869567
120.900000 -1.870462 -1.869567
120.950000 -1.870369 -1.869567
121.000000 -1.870256 -1.869567
121.050000 -1.870126 -1.869567
121.100000 -1.869983 -1.869567
121.150000 -1.869830 -1.869567
121.200000 -1.869671 -1.869567
121.250000 -1.869511 -1.869567
121.300000 -1.869353 -1.869567
121.350000 -1.869202 -1.869567
121.400000 -1.869061 -1.869567
121.450000 -1.868934 -1.869567
121.500000 -1.868823 -1.869567
121.550000 -1.868733 -1.869567
121.600000 -1.868664 -1.869567
121.650000 -1.868619 -1.869567
121.700000 -1.868598 -1.869567
121.750000 -1.868603 -1.869567
121.800000 -1.868631 -1.869567
121.850000 -1.868684 -1.869567
121.900000 -1.868758 -1.869567
121.950000 -1.868853 -1.869567
122.000000 -1.868965 -1.869567
122.050000 -1.869092 -1.869567
122.100000 -1.869230 -1.869567
122.150000 -1.869376 -1.869567
122.200000 -1.869526 -1.869567
122.250000 -1.869676 -1.869567
122.300000 -1.869822 -1.869567
122.350000 -1.869961 -1.869567
122.400000 -1.870088 -1.869567
122.450000 -1.870202 -1.869567
122.500000 -1.870298 -1.869567
122.550000 -1.870376 -1.869567
122.600000 -1.870432 -1.869567
122.650000 -1.870465 -1.869567
122.700000 -1.870476 -1.869567
122.750000 -1.870463 -1.869567
122.800000 -1.870428 -1.869567
122.850000 -1.870371 -1.869567
122.900000 -1.870293 -1.869567
122.950000 -1.870198 -1.869567
123.000000 -1.870087 -1.869567
123.050000 -1.869964 -1.869567
123.100000 -1.869831 -1.869567
123.150000 -1.869693 -1.869567
123.200000 -1.869552 -1.869567
123.250000 -1.869412 -1.869567
123.300000 -1.869277 -1.869567
123.350000 -1.869151 -1.869567
123.400000 -1.869036 -1.869567
123.450000 -1.868935 -1.869567
123.500000 -1.868851 -1.869567
123.550000 -1.868786 -1.869567
123.600000 -1.868741 -1.869567
123.650000 -1.868718 -1.869567
123.700000 -1.868716 -1.869567
123.750000 -1.868736 -1.869567
123.800000 -1.868777 -1.869567
123.850000 -1.868838 -1.869567
123.900000 -1.868918 -1.869567
123.950000 -1.869013 -1.869567
124.000000 -1.869121 -1.869567
124.050000 -1.869241 -1.869567
124.100000 -1.869368 -1.869567
124.150000 -1.869499 -1.869567
124.200000 -1.869631 -1.869567
124.250000 -1.869760 -1.869567
124.300000 -1.869884 -1.869567
124.350000 -1.869999 -1.869567
124.400000 -1.870102 -1.869567
124.450000 -1.870191 -1.869567
124.500000 -1.870263 -1.869567
124.550000 -1.870317 -1.869567
124.600000 -1.870352 -1.869567
124.650000 -1.870366 -1.869567
124.700000 -1.870360 -1.869567
124.750000 -1.870333 -1.869567
124.800000 -1.870287 -1.869567
124.850000 -1.870224 -1.869567
124.900000 -1.870143 -1.869567
124.950000 -1.870049 -1.869567
125.000000 -1.869943 -1.869567
125.050000 -1.869828 -1.869567
125.100000 -1.869707 -1.869567
125.150000 -1.869584 -1.869567
125.200000 -1.869460 -1.869567
125.250000 -1.869341 -1.869567
125.300000 -1.869227 -1.869567
125.350000 -1.869124 -1.869567
125.400000 -1.869032 -1.869567
125.450000 -1.868954 -1.869567
125.500000 -1.868893 -1.869567
125.550000 -1.868849 -1.869567
125.600000 -1.868824 -1.869567
125.650000 -1.868818 -1.869567
125.700000 -1.868831 -1.869567
125.750000 -1.868862 -1.869567
125.800000 -1.868912 -1.869567
125.850000 -1.868978 -1.869567
125.900000 -1.869058 -1.869567
125.950000 -1.869151 -1.869567
126.000000 -1.869254 -1.869567
126.050000 -1.869364 -1.869567
126.100000 -1.869479 -1.869567
126.150000 -1.869595 -1.869567
126.200000 -1.869710 -1.869567
126.250000 -1.869820 -1.869567
126.300000 -1.869923 -1.869567
126.350000 -1.870016 -1.869567
126.400000 -1.870098 -1.869567
126.450000 -1.870165 -1.869567
126.500000 -1.870216 -1.869567
126.550000 -1.870251 -1.869567
126.600000 -1.870268 -1.869567
126.650000 -1.870267 -1.869567
126.700000 -1.870248 -1.869567
126.750000 -1.870212 -1.869567
126.800000 -1.870159 -1.869567
126.850000 -1.870092 -1.869567
126.900000 -1.870012 -1.869567
126.950000 -1.869921 -1.869567
127.000000 -1.869822 -1.869567
127.050000 -1.869716 -1.869567
127.100000 -1.869608 -1.869567
127.150000 -1.869499 -1.869567
127.200000 -1.869393 -1.869567
127.250000 -1.869292 -1.869567
127.300000 -1.869198 -1.869567
127.350000 -1.869115 -1.869567
127.400000 -1.869044 -1.869567
127.450000 -1.868986 -1.869567
127.500000 -1.868944 -1.869567
127.550000 -1.868917 -1.869567
127.600000 -1.868908 -1.869567
127.650000 -1.868915 -1.869567
127.700000 -1.868939 -1.869567
127.750000 -1.868979 -1.869567
127.800000 -1.869034 -1.869567
127.850000 -1.869101 -1.869567
127.900000 -1.869181 -1.869567
127.950000 -1.869269 -1.869567
128.000000 -1.869365 -1.869567
128.050000 -1.869465 -1.869567
128.100000 -1.869567 -1.869567
128.150000 -1.869668 -1.869567
128.200000 -1.869766 -1.869567
128.250000 -1.869859 -1.869567
128.300000 -1.869943 -1.869567
128.350000 -1.870017 -1.869567
128.400000 -1.870079 -1.869567
128.450000 -1.870128 -1.869567
128.500000 -1.870162 -1.869567
128.550000 -1.870181 -1.869567
128.600000 -1.870184 -1.869567
128.650000 -1.870171 -1.869567
128.700000 -1.870143 -1.869567
128.750000 -1.870100 -1.869567
128.800000 -1.870044 -1.869567
128.850000 -1.869976 -1.869567
128.900000 -1.869898 -1.869567
128.950000 -1.869813 -1.869567
129.000000 -1.869721 -1.869567
129.050000 -1.869626 -1.869567
129.100000 -1.869531 -1.869567
129.150000 -1.869436 -1.869567
129.200000 -1.869346 -1.869567
129.250000 -1.869262 -1.869567
129.300000 -1.869186 -1.869567
129.350000 -1.869121 -1.869567
129.400000 -1.869067 -1.869567
129.450000 -1.869027 -1.869567
129.500000 -1.869000 -1.869567
129.550000 -1.868988 -1.869567
129.600000 -1.868991 -1.869567
129.650000 -1.869009 -1.869567
129.700000 -1.869040 -1.869567
129.750000 -1.869085 -1.869567
129.800000 -1.869142 -1.869567
129.850000 -1.869210 -1.869567
129.900000 -1.869286 -1.869567
129.950000 -1.869368 -1.869567
130.000000 -1.869455 -1.869567
130.050000 -1.869545 -1.869567
130.100000 -1.869634 -1.869567
130.150000 -1.869722 -1.869567
130.200000 -1.869804 -1.869567
130.250000 -1.869880 -1.869567
130.300000 -1.869948 -1.869567
130.350000 -1.870005 -1.869567
130.400000 -1.870051 -1.869567
130.450000 -1.870084 -1.869567
130.500000 -1.870104 -1.869567
130.550000 -1.870110 -1.869567
130.600000 -1.870102 -1.869567
130.650000 -1.870080 -1.869567
130.700000 -1.870046 -1.869567
130.750000 -1.869999 -1.869567
130.800000 -1.869942 -1.869567
130.850000 -1.869876 -1.869567
130.900000 -1.869802 -1.869567
130.950000 -1.869722 -1.869567
131.000000 -1.869640 -1.869567
131.050000 -1.869555 -1.869567
131.100000 -1.869472 -1.869567
131.150000 -1.869392 -1.869567
131.200000 -1.869316 -1.869567
131.250000 -1.869248 -1.869567
131.300000 -1.869188 -1.869567
131.350000 -1.869138 -1.869567
131.400000 -1.869100 -1.869567
131.450000 -1.869073 -1.869567
131.500000 -1.869059 -1.869567
131.550000 -1.869059 -1.869567
131.600000 -1.869071 -1.869567
131.650000 -1.869096 -1.869567
131.700000 -1.869133 -1.869567
131.750000 -1.869180 -1.869567
131.800000 -1.869238 -1.869567
131.850000 -1.869303 -1.869567
131.900000 -1.869374 -1.869567
131.950000 -1.869450 -1.869567
132.000000 -1.869528 -1.869567
132.050000 -1.869607 -1.869567
132.100000 -1.869685 -1.869567
132.150000 -1.869758 -1.869567
132.200000 -1.869827 -1.869567
132.250000 -1.869888 -1.869567
132.300000 -1.869941 -1.869567
132.350000 -1.869984 -1.869567
132.400000 -1.870016 -1.869567
132.450000 -1.870036 -1.869567
132.500000 -1.870044 -1.869567
132.550000 -1.870040 -1.869567
132.600000 -1.870024 -1.869567
132.650000 -1.869996 -1.869567
132.700000 -1.869958 -1.869567
132.750000 -1.869910 -1.869567
132.800000 -1.869853 -1.869567
132.850000 -1.869790 -1.869567
132.900000 -1.869721 -1.869567
132.950000 -1.869649 -1.869567
133.000000 -1.869575 -1.869567
133.050000 -1.869501 -1.869567
133.100000 -1.869430 -1.869567
133.150000 -1.869362 -1.869567
133.200000 -1.869300 -1.869567
133.250000 -1.869246 -1.869567
133.300000 -1.869200 -1.869567
133.350000 -1.869163 -1.869567
133.400000 -1.869137 -1.869567
133.450000 -1.869123 -1.869567
133.500000 -1.869119 -1.869567
133.550000 -1.869127 -1.869567
133.600000 -1.869147 -1.869567
133.650000 -1.869177 -1.869567
133.700000 -1.869216 -1.869567
133.750000 -1.869264 -1.869567
133.800000 -1.869320 -1.869567
133.850000 -1.869382 -1.869567
133.900000 -1.869448 -1.869567
133.950000 -1.869516 -1.869567
134.000000 -1.869586 -1.869567
134.050000 -1.869654 -1.869567
134.100000 -1.869720 -1.869567
134.150000 -1.869781 -1.869567
134.200000 -1.869837 -1.869567
134.250000 -1.869885 -1.869567
134.300000 -1.869925 -1.869567
134.350000 -1.869956 -1.869567
134.400000 -1.869976 -1.869567
134.450000 -1.869986 -1.869567
134.500000 -1.869985 -1.869567
134.550000 -1.869973 -1.869567
134.600000 -1.869951 -1.869567
134.650000 -1.869920 -1.869567
134.700000 -1.869879 -1.869567
134.750000 -1.869831 -1.869567
134.800000 -1.869777 -1.869567
134.850000 -1.869717 -1.869567
134.900000 -1.869654 -1.869567
134.950000 -1.869590 -1.869567
135.000000 -1.869525 -1.869567
135.050000 -1.869461 -1.869567
135.100000 -1.869401 -1.869567
135.150000 -1.869345 -1.869567
135.200000 -1.869296 -1.869567
135.250000 -1.869253 -1.869567
135.300000 -1.869219 -1.869567
135.350000 -1.869194 -1.869567
135.400000 -1.869179 -1.869567
135.450000 -1.869173 -1.869567
135.500000 -1.869178 -1.869567
135.550000 -1.869192 -1.869567
135.600000 -1.869217 -1.869567
135.650000 -1.869249 -1.869567
135.700000 -1.869290 -1.869567
135.750000 -1.869338 -1.869567
135.800000 -1.869391 -1.869567
135.850000 -1.869448 -1.869567
135.900000 -1.869508 -1.869567
135.950000 -1.869569 -1.869567
136.000000 -1.869629 -1.869567
136.050000 -1.869688 -1.869567
136.100000 -1.869743 -1.869567
136.150000 -1.869793 -1.869567
136.200000 -1.869837 -1.869567
136.250000 -1.869874 -1.869567
136.300000 -1.869903 -1.869567
136.350000 -1.869923 -1.869567
136.400000 -1.869934 -1.869567
136.450000 -1.869935 -1.869567
136.500000 -1.869927 -1.869567
136.550000 -1.869910 -1.869567
136.600000 -1.869885 -1.869567
136.650000 -1.869851 -1.869567
136.700000 -1.869810 -1.869567
136.750000 -1.869763 -1.869567
136.800000 -1.869712 -1.869567
136.850000 -1.869657 -1.869567
136.900000 -1.869601 -1.869567
136.950000 -1.869544 -1.869567
137.000000 -1.869487 -1.869567
137.050000 -1.869434 -1.869567
137.100000 -1.869383 -1.869567
137.150000 -1.869338 -1.869567
137.200000 -1.869299 -1.869567
137.250000 -1.869268 -1.869567
137.300000 -1.869244 -1.869567
137.350000 -1.869228 -1.869567
137.400000 -1.869221 -1.869567
137.450000 -1.869223 -1.869567
137.500000 -1.869234 -1.869567
137.550000 -1.869253 -1.869567
137.600000 -1.869280 -1.869567
137.650000 -1.869314 -1.869567
137.700000 -1.869355 -1.869567
137.750000 -1.869400 -1.869567
137.800000 -1.869450 -1.869567
137.850000 -1.869502 -1.869567
137.900000 -1.869555 -1.869567
137.950000 -1.869609 -1.869567
138.000000 -1.869661 -1.869567
138.050000 -1.869710 -1.869567
138.100000 -1.869755 -1.869567
138.150000 -1.869795 -1.869567
138.200000 -1.869830 -1.869567
138.250000 -1.869857 -1.869567
138.300000 -1.869876 -1.869567
138.350000 -1.869888 -1.869567
138.400000 -1.869891 -1.869567
138.450000 -1.869886 -1.869567
138.500000 -1.869873 -1.869567
138.550000 -1.869852 -1.869567
138.600000 -1.869824 -1.869567
138.650000 -1.869790 -1.869567
138.700000 -1.869750 -1.869567
138.750000 -1.869706 -1.869567
138.800000 -1.869658 -1.869567
138.850000 -1.869609 -1.869567
138.900000 -1.869559 -1.869567
138.950000 -1.869509 -1.869567
139.000000 -1.869461 -1.869567
139.050000 -1.869416 -1.869567
139.100000 -1.869375 -1.869567
139.150000 -1.869340 -1.869567
139.200000 -1.869310 -1.869567
139.250000 -1.869287 -1.869567
139.300000 -1.869272 -1.869567
139.350000 -1.869264 -1.869567
139.400000 -1.869263 -1.869567
139.450000 -1.869271 -1.869567
139.500000 -1.869286 -1.869567
139.550000 -1.869308 -1.869567
139.600000 -1.869337 -1.869567
139.650000 -1.869371 -1.869567
139.700000 -1.869410 -1.869567
139.750000 -1.869453 -1.869567
139.800000 -1.869498 -1.869567
139.850000 -1.869545 -1.869567
139.900000 -1.869592 -1.869567
139.950000 -1.869638 -1.869567
140.000000 -1.869682 -1.869567
140.050000 -1.869723 -1.869567
140.100000 -1.869760 -1.869567
140.150000 -1.869791 -1.869567
140.200000 -1.869816 -1.869567
140.250000 -1.869835 -1.869567
140.300000 -1.869847 -1.869567
140.350000 -1.869852 -1.869567
140.400000 -1.869849 -1.869567
140.450000 -1.869840 -1.869567
140.500000 -1.869823 -1.869567
140.550000 -1.869800 -1.869567
140.600000 -1.869771 -1.869567
140.650000 -1.869737 -1.869567
140.700000 -1.869699 -1.869567
140.750000 -1.869658 -1.869567
140.800000 -1.869614 -1.869567
140.850000 -1.869570 -1.869567
140.900000 -1.869526 -1.869567
140.950000 -1.869484 -1.869567
141.000000 -1.869443 -1.869567
141.050000 -1.869407 -1.869567
141.100000 -1.869374 -1.869567
141.150000 -1.869347 -1.869567
141.200000 -1.869325 -1.869567
141.250000 -1.869310 -1.869567
141.300000 -1.869301 -1.869567
141.350000 -1.869300 -1.869567
141.400000 -1.869305 -1.869567
141.450000 -1.869316 -1.869567
141.500000 -1.869334 -1.869567
141.550000 -1.869358 -1.869567
141.600000 -1.869387 -1.869567
141.650000 -1.869420 -1.869567
141.700000 -1.869457 -1.869567
141.750000 -1.869497 -1.869567
141.800000 -1.869538 -1.869567
141.850000 -1.869579 -1.869567
141.900000 -1.869620 -1.869567
141.950000 -1.869659 -1.869567
142.000000 -1.869696 -1.869567
142.050000 -1.869729 -1.869567
142.100000 -1.869758 -1.869567
142.150000 -1.869781 -1.869567
142.200000 -1.869799 -1.869567
142.250000 -1.869811 -1.869567
142.300000 -1.869817 -1.869567
142.350000 -1.869816 -1.869567
142.400000 -1.869809 -1.869567
142.450000 -1.869796 -1.869567
142.500000 -1.869777 -1.869567
142.550000 -1.869753 -1.869567
142.600000 -1.869724 -1.869567
142.650000 -1.869691 -1.869567
142.700000 -1.869656 -1.869567
142.750000 -1.869618 -1.869567
142.800000 -1.869579 -1.869567
142.850000 -1.869541 -1.869567
142.900000 -1.869503 -1.869567
142.950000 -1.869467 -1.869567
143.000000 -1.869434 -1.869567
143.050000 -1.869404 -1.869567
143.100000 -1.869379 -1.869567
143.150000 -1.869359 -1.869567
143.200000 -1.869344 -1.869567
143.250000 -1.869335 -1.869567
143.300000 -1.869332 -1.869567
143.350000 -1.869335 -1.869567
143.400000 -1.869344 -1.869567
143.450000 -1.869358 -1.869567
143.500000 -1.869378 -1.869567
143.550000 -1.869402 -1.869567
143.600000 -1.869431 -1.869567
143.650000 -1.869462 -1.869567
143.700000 -1.869497 -1.869567
143.750000 -1.869532 -1.869567
143.800000 -1.869569 -1.869567
143.850000 -1.869605 -1.869567
143.900000 -1.869640 -1.869567
143.950000 -1.869673 -1.869567
144.000000 -1.869703 -1.869567
144.050000 -1.869729 -1.869567
144.100000 -1.869751 -1.869567
144.150000 -1.869768 -1.869567
144.200000 -1.869780 -1.869567
144.250000 -1.869786 -1.869567
144.300000 -1.869787 -1.869567
144.350000 -1.869782 -1.869567
144.400000 -1.869772 -1.869567
144.450000 -1.869756 -1.869567
144.500000 -1.869736 -1.869567
144.550000 -1.869711 -1.869567
144.600000 -1.869683 -1.869567
144.650000 -1.869653 -1.869567
144.700000 -1.869620 -1.869567
144.750000 -1.869586 -1.869567
144.800000 -1.869552 -1.869567
144.850000 -1.869518 -1.869567
144.900000 -1.869486 -1.869567
144.950000 -1.869456 -1.869567
145.000000 -1.869430 -1.869567
145.050000 -1.869407 -1.869567
145.100000 -1.869388 -1.869567
145.150000 -1.869373 -1.869567
145.200000 -1.869364 -1.869567
145.250000 -1.869360 -1.869567
145.300000 -1.869362 -1.869567
145.350000 -1.869368 -1.869567
145.400000 -1.869380 -1.869567
145.450000 -1.869396 -1.869567
145.500000 -1.869417 -1.869567
145.550000 -1.869441 -1.869567
145.600000 -1.869468 -1.869567
145.650000 -1.869498 -1.869567
145.700000 -1.869529 -1.869567
145.750000 -1.869561 -1.869567
145.800000 -1.869593 -1.869567
145.850000 -1.869624 -1.869567
145.900000 -1.869653 -1.869567
145.950000 -1.869680 -1.869567
146.000000 -1.869704 -1.869567
146.050000 -1.869724 -1.869567
146.100000 -1.869740 -1.869567
146.150000 -1.869752 -1.869567
146.200000 -1.869759 -1.869567
146.250000 -1.869761 -1.869567
146.300000 -1.869757 -1.869567
146.350000 -1.869749 -1.869567
146.400000 -1.869737 -1.869567
146.450000 -1.869720 -1.869567
146.500000 -1.869699 -1.869567
146.550000 -1.869676 -1.869567
146.600000 -1.869649 -1.869567
146.650000 -1.869621 -1.869567
146.700000 -1.869591 -1.869567
146.750000 -1.869561 -1.869567
146.800000 -1.869531 -1.869567
146.850000 -1.869503 -1.869567
146.900000 -1.869476 -1.869567
146.950000 -1.869452 -1.869567
147.000000 -1.869431 -1.869567
147.050000 -1.869413 -1.869567
147.100000 -1.869399 -1.869567
147.150000 -1.869390 -1.869567
147.200000 -1.869386 -1.869567
147.250000 -1.869386 -1.869567
147.300000 -1.869390 -1.869567
147.350000 -1.869399 -1.869567
147.400000 -1.869413 -1.869567
147.450000 -1.869430 -1.869567
147.500000 -1.869451 -1.869567
147.550000 -1.869474 -1.869567
147.600000 -1.869500 -1.869567
147.650000 -1.869527 -1.869567
147.700000 -1.869555 -1.869567
147.750000 -1.869583 -1.869567
147.800000 -1.869610 -1.869567
147.850000 -1.869637 -1.869567
147.900000 -1.869661 -1.869567
147.950000 -1.869683 -1.869567
148.000000 -1.869701 -1.869567
148.050000 -1.869716 -1.869567
148.100000 -1.869727 -1.869567
148.150000 -1.869734 -1.869567
148.200000 -1.869737 -1.869567
148.250000 -1.869735 -1.869567
148.300000 -1.869729 -1.869567
148.350000 -1.869719 -1.869567
148.400000 -1.869705 -1.869567
148.450000 -1.869688 -1.869567
148.500000 -1.869668 -1.869567
148.550000 -1.869645 -1.869567
148.600000 -1.869620 -1.869567
148.650000 -1.869595 -1.869567
148.700000 -1.869568 -1.869567
148.750000 -1.869542 -1.869567
148.800000 -1.869516 -1.869567
148.850000 -1.869492 -1.869567
148.900000 -1.869471 -1.869567
148.950000 -1.869451 -1.869567
149.000000 -1.869435 -1.869567
149.050000 -1.869422 -1.869567
149.100000 -1.869413 -1.869567
149.150000 -1.869408 -1.869567
149.200000 -1.869407 -1.869567
149.250000 -1.869410 -1.869567
149.300000 -1.869417 -1.869567
149.350000 -1.869428 -1.869567
149.400000 -1.869443 -1.869567
149.450000 -1.869460 -1.869567
149.500000 -1.869480 -1.869567
149.550000 -1.869502 -1.869567
149.600000 -1.869526 -1.869567
149.650000 -1.869550 -1.869567
149.700000 -1.869575 -1.869567
149.750000 -1.869599 -1.869567
149.800000 -1.869623 -1.869567
149.850000 -1.869645 -1.869567
149.900000 -1.869664 -1.869567
149.950000 -1.869681 -1.869567
150.000000 -1.869695 -1.869567
150.050000 -1.869706 -1.869567
150.100000 -1.869713 -1.869567
150.150000 -1.869716 -1.869567
150.200000 -1.869716 -1.869567
150.250000 -1.869711 -1.869567
150.300000 -1.869703 -1.869567
150.350000 -1.869692 -1.869567
150.400000 -1.869677 -1.869567
150.450000 -1.869660 -1.869567
150.500000 -1.869641 -1.869567
150.550000 -1.869619 -1.869567
150.600000 -1.869597 -1.869567
150.650000 -1.869574 -1.869567
150.700000 -1.869550 -1.869567
150.750000 -1.869528 -1.869567
150.800000 -1.869506 -1.869567
150.850000 -1.869487 -1.869567
150.900000 -1.869469 -1.869567
150.950000 -1.869454 -1.869567
151.000000 -1.869442 -1.869567
151.050000 -1.869433 -1.869567
151.100000 -1.869428 -1.869567
151.150000 -1.869426 -1.869567
151.200000 -1.869428 -1.869567
151.250000 -1.869434 -1.869567
151.300000 -1.869442 -1.869567
151.350000 -1.869454 -1.869567
151.400000 -1.869469 -1.869567
151.450000 -1.869486 -1.869567
151.500000 -1.869505 -1.869567
151.550000 -1.869526 -1.869567
151.600000 -1.869547 -1.869567
151.650000 -1.869569 -1.869567
151.700000 -1.869590 -1.869567
151.750000 -1.869611 -1.869567
151.800000 -1.869631 -1.869567
151.850000 -1.869648 -1.869567
151.900000 -1.869664 -1.869567
151.950000 -1.869677 -1.869567
152.000000 -1.869687 -1.869567
152.050000 -1.869694 -1.869567
152.100000 -1.869698 -1.869567
152.150000 -1.869698 -1.869567
152.200000 -1.869695 -1.869567
152.250000 -1.869689 -1.869567
152.300000 -1.869680 -1.869567
152.350000 -1.869667 -1.869567
152.400000 -1.869653 -1.869567
152.450000 -1.869636 -1.869567
152.500000 -1.869618 -1.869567
152.550000 -1.869598 -1.869567
152.600000 -1.869578 -1.869567
152.650000 -1.869557 -1.869567
152.700000 -1.869537 -1.869567
152.750000 -1.869518 -1.869567
152.800000 -1.869500 -1.869567
152.850000 -1.869484 -1.869567
152.900000 -1.869471 -1.869567
152.950000 -1.869459 -1.869567
153.000000 -1.869451 -1.869567
153.050000 -1.869446 -1.869567
153.100000 -1.869443 -1.869567
153.150000 -1.869444 -1.869567
153.200000 -1.869448 -1.869567
153.250000 -1.869455 -1.869567
153.300000 -1.869465 -1.869567
153.350000 -1.869477 -1.869567
153.400000 -1.869492 -1.869567
153.450000 -1.869508 -1.869567
153.500000 -1.869526 -1.869567
153.550000 -1.869545 -1.869567
153.600000 -1.869564 -1.869567
153.650000 -1.869583 -1.869567
153.700000 -1.869601 -1.869567
153.750000 -1.869619 -1.869567
153.800000 -1.869635 -1.869567
153.850000 -1.869649 -1.869567
153.900000 -1.869661 -1.869567
153.950000 -1.869671 -1.869567
154.000000 -1.869678 -1.869567
154.050000 -1.869682 -1.869567
154.100000 -1.869683 -1.869567
154.150000 -1.869681 -1.869567
154.200000 -1.869676 -1.869567
154.250000 -1.869668 -1.869567
154.300000 -1.869658 -1.869567
154.350000 -1.869646 -1.869567
154.400000 -1.869631 -1.869567
154.450000 -1.869615 -1.869567
154.500000 -1.869598 -1.869567
154.550000 -1.869581 -1.869567
154.600000 -1.869563 -1.869567
154.650000 -1.869545 -1.869567
154.700000 -1.869528 -1.869567
154.750000 -1.869512 -1.869567
154.800000 -1.869498 -1.869567
154.850000 -1.869485 -1.869567
154.900000 -1.869475 -1.869567
154.950000 -1.869467 -1.869567
155.000000 -1.869461 -1.869567
155.050000 -1.869459 -1.869567
155.100000 -1.869459 -1.869567
155.150000 -1.869462 -1.869567
155.200000 -1.869467 -1.869567
155.250000 -1.869475 -1.869567
155.300000 -1.869485 -1.869567
155.350000 -1.869498 -1.869567
155.400000 -1.869512 -1.869567
155.450000 -1.869527 -1.869567
155.500000 -1.869543 -1.869567
155.550000 -1.869560 -1.869567
155.600000 -1.869577 -1.869567
155.650000 -1.869593 -1.869567
155.700000 -1.869609 -1.869567
155.750000 -1.869623 -1.869567
155.800000 -1.869636 -1.869567
155.850000 -1.869647 -1.869567
155.900000 -1.869656 -1.869567
155.950000 -1.869663 -1.869567
156.000000 -1.869667 -1.869567
156.050000 -1.869669 -1.869567
156.100000 -1.869667 -1.869567
156.150000 -1.869664 -1.869567
156.200000 -1.869658 -1.869567
156.250000 -1.869649 -1.869567
156.300000 -1.869639 -1.869567
156.350000 -1.869627 -1.869567
156.400000 -1.869613 -1.869567
156.450000 -1.869598 -1.869567
156.500000 -1.869583 -1.869567
156.550000 -1.869567 -1.869567
156.600000 -1.869551 -1.869567
156.650000 -1.869536 -1.869567
156.700000 -1.869522 -1.869567
156.750000 -1.869509 -1.869567
156.800000 -1.869497 -1.869567
156.850000 -1.869488 -1.869567
156.900000 -1.869480 -1.869567
156.950000 -1.869475 -1.869567
157.000000 -1.869472 -1.869567
157.050000 -1.869471 -1.869567
157.100000 -1.869473 -1.869567
157.150000 -1.869478 -1.869567
157.200000 -1.869484 -1.869567
157.250000 -1.869493 -1.869567
157.300000 -1.869503 -1.869567
157.350000 -1.869515 -1.869567
157.400000 -1.869529 -1.869567
157.450000 -1.869543 -1.869567
157.500000 -1.869557 -1.869567
157.550000 -1.869572 -1.869567
157.600000 -1.869587 -1.869567
157.650000 -1.869601 -1.869567
157.700000 -1.869614 -1.869567
157.750000 -1.869625 -1.869567
157.800000 -1.869635 -1.869567
157.850000 -1.869644 -1.869567
157.900000 -1.869650 -1.869567
157.950000 -1.869654 -1.869567
158.000000 -1.869656 -1.869567
158.050000 -1.869656 -1.869567
158.100000 -1.869653 -1.869567
158.150000 -1.869648 -1.869567
158.200000 -1.869641 -1.869567
158.250000 -1.869633 -1.869567
158.300000 -1.869622 -1.869567
158.350000 -1.869611 -1.869567
158.400000 -1.869598 -1.869567
158.450000 -1.869584 -1.869567
158.500000 -1.869570 -1.869567
158.550000 -1.869557 -1.869567
158.600000 -1.869543 -1.869567
158.650000 -1.869530 -1.869567
158.700000 -1.869519 -1.869567
158.750000 -1.869508 -1.869567
158.800000 -1.869499 -1.869567
158.850000 -1.869492 -1.869567
158.900000 -1.869487 -1.869567
158.950000 -1.869484 -1.869567
159.000000 -1.869483 -1.869567
159.050000 -1.869484 -1.869567
159.100000 -1.869487 -1.869567
159.150000 -1.869493 -1.869567
159.200000 -1.869500 -1.869567
159.250000 -1.869509 -1.869567
159.300000 -1.869519 -1.869567
159.350000 -1.869530 -1.869567
159.400000 -1.869542 -1.869567
159.450000 -1.869555 -1.869567
159.500000 -1.869568 -1.869567
159.550000 -1.869581 -1.869567
159.600000 -1.869594 -1.869567
159.650000 -1.869605 -1.869567
159.700000 -1.869616 -1.869567
159.750000 -1.869625 -1.869567
159.800000 -1.869633 -1.869567
159.850000 -1.869639 -1.869567
159.900000 -1.869643 -1.869567
159.950000 -1.869645 -1.869567
160.000000 -1.869645 -1.869567
160.050000 -1.869643 -1.869567
160.100000 -1.869640 -1.869567
160.150000 -1.869634 -1.869567
160.200000 -1.869627 -1.869567
160.250000 -1.869618 -1.869567
160.300000 -1.869608 -1.869567
160.350000 -1.869597 -1.869567
160.400000 -1.869585 -1.869567
160.450000 -1.869573 -1.869567
160.500000 -1.869561 -1.869567
160.550000 -1.869549 -1.869567
160.600000 -1.869537 -1.869567
160.650000 -1.869527 -1.869567
160.700000 -1.869517 -1.869567
160.750000 -1.869509 -1.869567
160.800000 -1.869503 -1.869567
160.850000 -1.869498 -1.869567
160.900000 -1.869494 -1.869567
160.950000 -1.869493 -1.869567
161.000000 -1.869494 -1.869567
161.050000 -1.869496 -1.869567
161.100000 -1.869500 -1.869567
161.150000 -1.869506 -1.869567
161.200000 -1.869514 -1.869567
161.250000 -1.869522 -1.869567
161.300000 -1.869532 -1.869567
161.350000 -1.869543 -1.869567
161.400000 -1.869554 -1.869567
161.450000 -1.869565 -1.869567
161.500000 -1.869577 -1.869567
161.550000 -1.869588 -1.869567
161.600000 -1.869598 -1.869567
161.650000 -1.869608 -1.869567
161.700000 -1.869616 -1.869567
161.750000 -1.869623 -1.869567
161.800000 -1.869629 -1.869567
161.850000 -1.869633 -1.869567
161.900000 -1.869635 -1.869567
161.950000 -1.869636 -1.869567
162.000000 -1.869635 -1.869567
162.050000 -1.869632 -1.869567
162.100000 -1.869627 -1.869567
162.150000 -1.869621 -1.869567
162.200000 -1.869614 -1.869567
162.250000 -1.869605 -1.869567
162.300000 -1.869596 -1.869567
162.350000 -1.869585 -1.869567
162.400000 -1.869575 -1.869567
162.450000 -1.869564 -1.869567
162.500000 -1.869554 -1.869567
162.550000 -1.869543 -1.869567
162.600000 -1.869534 -1.869567
162.650000 -1.869525 -1.869567
162.700000 -1.869518 -1.869567
162.750000 -1.869512 -1.869567
162.800000 -1.869507 -1.869567
162.850000 -1.869504 -1.869567
162.900000 -1.869502 -1.869567
162.950000 -1.869502 -1.869567
163.000000 -1.869504 -1.869567
163.050000 -1.869507 -1.869567
163.100000 -1.869512 -1.869567
163.150000 -1.869518 -1.869567
163.200000 -1.869526 -1.869567
163.250000 -1.869534 -1.869567
163.300000 -1.869543 -1.869567
163.350000 -1.869553 -1.869567
163.400000 -1.869563 -1.869567
163.450000 -1.869573 -1.869567
163.500000 -1.869583 -1.869567
163.550000 -1.869592 -1.869567
163.600000 -1.869601 -1.869567
163.650000 -1.869609 -1.869567
163.700000 -1.869615 -1.869567
163.750000 -1.869620 -1.869567
163.800000 -1.869624 -1.869567
163.850000 -1.869627 -1.869567
163.900000 -1.869628 -1.869567
163.950000 -1.869627 -1.869567
164.000000 -1.869625 -1.869567
164.050000 -1.869621 -1.869567
164.100000 -1.869616 -1.869567
164.150000 -1.869610 -1.869567
164.200000 -1.869602 -1.869567
164.250000 -1.869594 -1.869567
164.300000 -1.869585 -1.869567
164.350000 -1.869576 -1.869567
164.400000 -1.869567 -1.869567
164.450000 -1.869557 -1.869567
164.500000 -1.869548 -1.869567
164.550000 -1.869540 -1.869567
164.600000 -1.869532 -1.869567
164.650000 -1.869525 -1.869567
164.700000 -1.869519 -1.869567
164.750000 -1.869515 -1.869567
164.800000 -1.869512 -1.869567
164.850000 -1.869510 -1.869567
164.900000 -1.869510 -1.869567
164.950000 -1.869511 -1.869567
165.000000 -1.869514 -1.869567
165.050000 -1.869518 -1.869567
165.100000 -1.869523 -1.869567
165.150000 -1.869529 -1.869567
165.200000 -1.869536 -1.869567
165.250000 -1.869544 -1.869567
165.300000 -1.869553 -1.869567
165.350000 -1.869561 -1.869567
165.400000 -1.869570 -1.869567
165.450000 -1.869579 -1.869567
165.500000 -1.869587 -1.869567
165.550000 -1.869595 -1.869567
165.600000 -1.869602 -1.869567
165.650000 -1.869608 -1.869567
165.700000 -1.869613 -1.869567
165.750000 -1.869617 -1.869567
165.800000 -1.869619 -1.869567
165.850000 -1.869620 -1.869567
165.900000 -1.869620 -1.869567
165.950000 -1.869618 -1.869567
166.000000 -1.869615 -1.869567
166.050000 -1.869611 -1.869567
166.100000 -1.869606 -1.869567
166.150000 -1.869600 -1.869567
166.200000 -1.869593 -1.869567
166.250000 -1.869585 -1.869567
166.300000 -1.869577 -1.869567
166.350000 -1.869569 -1.869567
166.400000 -1.869561 -1.869567
166.450000 -1.869552 -1.869567
166.500000 -1.869545 -1.869567
166.550000 -1.869538 -1.869567
166.600000 -1.869532 -1.869567
166.650000 -1.869526 -1.869567
166.700000 -1.869522 -1.869567
166.750000 -1.869519 -1.869567
166.800000 -1.869517 -1.869567
166.850000 -1.869517 -1.869567
166.900000 -1.869517 -1.869567
166.950000 -1.869519 -1.869567
167.000000 -1.869523 -1.869567
167.050000 -1.869527 -1.869567
167.100000 -1.869532 -1.869567
167.150000 -1.869538 -1.869567
167.200000 -1.869545 -1.869567
167.250000 -1.869552 -1.869567
167.300000 -1.869560 -1.869567
167.350000 -1.869568 -1.869567
167.400000 -1.869576 -1.869567
167.450000 -1.869583 -1.869567
167.500000 -1.869590 -1.869567
167.550000 -1.869596 -1.869567
167.600000 -1.869602 -1.869567
167.650000 -1.869606 -1.869567
167.700000 -1.869610 -1.869567
167.750000 -1.869612 -1.869567
167.800000 -1.869614 -1.869567
167.850000 -1.869614 -1.869567
167.900000 -1.869613 -1.869567
167.950000 -1.869610 -1.869567
168.000000 -1.869607 -1.869567
168.050000 -1.869602 -1.869567
168.100000 -1.869597 -1.869567
168.150000 -1.869591 -1.869567
168.200000 -1.869585 -1.869567
168.250000 -1.869578 -1.869567
168.300000 -1.869570 -1.869567
168.350000 -1.869563 -1.869567
168.400000 -1.869556 -1.869567
168.450000 -1.869549 -1.869567
168.500000 -1.869543 -1.869567
168.550000 -1.869537 -1.869567
168.600000 -1.869532 -1.869567
168.650000 -1.869528 -1.869567
168.700000 -1.869525 -1.869567
168.750000 -1.869524 -1.869567
168.800000 -1.869523 -1.869567
168.850000 -1.869523 -1.869567
168.900000 -1.869525 -1.869567
168.950000 -1.869527 -1.869567
169.000000 -1.869531 -1.869567
169.050000 -1.869535 -1.869567
169.100000 -1.869540 -1.869567
169.150000 -1.869546 -1.869567
169.200000 -1.869553 -1.869567
169.250000 -1.869559 -1.869567
169.300000 -1.869566 -1.869567
169.350000 -1.869573 -1.869567
169.400000 -1.869579 -1.869567
169.450000 -1.869586 -1.869567
169.500000 -1.869591 -1.869567
169.550000 -1.869596 -1.869567
169.600000 -1.869601 -1.869567
169.650000 -1.869604 -1.869567
169.700000 -1.869606 -1.869567
169.750000 -1.869608 -1.869567
169.800000 -1.869608 -1.869567
169.850000 -1.869607 -1.869567
169.900000 -1.869606 -1.869567
169.950000 -1.869603 -1.869567
170.000000 -1.869599 -1.869567
170.050000 -1.869595 -1.869567
170.100000 -1.869590 -1.869567
170.150000 -1.869584 -1.869567
170.200000 -1.869578 -1.869567
170.250000 -1.869571 -1.869567
170.300000 -1.869565 -1.869567
170.350000 -1.869559 -1.869567
170.400000 -1.869553 -1.869567
170.450000 -1.869547 -1.869567
170.500000 -1.869542 -1.869567
170.550000 -1.869537 -1.869567
170.600000 -1.869534 -1.869567
170.650000 -1.869531 -1.869567
170.700000 -1.869529 -1.869567
170.750000 -1.869528 -1.869567
170.800000 -1.869528 -1.869567
170.850000 -1.869529 -1.869567
170.900000 -1.869531 -1.869567
170.950000 -1.869534 -1.869567
171.000000 -1.869538 -1.869567
171.050000 -1.869542 -1.869567
171.100000 -1.869547 -1.869567
171.150000 -1.869553 -1.869567
171.200000 -1.869559 -1.869567
171.250000 -1.869565 -1.869567
171.300000 -1.869571 -1.869567
171.350000 -1.869577 -1.869567
171.400000 -1.869582 -1.869567
171.450000 -1.869587 -1.869567
171.500000 -1.869592 -1.869567
171.550000 -1.869596 -1.869567
171.600000 -1.869599 -1.869567
171.650000 -1.869601 -1.869567
171.700000 -1.869603 -1.869567
171.750000 -1.869603 -1.869567
171.800000 -1.869603 -1.869567
171.850000 -1.869601 -1.869567
171.900000 -1.869599 -1.869567
171.950000 -1.869596 -1.869567
172.000000 -1.869592 -1.869567
172.050000 -1.869588 -1.869567
172.100000 -1.869583 -1.869567
172.150000 -1.869578 -1.869567
172.200000 -1.869572 -1.869567
172.250000 -1.869567 -1.869567
172.300000 -1.869561 -1.869567
172.350000 -1.869556 -1.869567
172.400000 -1.869551 -1.869567
172.450000 -1.869546 -1.869567
172.500000 -1.869542 -1.869567
172.550000 -1.869538 -1.869567
172.600000 -1.869536 -1.869567
172.650000 -1.869534 -1.869567
172.700000 -1.869533 -1.869567
172.750000 -1.869533 -1.869567
172.800000 -1.869534 -1.869567
172.850000 -1.869535 -1.869567
172.900000 -1.869538 -1.869567
172.950000 -1.869541 -1.869567
173.000000 -1.869544 -1.869567
173.050000 -1.869549 -1.869567
173.100000 -1.869553 -1.869567
173.150000 -1.869558 -1.869567
173.200000 -1.869564 -1.869567
173.250000 -1.869569 -1.869567
173.300000 -1.869574 -1.869567
173.350000 -1.869579 -1.869567
173.400000 -1.869584 -1.869567
173.450000 -1.869588 -1.869567
173.500000 -1.869591 -1.869567
173.550000 -1.869594 -1.869567
173.600000 -1.869597 -1.869567
173.650000 -1.869598 -1.869567
173.700000 -1.869599 -1.869567
173.750000 -1.869599 -1.869567
173.800000 -1.869598 -1.869567
173.850000 -1.869596 -1.869567
173.900000 -1.869593 -1.869567
173.950000 -1.869590 -1.869567
174.000000 -1.869586 -1.869567
174.050000 -1.869582 -1.869567
174.100000 -1.869578 -1.869567
174.150000 -1.869573 -1.869567
174.200000 -1.869568 -1.869567
174.250000 -1.869563 -1.869567
174.300000 -1.869558 -1.869567
174.350000 -1.869554 -1.869567
174.400000 -1.869549 -1.869567
174.450000 -1.869546 -1.869567
174.500000 -1.869543 -1.869567
174.550000 -1.869540 -1.869567
174.600000 -1.869538 -1.869567
174.650000 -1.869537 -1.869567
174.700000 -1.869537 -1.869567
174.750000 -1.869537 -1.869567
174.800000 -1.869539 -1.869567
174.850000 -1.869540 -1.869567
174.900000 -1.869543 -1.869567
174.950000 -1.869546 -1.869567
175.000000 -1.869550 -1.869567
175.050000 -1.869554 -1.869567
175.100000 -1.869558 -1.869567
175.150000 -1.869563 -1.869567
175.200000 -1.869568 -1.869567
175.250000 -1.869572 -1.869567
175.300000 -1.869577 -1.869567
175.350000 -1.869581 -1.869567
175.400000 -1.869585 -1.869567
175.450000 -1.869588 -1.869567
175.500000 -1.869591 -1.869567
175.550000 -1.869593 -1.869567
175.600000 -1.869594 -1.869567
175.650000 -1.869595 -1.869567
175.700000 -1.869595 -1.869567
175.750000 -1.869594 -1.869567
175.800000 -1.869593 -1.869567
175.850000 -1.869591 -1.869567
175.900000 -1.869588 -1.869567
175.950000 -1.869585 -1.869567
176.000000 -1.869581 -1.869567
176.050000 -1.869577 -1.869567
176.100000 -1.869573 -1.869567
176.150000 -1.869569 -1.869567
176.200000 -1.869564 -1.869567
176.250000 -1.869560 -1.869567
176.300000 -1.869556 -1.869567
176.350000 -1.869552 -1.869567
176.400000 -1.869549 -1.869567
176.450000 -1.869546 -1.869567
176.500000 -1.869544 -1.869567
176.550000 -1.869542 -1.869567
176.600000 -1.869541 -1.869567
176.650000 -1.869540 -1.869567
176.700000 -1.869541 -1.869567
176.750000 -1.869542 -1.869567
176.800000 -1.869543 -1.869567
176.850000 -1.869545 -1.869567
176.900000 -1.869548 -1.869567
176.950000 -1.869551 -1.869567
177.000000 -1.869555 -1.869567
177.050000 -1.869558 -1.869567
177.100000 -1.869562 -1.869567
177.150000 -1.869567 -1.869567
177.200000 -1.869571 -1.869567
177.250000 -1.869574 -1.869567
177.300000 -1.869578 -1.869567
177.350000 -1.869582 -1.869567
177.400000 -1.869585 -1.869567
177.450000 -1.869587 -1.869567
177.500000 -1.869589 -1.869567
177.550000 -1.869591 -1.869567
177.600000 -1.869591 -1.869567
177.650000 -1.869591 -1.869567
177.700000 -1.869591 -1.869567
177.750000 -1.869590 -1.869567
177.800000 -1.869588 -1.869567
177.850000 -1.869586 -1.869567
177.900000 -1.869583 -1.869567
177.950000 -1.869580 -1.869567
178.000000 -1.869577 -1.869567
178.050000 -1.869573 -1.869567
178.100000 -1.869569 -1.869567
178.150000 -1.869566 -1.869567
178.200000 -1.869562 -1.869567
178.250000 -1.869558 -1.869567
178.300000 -1.869555 -1.869567
178.350000 -1.869552 -1.869567
178.400000 -1.869549 -1.869567
178.450000 -1.869547 -1.869567
178.500000 -1.869545 -1.869567
178.550000 -1.869544 -1.869567
178.600000 -1.869544 -1.869567
178.650000 -1.869544 -1.869567
178.700000 -1.869544 -1.869567
178.750000 -1.869546 -1.869567
178.800000 -1.869547 -1.869567
178.850000 -1.869550 -1.869567
178.900000 -1.869552 -1.869567
178.950000 -1.869555 -1.869567
179.000000 -1.869559 -1.869567
179.050000 -1.869562 -1.869567
179.100000 -1.869566 -1.869567
179.150000 -1.869569 -1.869567
179.200000 -1.869573 -1.869567
179.250000 -1.869576 -1.869567
179.300000 -1.869579 -1.869567
179.350000 -1.869582 -1.869567
179.400000 -1.869584 -1.869567
179.450000 -1.869586 -1.869567
179.500000 -1.869587 -1.869567
179.550000 -1.869588 -1.869567
179.600000 -1.869588 -1.869567
179.650000 -1.869588 -1.869567
179.700000 -1.869587 -1.869567
179.750000 -1.869586 -1.869567
179.800000 -1.869584 -1.869567
179.850000 -1.869582 -1.869567
179.900000 -1.869579 -1.869567
179.950000 -1.869576 -1.869567
180.000000 -1.869573 -1.869567
180.050000 -1.869570 -1.869567
180.100000 -1.869567 -1.869567
180.150000 -1.869563 -1.869567
180.200000 -1.869560 -1.869567
180.250000 -1.869557 -1.869567
180.300000 -1.869554 -1.869567
180.350000 -1.869552 -1.869567
180.400000 -1.869550 -1.869567
180.450000 -1.869548 -1.869567
180.500000 -1.869547 -1.869567
180.550000 -1.869547 -1.869567
180.600000 -1.869547 -1.869567
180.650000 -1.869547 -1.869567
180.700000 -1.869548 -1.869567
180.750000 -1.869549 -1.869567
180.800000 -1.869551 -1.869567
180.850000 -1.869553 -1.869567
180.900000 -1.869556 -1.869567
180.950000 -1.869559 -1.869567
181.000000 -1.869562 -1.869567
181.050000 -1.869565 -1.869567
181.100000 -1.869568 -1.869567
181.150000 -1.869571 -1.869567
181.200000 -1.869574 -1.869567
181.250000 -1.869577 -1.869567
181.300000 -1.869579 -1.869567
181.350000 -1.869582 -1.869567
181.400000 -1.869583 -1.869567
181.450000 -1.869585 -1.869567
181.500000 -1.869585 -1.869567
181.550000 -1.869586 -1.869567
181.600000 -1.869586 -1.869567
181.650000 -1.869585 -1.869567
181.700000 -1.869584 -1.869567
181.750000 -1.869583 -1.869567
181.800000 -1.869581 -1.869567
181.850000 -1.869578 -1.869567
181.900000 -1.869576 -1.869567
181.950000 -1.869573 -1.869567
182.000000 -1.869570 -1.869567
182.050000 -1.869567 -1.869567
182.100000 -1.869564 -1.869567
182.150000 -1.869562 -1.869567
182.200000 -1.869559 -1.869567
182.250000 -1.869556 -1.869567
182.300000 -1.869554 -1.869567
182.350000 -1.869552 -1.869567
182.400000 -1.869551 -1.869567
182.450000 -1.869550 -1.869567
182.500000 -1.869549 -1.869567
182.550000 -1.869549 -1.869567
182.600000 -1.869549 -1.869567
182.650000 -1.869550 -1.869567
182.700000 -1.869551 -1.869567
182.750000 -1.869553 -1.869567
182.800000 -1.869555 -1.869567
182.850000 -1.869557 -1.869567
182.900000 -1.869559 -1.869567
182.950000 -1.869562 -1.869567
183.000000 -1.869565 -1.869567
183.050000 -1.869567 -1.869567
183.100000 -1.869570 -1.869567
183.150000 -1.869573 -1.869567
183.200000 -1.869575 -1.869567
183.250000 -1.869577 -1.869567
183.300000 -1.869579 -1.869567
183.350000 -1.869581 -1.869567
183.400000 -1.869582 -1.869567
183.450000 -1.869583 -1.869567
183.500000 -1.869584 -1.869567
183.550000 -1.869584 -1.869567
183.600000 -1.869583 -1.869567
183.650000 -1.869582 -1.869567
183.700000 -1.869581 -1.869567
183.750000 -1.869579 -1.869567
183.800000 -1.869578 -1.869567
183.850000 -1.869575 -1.869567
183.900000 -1.869573 -1.869567
183.950000 -1.869570 -1.869567
184.000000 -1.869568 -1.869567
184.050000 -1.869565 -1.869567
184.100000 -1.869563 -1.869567
184.150000 -1.869560 -1.869567
184.200000 -1.869558 -1.869567
184.250000 -1.869556 -1.869567
184.300000 -1.869554 -1.869567
184.350000 -1.869553 -1.869567
184.400000 -1.869552 -1.869567
184.450000 -1.869551 -1.869567
184.500000 -1.869551 -1.869567
184.550000 -1.869551 -1.869567
184.600000 -1.869552 -1.869567
184.650000 -1.869553 -1.869567
184.700000 -1.869554 -1.869567
184.750000 -1.869556 -1.869567
184.800000 -1.869558 -1.869567
184.850000 -1.869560 -1.869567
184.900000 -1.869562 -1.869567
184.950000 -1.869564 -1.869567
185.000000 -1.869567 -1.869567
185.050000 -1.869569 -1.869567
185.100000 -1.869571 -1.869567
185.150000 -1.869574 -1.869567
185.200000 -1.869576 -1.869567
185.250000 -1.869577 -1.869567
185.300000 -1.869579 -1.869567
185.350000 -1.869580 -1.869567
185.400000 -1.869581 -1.869567
185.450000 -1.869581 -1.869567
185.500000 -1.869582 -1.869567
185.550000 -1.869581 -1.869567
185.600000 -1.869581 -1.869567
185.650000 -1.869580 -1.869567
185.700000 -1.869578 -1.869567
185.750000 -1.869577 -1.869567
185.800000 -1.869575 -1.869567
185.850000 -1.869573 -1.869567
185.900000 -1.869571 -1.869567
185.950000 -1.869568 -1.869567
186.000000 -1.869566 -1.869567
186.050000 -1.869564 -1.869567
186.100000 -1.869562 -1.869567
186.150000 -1.869560 -1.869567
186.200000 -1.869558 -1.869567
186.250000 -1.869556 -1.869567
186.300000 -1.869555 -1.869567
186.350000 -1.869554 -1.869567
186.400000 -1.869553 -1.869567
186.450000 -1.869553 -1.869567
186.500000 -1.869553 -1.869567
186.550000 -1.869553 -1.869567
186.600000 -1.869554 -1.869567
186.650000 -1.869555 -1.869567
186.700000 -1.869557 -1.869567
186.750000 -1.869558 -1.869567
186.800000 -1.869560 -1.869567
186.850000 -1.869562 -1.869567
186.900000 -1.869564 -1.869567
186.950000 -1.869566 -1.869567
