time[ns] Raw_signal[mV]
-11.250000 -0.128745
-11.200000 -0.053375
-11.150000 0.045976
-11.100000 0.159030
-11.050000 0.237826
-11.000000 0.254955
-10.950000 0.254955
-10.900000 0.275510
-10.850000 0.251529
-10.800000 0.176159
-10.750000 0.117920
-10.700000 0.063106
-10.650000 -0.043097
-10.600000 -0.132171
-10.550000 -0.142449
-10.500000 -0.142448
-10.450000 -0.200688
-10.400000 -0.234948
-10.350000 -0.207540
-10.300000 -0.180133
-10.250000 -0.180133
-10.200000 -0.163004
-10.150000 -0.104763
-10.100000 -0.043098
-10.050000 -0.008839
-10.000000 0.001439
-9.950000 -0.005412
-9.900000 0.001439
-9.850000 0.015143
-9.800000 0.015143
-9.750000 -0.008839
-9.700000 -0.032820
-9.650000 -0.049949
-9.600000 -0.067078
-9.550000 -0.087634
-9.500000 -0.115041
-9.450000 -0.149300
-9.400000 -0.152726
-9.350000 -0.115041
-9.300000 -0.087634
-9.250000 -0.087634
-9.200000 -0.060227
-9.150000 -0.001987
-9.100000 0.049401
-9.050000 0.076809
-9.000000 0.111068
-8.950000 0.172733
-8.900000 0.227548
-8.850000 0.244677
-8.800000 0.234400
-8.750000 0.248103
-8.700000 0.268658
-8.650000 0.220696
-8.600000 0.114494
-8.550000 0.045976
-8.500000 0.021994
-8.450000 -0.029394
-8.400000 -0.094486
-8.350000 -0.094486
-8.300000 -0.029394
-8.250000 0.028846
-8.200000 0.090513
-8.150000 0.189863
-8.100000 0.309769
-8.050000 0.422824
-8.000000 0.529026
-7.950000 0.597544
-7.900000 0.631803
-7.850000 0.655784
-7.800000 0.652358
-7.750000 0.621525
-7.700000 0.594117
-7.650000 0.553007
-7.600000 0.487915
-7.550000 0.439953
-7.500000 0.436527
-7.450000 0.426249
-7.400000 0.415971
-7.350000 0.433101
-7.300000 0.422823
-7.250000 0.361157
-7.200000 0.316620
-7.150000 0.306343
-7.100000 0.254955
-7.050000 0.176160
-7.000000 0.128197
-6.950000 0.093938
-6.900000 0.035698
-6.850000 -0.036246
-6.800000 -0.108189
-6.750000 -0.152726
-6.700000 -0.156152
-6.650000 -0.163004
-6.600000 -0.183559
-6.550000 -0.156152
-6.500000 -0.073930
-6.450000 -0.015690
-6.400000 0.008291
-6.350000 0.069957
-6.300000 0.145326
-6.250000 0.172733
-6.200000 0.176159
-6.150000 0.203567
-6.100000 0.217270
-6.050000 0.186437
-6.000000 0.138474
-5.950000 0.097364
-5.900000 0.039124
-5.850000 -0.039672
-5.800000 -0.091060
-5.750000 -0.101338
-5.700000 -0.128745
-5.650000 -0.186985
-5.600000 -0.224670
-5.550000 -0.207540
-5.500000 -0.193837
-5.450000 -0.204115
-5.400000 -0.183559
-5.350000 -0.108189
-5.300000 -0.039671
-5.250000 -0.022542
-5.200000 0.015142
-5.150000 0.080234
-5.100000 0.111068
-5.050000 0.104215
-5.000000 0.104215
-4.950000 0.076809
-4.900000 -0.008838
-4.850000 -0.108190
-4.800000 -0.186984
-4.750000 -0.241799
-4.700000 -0.282909
-4.650000 -0.310317
-4.600000 -0.310317
-4.550000 -0.279484
-4.500000 -0.221244
-4.450000 -0.142448
-4.400000 -0.043098
-4.350000 0.045976
-4.300000 0.107642
-4.250000 0.152178
-4.200000 0.152178
-4.150000 0.087086
-4.100000 0.008291
-4.050000 -0.070504
-4.000000 -0.176707
-3.950000 -0.276058
-3.900000 -0.300039
-3.850000 -0.310317
-3.800000 -0.330872
-3.750000 -0.313743
-3.700000 -0.245225
-3.650000 -0.197263
-3.600000 -0.169855
-3.550000 -0.125319
-3.500000 -0.049949
-3.450000 0.025421
-3.400000 0.018569
-3.350000 -0.053376
-3.300000 -0.032819
-3.250000 0.114494
-3.200000 0.200141
-3.150000 0.213844
-3.100000 0.354305
-3.050000 0.553007
-3.000000 0.594118
-2.950000 0.580415
-2.900000 0.600970
-2.850000 0.484489
-2.800000 0.289213
-2.750000 0.234400
-2.700000 0.135048
-2.650000 -0.207540
-2.600000 -0.457630
-2.550000 -0.474760
-2.500000 -0.615222
-2.450000 -0.844756
-2.400000 -0.783090
-2.350000 -0.622073
-2.300000 -0.632351
-2.250000 -0.529574
-2.200000 -0.169855
-2.150000 0.042550
-2.100000 0.008291
-2.050000 0.056253
-2.000000 0.220697
-1.950000 0.344028
-1.900000 0.426249
-1.850000 0.412546
-1.800000 0.248103
-1.750000 0.141901
-1.700000 0.152178
-1.650000 0.035698
-1.600000 -0.132170
-1.550000 -0.080782
-1.500000 0.035698
-1.450000 -0.012264
-1.400000 -0.056801
-1.350000 -0.046523
-1.300000 -0.128744
-1.250000 -0.128745
-1.200000 0.073383
-1.150000 0.114493
-1.100000 -0.087634
-1.050000 -0.067079
-1.000000 0.210418
-0.950000 0.340602
-0.900000 0.395417
-0.850000 0.652358
-0.800000 0.878467
-0.750000 0.899022
-0.700000 0.981243
-0.650000 1.128557
-0.600000 1.090872
-0.550000 0.943559
-0.500000 0.875040
-0.450000 0.782541
-0.400000 0.583840
-0.350000 0.381713
-0.300000 0.210419
-0.250000 0.039124
-0.200000 -0.087634
-0.150000 -0.152726
-0.100000 -0.139022
-0.050000 -0.056801
0.000000 -0.001987
0.050000 0.008290
0.100000 0.141900
0.150000 0.344027
0.200000 0.344028
0.250000 0.224122
0.300000 0.268658
0.350000 0.374861
0.400000 0.316620
0.450000 0.217270
0.500000 0.196715
0.550000 0.093939
0.600000 -0.070504
0.650000 -0.108189
0.700000 -0.046523
0.750000 -0.001987
0.800000 0.145327
0.850000 0.460509
0.900000 0.827078
0.950000 1.241612
1.000000 1.837716
1.050000 2.639375
1.100000 3.578068
1.150000 4.670927
1.200000 5.983043
1.250000 7.483583
1.300000 9.076622
1.350000 10.693639
1.400000 12.427141
1.450000 14.338789
1.500000 16.342932
1.550000 18.319676
1.600000 20.310112
1.650000 22.324541
1.700000 24.229332
1.750000 25.959407
1.800000 27.603837
1.850000 29.169467
1.900000 30.519267
1.950000 31.557307
2.000000 32.345267
2.050000 32.924237
2.100000 33.236007
2.150000 33.229147
2.200000 32.927667
2.250000 32.441197
2.300000 31.790277
2.350000 30.902967
2.400000 29.813527
2.450000 28.614467
2.500000 27.281803
2.550000 25.770982
2.600000 24.191646
2.650000 22.581477
2.700000 20.847983
2.750000 19.028832
2.800000 17.346718
2.850000 15.825625
2.900000 14.352493
2.950000 12.985563
3.000000 11.872148
3.050000 10.988269
3.100000 10.289387
3.150000 9.823466
3.200000 9.607635
3.250000 9.566525
3.300000 9.689856
3.350000 9.974205
3.400000 10.371609
3.450000 10.827252
3.500000 11.334283
3.550000 11.844741
3.600000 12.338069
3.650000 12.803990
3.700000 13.225375
3.750000 13.547409
3.800000 13.746110
3.850000 13.835183
3.900000 13.824906
3.950000 13.694722
4.000000 13.444632
4.050000 13.074635
4.100000 12.591585
4.150000 12.005758
4.200000 11.351413
4.250000 10.645679
4.300000 9.909113
4.350000 9.158843
4.400000 8.418851
4.450000 7.695988
4.500000 7.014236
4.550000 6.373594
4.600000 5.760361
4.650000 5.191662
4.700000 4.698335
4.750000 4.287227
4.800000 3.968620
4.850000 3.745937
4.900000 3.588346
4.950000 3.502698
5.000000 3.512976
5.050000 3.615753
5.100000 3.787047
5.150000 4.026859
5.200000 4.311209
5.250000 4.602409
5.300000 4.879906
5.350000 5.126570
5.400000 5.332124
5.450000 5.496567
5.500000 5.633602
5.550000 5.722675
5.600000 5.746657
5.650000 5.705547
5.700000 5.613047
5.750000 5.479437
5.800000 5.314995
5.850000 5.136848
5.900000 4.951850
5.950000 4.732593
6.000000 4.479077
6.050000 4.225561
6.100000 3.972046
6.150000 3.677419
6.200000 3.365663
6.250000 3.064184
6.300000 2.755854
6.350000 2.416691
6.400000 2.084380
6.450000 1.800031
6.500000 1.543090
6.550000 1.289574
6.600000 1.104575
6.650000 1.015503
6.700000 0.988095
6.750000 0.967540
6.800000 0.960688
6.850000 1.022355
6.900000 1.131982
6.950000 1.238185
7.000000 1.313555
7.050000 1.382073
7.100000 1.433461
7.150000 1.464295
7.200000 1.512257
7.250000 1.584200
7.300000 1.615033
7.350000 1.625311
7.400000 1.680125
7.450000 1.762347
7.500000 1.813734
7.550000 1.841142
7.600000 1.885678
7.650000 1.926789
7.700000 1.923363
7.750000 1.868550
7.800000 1.810309
7.850000 1.758921
7.900000 1.690403
7.950000 1.560219
8.000000 1.402628
8.050000 1.279296
8.100000 1.159390
8.150000 1.012077
8.200000 0.875041
8.250000 0.789394
8.300000 0.724302
8.350000 0.655784
8.400000 0.594118
8.450000 0.542729
8.500000 0.505045
8.550000 0.453657
8.600000 0.388565
8.650000 0.326899
8.700000 0.265233
8.750000 0.162456
8.800000 0.015142
8.850000 -0.135596
8.900000 -0.269206
8.950000 -0.406242
9.000000 -0.522722
9.050000 -0.584388
9.100000 -0.594666
9.150000 -0.601518
9.200000 -0.574111
9.250000 -0.474760
9.300000 -0.330872
9.350000 -0.183559
9.400000 -0.025968
9.450000 0.141900
9.500000 0.278937
9.550000 0.391991
9.600000 0.494767
9.650000 0.576988
9.700000 0.618099
9.750000 0.621526
9.800000 0.618099
9.850000 0.597544
9.900000 0.535878
9.950000 0.453656
10.000000 0.381713
10.050000 0.313195
10.100000 0.217270
10.150000 0.097364
10.200000 0.008291
10.250000 -0.053375
10.300000 -0.149300
10.350000 -0.272632
10.400000 -0.382261
10.450000 -0.461056
10.500000 -0.553555
10.550000 -0.680313
10.600000 -0.793367
10.650000 -0.892718
10.700000 -0.978365
10.750000 -1.046883
10.800000 -1.108549
10.850000 -1.180493
10.900000 -1.228455
10.950000 -1.221603
11.000000 -1.194197
11.050000 -1.170215
11.100000 -1.129104
11.150000 -1.074290
11.200000 -1.036606
11.250000 -0.985218
11.300000 -0.899570
11.350000 -0.803645
11.400000 -0.731701
11.450000 -0.649480
11.500000 -0.543277
11.550000 -0.464482
11.600000 -0.423371
11.650000 -0.399391
11.700000 -0.378835
11.750000 -0.385686
11.800000 -0.430223
11.850000 -0.502167
11.900000 -0.598091
11.950000 -0.731701
12.000000 -0.906422
12.050000 -1.084568
12.100000 -1.245585
12.150000 -1.382621
12.200000 -1.478545
12.250000 -1.519657
12.300000 -1.533360
12.350000 -1.553915
12.400000 -1.543637
12.450000 -1.485398
12.500000 -1.396324
12.550000 -1.317528
12.600000 -1.249011
12.650000 -1.153086
12.700000 -1.033179
12.750000 -0.950958
12.800000 -0.926978
12.850000 -0.899570
12.900000 -0.834478
12.950000 -0.796793
13.000000 -0.813922
13.050000 -0.831052
13.100000 -0.837904
13.150000 -0.879014
13.200000 -0.940681
13.250000 -0.985217
13.300000 -1.026328
13.350000 -1.043457
13.400000 -1.016051
13.450000 -0.974940
13.500000 -0.923551
13.550000 -0.851607
13.600000 -0.800220
13.650000 -0.803645
13.700000 -0.824201
13.750000 -0.851607
13.800000 -0.923551
13.850000 -1.033179
13.900000 -1.163363
13.950000 -1.327807
14.000000 -1.485397
14.050000 -1.571044
14.100000 -1.622432
14.150000 -1.673822
14.200000 -1.673822
14.250000 -1.608729
14.300000 -1.547063
14.350000 -1.481972
14.400000 -1.372343
14.450000 -1.249011
14.500000 -1.146234
14.550000 -1.057161
14.600000 -0.978365
14.650000 -0.892719
14.700000 -0.783089
14.750000 -0.683739
14.800000 -0.594666
14.850000 -0.505593
14.900000 -0.419946
14.950000 -0.361705
15.000000 -0.327446
15.050000 -0.327446
15.100000 -0.385687
15.150000 -0.467907
15.200000 -0.533000
15.250000 -0.608369
15.300000 -0.738554
15.350000 -0.875588
15.400000 -0.971514
15.450000 -1.043457
15.500000 -1.118827
15.550000 -1.173641
15.600000 -1.197622
15.650000 -1.218178
15.700000 -1.242159
15.750000 -1.262715
15.800000 -1.286695
15.850000 -1.290121
15.900000 -1.259289
15.950000 -1.207900
16.000000 -1.166789
16.050000 -1.132530
16.100000 -1.101698
16.150000 -1.053736
16.200000 -0.998921
16.250000 -0.957810
16.300000 -0.940681
16.350000 -0.920125
16.400000 -0.909848
16.450000 -0.930403
16.500000 -0.957810
16.550000 -0.981791
16.600000 -1.022903
16.650000 -1.070865
16.700000 -1.094846
16.750000 -1.125679
16.800000 -1.187344
16.850000 -1.235307
16.900000 -1.266140
16.950000 -1.303825
17.000000 -1.320955
17.050000 -1.293548
17.100000 -1.231882
17.150000 -1.153086
17.200000 -1.053735
17.250000 -0.950959
17.300000 -0.841330
17.350000 -0.728275
17.400000 -0.615221
17.450000 -0.509019
17.500000 -0.430223
17.550000 -0.406242
17.600000 -0.423372
17.650000 -0.440500
17.700000 -0.488463
17.750000 -0.560406
17.800000 -0.625499
17.850000 -0.700869
17.900000 -0.803645
17.950000 -0.865311
18.000000 -0.865311
18.050000 -0.868737
18.100000 -0.902996
18.150000 -0.923551
18.200000 -0.933829
18.250000 -0.930403
18.300000 -0.926977
18.350000 -0.950959
18.400000 -0.950958
18.450000 -0.896144
18.500000 -0.858459
18.550000 -0.861886
18.600000 -0.844756
18.650000 -0.817349
18.700000 -0.831053
18.750000 -0.858459
18.800000 -0.861885
18.850000 -0.885867
18.900000 -0.937255
18.950000 -0.992069
19.000000 -1.029754
19.050000 -1.057161
19.100000 -1.081142
19.150000 -1.091420
19.200000 -1.084568
19.250000 -1.033180
19.300000 -0.964662
19.350000 -0.913273
19.400000 -0.882441
19.450000 -0.837904
19.500000 -0.793367
19.550000 -0.779664
19.600000 -0.789942
19.650000 -0.779664
19.700000 -0.765960
19.750000 -0.765960
19.800000 -0.769386
19.850000 -0.759108
19.900000 -0.752257
19.950000 -0.762534
20.000000 -0.769386
20.050000 -0.769386
20.100000 -0.786515
20.150000 -0.827626
20.200000 -0.902996
20.250000 -1.009199
20.300000 -1.118827
20.350000 -1.214752
20.400000 -1.327806
20.450000 -1.451138
20.500000 -1.540212
20.550000 -1.605303
20.600000 -1.653266
20.650000 -1.646414
20.700000 -1.564192
20.750000 -1.461416
20.800000 -1.365492
20.850000 -1.255863
20.900000 -1.129105
20.950000 -1.053736
21.000000 -1.016050
21.050000 -0.971514
21.100000 -0.933829
21.150000 -0.968088
21.200000 -1.040031
21.250000 -1.081142
21.300000 -1.135956
21.350000 -1.211326
21.400000 -1.245585
21.450000 -1.225029
21.500000 -1.204475
21.550000 -1.166789
21.600000 -1.074290
21.650000 -0.947533
21.700000 -0.834478
21.750000 -0.745405
21.800000 -0.704294
21.850000 -0.687165
21.900000 -0.673461
21.950000 -0.690590
22.000000 -0.738553
22.050000 -0.789942
22.100000 -0.848182
22.150000 -0.923551
22.200000 -0.974939
22.250000 -0.988643
22.300000 -1.016051
22.350000 -1.040031
22.400000 -1.026328
22.450000 -1.005773
22.500000 -1.002346
22.550000 -0.971514
22.600000 -0.920126
22.650000 -0.920125
22.700000 -0.933829
22.750000 -0.913274
22.800000 -0.916699
22.850000 -0.964662
22.900000 -0.992069
22.950000 -0.995495
23.000000 -1.029753
23.050000 -1.057161
23.100000 -1.046883
23.150000 -1.046884
23.200000 -1.053735
23.250000 -1.036605
23.300000 -1.016051
23.350000 -1.019476
23.400000 -1.022902
23.450000 -1.016050
23.500000 -1.040031
23.550000 -1.087994
23.600000 -1.118827
23.650000 -1.149660
23.700000 -1.211326
23.750000 -1.269566
23.800000 -1.290122
23.850000 -1.317529
23.900000 -1.348361
23.950000 -1.327806
24.000000 -1.269566
24.050000 -1.218177
24.100000 -1.166790
24.150000 -1.108549
24.200000 -1.070864
24.250000 -1.043458
24.300000 -1.029753
24.350000 -1.033180
24.400000 -1.057161
24.450000 -1.101698
24.500000 -1.163363
24.550000 -1.221604
24.600000 -1.255863
24.650000 -1.276418
24.700000 -1.283270
24.750000 -1.269567
24.800000 -1.245585
24.850000 -1.218178
24.900000 -1.170215
24.950000 -1.111975
25.000000 -1.057161
25.050000 -1.016051
25.100000 -0.974939
25.150000 -0.937254
25.200000 -0.923551
25.250000 -0.923551
25.300000 -0.906422
25.350000 -0.879015
25.400000 -0.844756
25.450000 -0.793368
25.500000 -0.735127
25.550000 -0.697443
25.600000 -0.687165
25.650000 -0.704294
25.700000 -0.748830
25.750000 -0.810496
25.800000 -0.872163
25.850000 -0.944107
25.900000 -1.040032
25.950000 -1.135957
26.000000 -1.211326
26.050000 -1.266140
26.100000 -1.320954
26.150000 -1.362065
26.200000 -1.379195
26.250000 -1.392898
26.300000 -1.416879
26.350000 -1.444287
26.400000 -1.454564
26.450000 -1.454564
26.500000 -1.461416
26.550000 -1.481971
26.600000 -1.488823
26.650000 -1.464841
26.700000 -1.406601
26.750000 -1.351788
26.800000 -1.300399
26.850000 -1.249011
26.900000 -1.190770
26.950000 -1.122253
27.000000 -1.077716
27.050000 -1.070865
27.100000 -1.084569
27.150000 -1.087994
27.200000 -1.091420
27.250000 -1.084568
27.300000 -1.081142
27.350000 -1.067438
27.400000 -1.033180
27.450000 -0.985217
27.500000 -0.950959
27.550000 -0.913274
27.600000 -0.861886
27.650000 -0.813923
27.700000 -0.793367
27.750000 -0.783090
27.800000 -0.789942
27.850000 -0.793367
27.900000 -0.793367
27.950000 -0.800219
28.000000 -0.789941
28.050000 -0.752257
28.100000 -0.707720
28.150000 -0.670036
28.200000 -0.608370
28.250000 -0.539851
28.300000 -0.522722
28.350000 -0.539852
28.400000 -0.560407
28.450000 -0.615221
28.500000 -0.697443
28.550000 -0.783089
28.600000 -0.902996
28.650000 -1.043458
28.700000 -1.156512
28.750000 -1.249011
28.800000 -1.327806
28.850000 -1.344936
28.900000 -1.334658
28.950000 -1.348362
29.000000 -1.334658
29.050000 -1.252436
29.100000 -1.197623
29.150000 -1.190770
29.200000 -1.159938
29.250000 -1.094846
29.300000 -1.084568
29.350000 -1.146234
29.400000 -1.228455
29.450000 -1.303825
29.500000 -1.372343
29.550000 -1.471694
29.600000 -1.567618
29.650000 -1.629285
29.700000 -1.666969
29.750000 -1.728636
29.800000 -1.776598
29.850000 -1.773172
29.900000 -1.752617
29.950000 -1.732061
30.000000 -1.677247
30.050000 -1.567619
30.100000 -1.451138
30.150000 -1.355214
30.200000 -1.249011
30.250000 -1.135957
30.300000 -1.029754
30.350000 -0.937255
30.400000 -0.848181
30.450000 -0.752257
30.500000 -0.670035
30.550000 -0.622073
30.600000 -0.591240
30.650000 -0.546703
30.700000 -0.515871
30.750000 -0.560407
30.800000 -0.646055
30.850000 -0.711146
30.900000 -0.786515
30.950000 -0.916700
31.000000 -1.046883
31.050000 -1.146235
31.100000 -1.252437
31.150000 -1.362065
31.200000 -1.444286
31.250000 -1.499100
31.300000 -1.505953
31.350000 -1.488824
31.400000 -1.492249
31.450000 -1.478545
31.500000 -1.427157
31.550000 -1.392899
31.600000 -1.396325
31.650000 -1.358639
31.700000 -1.300399
31.750000 -1.310676
31.800000 -1.358639
31.850000 -1.372343
31.900000 -1.386047
31.950000 -1.420305
32.000000 -1.420305
32.050000 -1.382621
32.100000 -1.365492
32.150000 -1.368917
32.200000 -1.365492
32.250000 -1.355213
32.300000 -1.368917
32.350000 -1.413454
32.400000 -1.451138
32.450000 -1.468267
32.500000 -1.478545
32.550000 -1.488824
32.600000 -1.485397
32.650000 -1.457990
32.700000 -1.444287
32.750000 -1.434009
32.800000 -1.372343
32.850000 -1.293548
32.900000 -1.245585
32.950000 -1.204474
33.000000 -1.135956
33.050000 -1.074290
33.100000 -1.067439
33.150000 -1.098272
33.200000 -1.139382
33.250000 -1.173641
33.300000 -1.201048
33.350000 -1.214752
33.400000 -1.252437
33.450000 -1.303825
33.500000 -1.348361
33.550000 -1.379194
33.600000 -1.399750
33.650000 -1.410027
33.700000 -1.406602
33.750000 -1.410028
33.800000 -1.437435
33.850000 -1.434009
33.900000 -1.392898
33.950000 -1.375769
34.000000 -1.399750
34.050000 -1.437435
34.100000 -1.464842
34.150000 -1.519656
34.200000 -1.588174
34.250000 -1.653266
34.300000 -1.725210
34.350000 -1.814283
34.400000 -1.893078
34.450000 -1.941041
34.500000 -1.978726
34.550000 -2.009559
34.600000 -2.012984
34.650000 -1.965022
34.700000 -1.896505
34.750000 -1.814283
34.800000 -1.694377
34.850000 -1.547064
34.900000 -1.420306
34.950000 -1.317529
35.000000 -1.225029
35.050000 -1.146234
35.100000 -1.098271
35.150000 -1.070864
35.200000 -1.067439
35.250000 -1.118827
35.300000 -1.197622
35.350000 -1.266140
35.400000 -1.310677
35.450000 -1.338084
35.500000 -1.358640
35.550000 -1.399750
35.600000 -1.440861
35.650000 -1.427157
35.700000 -1.379195
35.750000 -1.334658
35.800000 -1.303825
35.850000 -1.262715
35.900000 -1.231882
35.950000 -1.204474
36.000000 -1.190771
36.050000 -1.187345
36.100000 -1.221603
36.150000 -1.293547
36.200000 -1.362066
36.250000 -1.389473
36.300000 -1.410028
36.350000 -1.447713
36.400000 -1.461416
36.450000 -1.423731
36.500000 -1.379195
36.550000 -1.351788
36.600000 -1.303825
36.650000 -1.231882
36.700000 -1.146234
36.750000 -1.064012
36.800000 -1.002347
36.850000 -0.940681
36.900000 -0.865311
36.950000 -0.800219
37.000000 -0.776238
37.050000 -0.769386
37.100000 -0.762535
37.150000 -0.789941
37.200000 -0.841330
37.250000 -0.882440
37.300000 -0.954384
37.350000 -1.084569
37.400000 -1.204474
37.450000 -1.293547
37.500000 -1.386047
37.550000 -1.499101
37.600000 -1.591600
37.650000 -1.673822
37.700000 -1.749191
37.750000 -1.804006
37.800000 -1.855394
37.850000 -1.903356
37.900000 -1.910207
37.950000 -1.917060
38.000000 -1.954745
38.050000 -1.965022
38.100000 -1.941040
38.150000 -1.947893
38.200000 -1.958171
38.250000 -1.889653
38.300000 -1.807431
38.350000 -1.769746
38.400000 -1.714932
38.450000 -1.636137
38.500000 -1.588174
38.550000 -1.560767
38.600000 -1.502527
38.650000 -1.451138
38.700000 -1.416880
38.750000 -1.358640
38.800000 -1.303825
38.850000 -1.276418
38.900000 -1.235308
38.950000 -1.187345
39.000000 -1.159937
39.050000 -1.122252
39.100000 -1.077717
39.150000 -1.081142
39.200000 -1.091420
39.250000 -1.077717
39.300000 -1.084568
39.350000 -1.149660
39.400000 -1.228456
39.450000 -1.296973
39.500000 -1.358639
39.550000 -1.413454
39.600000 -1.471693
39.650000 -1.540212
39.700000 -1.577896
39.750000 -1.615581
39.800000 -1.684099
39.850000 -1.735487
39.900000 -1.721784
39.950000 -1.718358
40.000000 -1.725210
40.050000 -1.677247
40.100000 -1.612155
40.150000 -1.584748
40.200000 -1.557341
40.250000 -1.505953
40.300000 -1.492250
40.350000 -1.516230
40.400000 -1.516231
40.450000 -1.512804
40.500000 -1.540212
40.550000 -1.571044
40.600000 -1.574471
40.650000 -1.557341
40.700000 -1.529933
40.750000 -1.488823
40.800000 -1.444287
40.850000 -1.392898
40.900000 -1.334659
40.950000 -1.290122
41.000000 -1.252436
41.050000 -1.204474
41.100000 -1.194196
41.150000 -1.238733
41.200000 -1.303825
41.250000 -1.365491
41.300000 -1.454565
41.350000 -1.571044
41.400000 -1.680673
41.450000 -1.752617
41.500000 -1.804005
41.550000 -1.845115
41.600000 -1.855394
41.650000 -1.838264
41.700000 -1.804005
41.750000 -1.749191
41.800000 -1.663543
41.850000 -1.577897
41.900000 -1.512805
41.950000 -1.451138
42.000000 -1.396324
42.050000 -1.344936
42.100000 -1.276419
42.150000 -1.225030
42.200000 -1.204474
42.250000 -1.170215
42.300000 -1.094846
42.350000 -1.057161
42.400000 -1.060587
42.450000 -1.033180
42.500000 -1.016050
42.550000 -1.064013
42.600000 -1.115401
42.650000 -1.139382
42.700000 -1.218177
42.750000 -1.355213
42.800000 -1.468268
42.850000 -1.571044
42.900000 -1.714931
42.950000 -1.855394
43.000000 -1.930763
43.050000 -1.968448
43.100000 -1.989004
43.150000 -1.971874
43.200000 -1.923911
43.250000 -1.855394
43.300000 -1.769746
43.350000 -1.677247
43.400000 -1.581322
43.450000 -1.468267
43.500000 -1.365491
43.550000 -1.290122
43.600000 -1.235307
43.650000 -1.180493
43.700000 -1.146234
43.750000 -1.146234
43.800000 -1.156511
43.850000 -1.156511
43.900000 -1.166789
43.950000 -1.207900
44.000000 -1.255863
44.050000 -1.286696
44.100000 -1.314102
44.150000 -1.372343
44.200000 -1.457990
44.250000 -1.533360
44.300000 -1.591600
44.350000 -1.663543
44.400000 -1.718358
44.450000 -1.711506
44.500000 -1.677247
44.550000 -1.649840
44.600000 -1.591600
44.650000 -1.471693
44.700000 -1.355213
44.750000 -1.279844
44.800000 -1.218178
44.850000 -1.129105
44.900000 -1.057161
44.950000 -1.043458
45.000000 -1.053735
45.050000 -1.053735
45.100000 -1.053735
45.150000 -1.101698
45.200000 -1.163364
45.250000 -1.177067
45.300000 -1.183918
45.350000 -1.238733
45.400000 -1.300399
45.450000 -1.331232
45.500000 -1.372344
45.550000 -1.434009
45.600000 -1.471694
45.650000 -1.495675
45.700000 -1.502527
45.750000 -1.488824
45.800000 -1.447713
45.850000 -1.389473
45.900000 -1.296974
45.950000 -1.180493
46.000000 -1.084568
46.050000 -1.022902
46.100000 -0.968088
46.150000 -0.930403
46.200000 -0.920125
46.250000 -0.940681
46.300000 -0.978366
46.350000 -1.043458
46.400000 -1.125679
46.450000 -1.197623
46.500000 -1.252437
46.550000 -1.296973
46.600000 -1.320955
46.650000 -1.283269
46.700000 -1.201048
46.750000 -1.125679
46.800000 -1.057161
46.850000 -0.940681
46.900000 -0.800220
46.950000 -0.704294
47.000000 -0.652906
47.050000 -0.591239
47.100000 -0.546704
47.150000 -0.519296
47.200000 -0.502167
47.250000 -0.529574
47.300000 -0.618647
47.350000 -0.738553
47.400000 -0.844756
47.450000 -0.964662
47.500000 -1.108549
47.550000 -1.242159
47.600000 -1.344936
47.650000 -1.430584
47.700000 -1.502527
47.750000 -1.553916
47.800000 -1.574471
47.850000 -1.571044
47.900000 -1.564192
47.950000 -1.571045
48.000000 -1.560767
48.050000 -1.523082
48.100000 -1.512805
48.150000 -1.540211
48.200000 -1.560767
48.250000 -1.557340
48.300000 -1.557341
48.350000 -1.560767
48.400000 -1.547063
48.450000 -1.502527
48.500000 -1.427157
48.550000 -1.348362
48.600000 -1.276418
48.650000 -1.194196
48.700000 -1.094845
48.750000 -1.026328
48.800000 -1.016050
48.850000 -0.998921
48.900000 -0.961236
48.950000 -0.957811
49.000000 -1.005773
49.050000 -1.060587
49.100000 -1.101698
49.150000 -1.149660
49.200000 -1.194196
49.250000 -1.207900
49.300000 -1.221603
49.350000 -1.231881
49.400000 -1.204474
49.450000 -1.146234
49.500000 -1.101698
49.550000 -1.057161
49.600000 -0.981791
49.650000 -0.906422
49.700000 -0.858459
49.750000 -0.810497
49.800000 -0.765960
49.850000 -0.748831
49.900000 -0.759109
49.950000 -0.803645
50.000000 -0.875588
50.050000 -0.954384
50.100000 -1.029754
50.150000 -1.115401
50.200000 -1.177067
50.250000 -1.214752
50.300000 -1.259289
50.350000 -1.307251
50.400000 -1.317528
50.450000 -1.296974
50.500000 -1.279844
50.550000 -1.262714
50.600000 -1.238733
50.650000 -1.211326
50.700000 -1.159937
50.750000 -1.115401
50.800000 -1.091420
50.850000 -1.046883
50.900000 -0.988643
50.950000 -0.961236
51.000000 -0.947532
51.050000 -0.913274
51.100000 -0.872163
51.150000 -0.858459
51.200000 -0.868737
51.250000 -0.879015
51.300000 -0.926977
51.350000 -1.005772
51.400000 -1.084568
51.450000 -1.153086
51.500000 -1.245585
51.550000 -1.344936
51.600000 -1.410028
51.650000 -1.440861
51.700000 -1.451139
51.750000 -1.437435
51.800000 -1.396324
51.850000 -1.324380
51.900000 -1.214752
51.950000 -1.108550
52.000000 -1.033179
52.050000 -0.978366
52.100000 -0.944106
52.150000 -0.944107
52.200000 -0.988643
52.250000 -1.050309
52.300000 -1.108549
52.350000 -1.197623
52.400000 -1.324380
52.450000 -1.444287
52.500000 -1.536786
52.550000 -1.608729
52.600000 -1.673821
52.650000 -1.704654
52.700000 -1.701228
52.750000 -1.687525
52.800000 -1.656692
52.850000 -1.584748
52.900000 -1.529934
52.950000 -1.523082
53.000000 -1.502527
53.050000 -1.451139
53.100000 -1.420305
53.150000 -1.423731
53.200000 -1.416879
53.250000 -1.410028
53.300000 -1.423731
53.350000 -1.444286
53.400000 -1.454564
53.450000 -1.457990
53.500000 -1.451139
53.550000 -1.451138
53.600000 -1.447713
53.650000 -1.382620
53.700000 -1.290122
53.750000 -1.249011
53.800000 -1.211326
53.850000 -1.125679
53.900000 -1.067438
53.950000 -1.091420
54.000000 -1.142808
54.050000 -1.218178
54.100000 -1.348361
54.150000 -1.509379
54.200000 -1.649840
54.250000 -1.793727
54.300000 -1.934189
54.350000 -2.036966
54.400000 -2.088354
54.450000 -2.084928
54.500000 -2.026688
54.550000 -1.906782
54.600000 -1.756043
54.650000 -1.564193
54.700000 -1.334658
54.750000 -1.108549
54.800000 -0.902996
54.850000 -0.694016
54.900000 -0.543277
54.950000 -0.471334
55.000000 -0.430223
55.050000 -0.399390
55.100000 -0.447352
55.150000 -0.574111
55.200000 -0.724850
55.250000 -0.892718
55.300000 -1.094846
55.350000 -1.303825
55.400000 -1.505953
55.450000 -1.684099
55.500000 -1.786876
55.550000 -1.827987
55.600000 -1.851968
55.650000 -1.824561
55.700000 -1.714932
55.750000 -1.584748
55.800000 -1.454564
55.850000 -1.296974
55.900000 -1.132531
55.950000 -1.019476
56.000000 -0.961236
56.050000 -0.926977
56.100000 -0.920126
56.150000 -0.950958
56.200000 -1.033180
56.250000 -1.122253
56.300000 -1.197622
56.350000 -1.272992
56.400000 -1.344936
56.450000 -1.372343
56.500000 -1.379195
56.550000 -1.410028
56.600000 -1.423731
56.650000 -1.372343
56.700000 -1.310677
56.750000 -1.272992
56.800000 -1.204474
56.850000 -1.108549
56.900000 -1.040031
56.950000 -1.012625
57.000000 -0.971514
57.050000 -0.909848
57.100000 -0.899570
57.150000 -0.950959
57.200000 -1.012625
57.250000 -1.091420
57.300000 -1.211326
57.350000 -1.362065
57.400000 -1.495675
57.450000 -1.608729
57.500000 -1.732061
57.550000 -1.827986
57.600000 -1.838265
57.650000 -1.790301
57.700000 -1.728635
57.750000 -1.646414
57.800000 -1.543637
57.850000 -1.416880
57.900000 -1.283270
57.950000 -1.180493
58.000000 -1.105124
58.050000 -1.036605
58.100000 -0.978365
58.150000 -0.992069
58.200000 -1.077716
58.250000 -1.173641
58.300000 -1.290122
58.350000 -1.451138
58.400000 -1.608729
58.450000 -1.721784
58.500000 -1.797154
58.550000 -1.858819
58.600000 -1.875949
58.650000 -1.831412
58.700000 -1.776598
58.750000 -1.735488
58.800000 -1.663543
58.850000 -1.543638
58.900000 -1.396324
58.950000 -1.286696
59.000000 -1.228456
59.050000 -1.170215
59.100000 -1.108549
59.150000 -1.081142
59.200000 -1.074291
59.250000 -1.043457
59.300000 -1.022902
59.350000 -1.057161
59.400000 -1.087994
59.450000 -1.084568
59.500000 -1.087994
59.550000 -1.135957
59.600000 -1.194197
59.650000 -1.235307
59.700000 -1.269566
59.750000 -1.341510
59.800000 -1.434009
59.850000 -1.499101
59.900000 -1.526508
59.950000 -1.571045
60.000000 -1.619007
60.050000 -1.601878
60.100000 -1.526508
60.150000 -1.475119
60.200000 -1.430583
60.250000 -1.355213
60.300000 -1.276418
60.350000 -1.231881
60.400000 -1.201048
60.450000 -1.177067
60.500000 -1.166790
60.550000 -1.183919
60.600000 -1.231881
60.650000 -1.283270
60.700000 -1.331232
60.750000 -1.386047
60.800000 -1.454564
60.850000 -1.475120
60.900000 -1.454564
60.950000 -1.447713
61.000000 -1.444287
61.050000 -1.406602
61.100000 -1.372344
61.150000 -1.382621
61.200000 -1.386047
61.250000 -1.365491
61.300000 -1.355213
61.350000 -1.351788
61.400000 -1.331232
61.450000 -1.266140
61.500000 -1.201048
61.550000 -1.153086
61.600000 -1.105124
61.650000 -1.040031
61.700000 -0.988643
61.750000 -0.964662
61.800000 -0.968088
61.850000 -0.992070
61.900000 -1.050309
61.950000 -1.139383
62.000000 -1.245585
62.050000 -1.324380
62.100000 -1.382621
62.150000 -1.447712
62.200000 -1.495674
62.250000 -1.492249
62.300000 -1.454564
62.350000 -1.420305
62.400000 -1.365491
62.450000 -1.262714
62.500000 -1.159938
62.550000 -1.094846
62.600000 -1.043457
62.650000 -0.998921
62.700000 -0.978365
62.750000 -0.971514
62.800000 -0.964662
62.850000 -0.968088
62.900000 -1.005773
62.950000 -1.070865
63.000000 -1.125679
63.050000 -1.149660
63.100000 -1.180493
63.150000 -1.242159
63.200000 -1.269566
63.250000 -1.235307
63.300000 -1.197623
63.350000 -1.177067
63.400000 -1.139382
63.450000 -1.087994
63.500000 -1.064013
63.550000 -1.064013
63.600000 -1.064013
63.650000 -1.091420
63.700000 -1.166789
63.750000 -1.283270
63.800000 -1.403176
63.850000 -1.492249
63.900000 -1.598452
63.950000 -1.728636
64.000000 -1.814283
64.050000 -1.831412
64.100000 -1.834838
64.150000 -1.824561
64.200000 -1.773172
64.250000 -1.694376
64.300000 -1.625859
64.350000 -1.567619
64.400000 -1.512804
64.450000 -1.471694
64.500000 -1.437435
64.550000 -1.437435
64.600000 -1.451139
64.650000 -1.440861
64.700000 -1.403177
64.750000 -1.386046
64.800000 -1.351788
64.850000 -1.242159
64.900000 -1.122253
64.950000 -1.064012
65.000000 -1.022902
65.050000 -0.964662
65.100000 -0.954385
65.150000 -1.005772
65.200000 -1.053735
65.250000 -1.101697
65.300000 -1.201048
65.350000 -1.296974
65.400000 -1.368917
65.450000 -1.447712
65.500000 -1.536785
65.550000 -1.574470
65.600000 -1.567619
65.650000 -1.536786
65.700000 -1.471694
65.750000 -1.406602
65.800000 -1.368917
65.850000 -1.320954
65.900000 -1.255862
65.950000 -1.235307
66.000000 -1.242159
66.050000 -1.197622
66.100000 -1.156511
66.150000 -1.197623
66.200000 -1.272992
66.250000 -1.310677
66.300000 -1.351788
66.350000 -1.427157
66.400000 -1.478545
66.450000 -1.495675
66.500000 -1.526508
66.550000 -1.564193
66.600000 -1.553915
66.650000 -1.481971
66.700000 -1.389472
66.750000 -1.293547
66.800000 -1.180493
66.850000 -1.060587
66.900000 -0.954384
66.950000 -0.879014
67.000000 -0.831052
67.050000 -0.834478
67.100000 -0.892718
67.150000 -0.978365
67.200000 -1.098271
67.250000 -1.249011
67.300000 -1.392898
67.350000 -1.536786
67.400000 -1.680673
67.450000 -1.790302
67.500000 -1.838265
67.550000 -1.872523
67.600000 -1.872523
67.650000 -1.807431
67.700000 -1.725210
67.750000 -1.646415
67.800000 -1.547063
67.850000 -1.437435
67.900000 -1.348361
67.950000 -1.300399
68.000000 -1.242159
68.050000 -1.163363
68.100000 -1.077717
68.150000 -1.040031
68.200000 -1.036605
68.250000 -1.026328
68.300000 -0.998921
68.350000 -0.992069
68.400000 -1.005773
68.450000 -1.012624
68.500000 -1.026328
68.550000 -1.053735
68.600000 -1.046883
68.650000 -1.005772
68.700000 -0.978365
68.750000 -0.957810
68.800000 -0.913274
68.850000 -0.858460
68.900000 -0.831052
68.950000 -0.831053
69.000000 -0.817349
69.050000 -0.803645
69.100000 -0.810497
69.150000 -0.872163
69.200000 -0.937255
69.250000 -0.964662
69.300000 -0.968088
69.350000 -0.988643
69.400000 -1.005772
69.450000 -0.988643
69.500000 -0.964662
69.550000 -0.957810
69.600000 -0.957810
69.650000 -0.954385
69.700000 -0.968088
69.750000 -1.022902
69.800000 -1.105123
69.850000 -1.183918
69.900000 -1.252437
69.950000 -1.310677
70.000000 -1.368917
70.050000 -1.389472
70.100000 -1.365492
70.150000 -1.327806
70.200000 -1.272992
70.250000 -1.166790
70.300000 -1.036605
70.350000 -0.957810
70.400000 -0.913274
70.450000 -0.868737
70.500000 -0.868737
70.550000 -0.940681
70.600000 -1.033180
70.650000 -1.122253
70.700000 -1.235307
70.750000 -1.379194
70.800000 -1.540212
70.850000 -1.680673
70.900000 -1.769746
70.950000 -1.834839
71.000000 -1.906782
71.050000 -1.951319
71.100000 -1.927338
71.150000 -1.875949
71.200000 -1.817709
71.250000 -1.697802
71.300000 -1.543638
71.350000 -1.403176
71.400000 -1.231882
71.450000 -1.029753
71.500000 -0.882441
71.550000 -0.789941
71.600000 -0.714572
71.650000 -0.663184
71.700000 -0.666609
71.750000 -0.717998
71.800000 -0.841329
71.850000 -1.029754
71.900000 -1.207900
71.950000 -1.375769
72.000000 -1.574470
72.050000 -1.749191
72.100000 -1.831412
72.150000 -1.872523
72.200000 -1.896504
72.250000 -1.834838
72.300000 -1.711506
72.350000 -1.601878
72.400000 -1.499101
72.450000 -1.348362
72.500000 -1.211326
72.550000 -1.132530
72.600000 -1.087994
72.650000 -1.057161
72.700000 -1.053735
72.750000 -1.091420
72.800000 -1.159938
72.850000 -1.218178
72.900000 -1.272992
72.950000 -1.372343
73.000000 -1.499101
73.050000 -1.581323
73.100000 -1.601878
73.150000 -1.629285
73.200000 -1.646414
73.250000 -1.601878
73.300000 -1.540211
73.350000 -1.523082
73.400000 -1.509379
73.450000 -1.451139
73.500000 -1.375769
73.550000 -1.355214
73.600000 -1.375769
73.650000 -1.399750
73.700000 -1.416880
73.750000 -1.461416
73.800000 -1.550490
73.850000 -1.622433
73.900000 -1.639562
73.950000 -1.646414
74.000000 -1.663544
74.050000 -1.622433
74.100000 -1.509378
74.150000 -1.389472
74.200000 -1.293548
74.250000 -1.173641
74.300000 -1.046883
74.350000 -0.957810
74.400000 -0.906421
74.450000 -0.851607
74.500000 -0.820775
74.550000 -0.841330
74.600000 -0.906422
74.650000 -0.985217
74.700000 -1.057161
74.750000 -1.135956
74.800000 -1.228456
74.850000 -1.300399
74.900000 -1.338085
74.950000 -1.372343
75.000000 -1.399750
75.050000 -1.386047
75.100000 -1.358639
75.150000 -1.355214
75.200000 -1.351788
75.250000 -1.320954
75.300000 -1.290121
75.350000 -1.279844
75.400000 -1.279844
75.450000 -1.290121
75.500000 -1.290121
75.550000 -1.283270
75.600000 -1.290121
75.650000 -1.269566
75.700000 -1.235307
75.750000 -1.228455
75.800000 -1.225030
75.850000 -1.149660
75.900000 -1.050310
75.950000 -1.019477
76.000000 -0.998921
76.050000 -0.926977
76.100000 -0.858459
76.150000 -0.834479
76.200000 -0.807071
76.250000 -0.762534
76.300000 -0.759109
76.350000 -0.803645
76.400000 -0.896144
76.450000 -0.992069
76.500000 -1.064013
76.550000 -1.153086
76.600000 -1.286696
76.650000 -1.427157
76.700000 -1.519657
76.750000 -1.588174
76.800000 -1.653266
76.850000 -1.690951
76.900000 -1.694377
76.950000 -1.694377
77.000000 -1.684099
77.050000 -1.632711
77.100000 -1.543638
77.150000 -1.478546
77.200000 -1.430583
77.250000 -1.338084
77.300000 -1.225030
77.350000 -1.146234
77.400000 -1.087993
77.450000 -1.019476
77.500000 -0.964662
77.550000 -0.940681
77.600000 -0.937254
77.650000 -0.944107
77.700000 -0.998921
77.750000 -1.111975
77.800000 -1.252436
77.850000 -1.379194
77.900000 -1.526508
77.950000 -1.701229
78.000000 -1.824561
78.050000 -1.858819
78.100000 -1.865671
78.150000 -1.882800
78.200000 -1.834838
78.250000 -1.687525
78.300000 -1.505953
78.350000 -1.320955
78.400000 -1.122253
78.450000 -0.926977
78.500000 -0.789942
78.550000 -0.728276
78.600000 -0.700869
78.650000 -0.721423
78.700000 -0.817349
78.750000 -0.988643
78.800000 -1.190771
78.850000 -1.379195
78.900000 -1.557341
78.950000 -1.697802
79.000000 -1.786876
79.050000 -1.807431
79.100000 -1.756043
79.150000 -1.653266
79.200000 -1.516231
79.250000 -1.351787
79.300000 -1.156512
79.350000 -0.971514
79.400000 -0.831052
79.450000 -0.752257
79.500000 -0.735127
79.550000 -0.779664
79.600000 -0.855033
79.650000 -0.940680
79.700000 -1.060586
79.750000 -1.204475
79.800000 -1.324380
79.850000 -1.413453
79.900000 -1.495675
79.950000 -1.550489
80.000000 -1.560767
80.050000 -1.547063
80.100000 -1.526508
80.150000 -1.488823
80.200000 -1.434009
80.250000 -1.399750
80.300000 -1.375769
80.350000 -1.355214
80.400000 -1.341510
80.450000 -1.327807
80.500000 -1.320955
80.550000 -1.327807
80.600000 -1.341509
80.650000 -1.324380
80.700000 -1.300399
80.750000 -1.303825
80.800000 -1.307251
80.850000 -1.269566
80.900000 -1.235307
80.950000 -1.235307
81.000000 -1.228455
81.050000 -1.183918
81.100000 -1.139383
81.150000 -1.105124
81.200000 -1.067439
81.250000 -1.036605
81.300000 -1.022902
81.350000 -1.026328
81.400000 -1.019476
81.450000 -1.005773
81.500000 -1.005772
81.550000 -1.019476
81.600000 -1.033180
81.650000 -1.036606
81.700000 -1.040031
81.750000 -1.050309
81.800000 -1.040032
81.850000 -1.012624
81.900000 -0.971514
81.950000 -0.930403
82.000000 -0.875589
82.050000 -0.817348
82.100000 -0.789942
82.150000 -0.786515
82.200000 -0.789942
82.250000 -0.803645
82.300000 -0.834479
82.350000 -0.861885
82.400000 -0.879015
82.450000 -0.889292
82.500000 -0.885866
82.550000 -0.879015
82.600000 -0.879015
82.650000 -0.851607
82.700000 -0.813923
82.750000 -0.796794
82.800000 -0.789941
82.850000 -0.807071
82.900000 -0.875589
82.950000 -0.992069
83.000000 -1.125679
83.050000 -1.272992
83.100000 -1.451138
83.150000 -1.608730
83.200000 -1.718358
83.250000 -1.766320
83.300000 -1.738913
83.350000 -1.642988
83.400000 -1.516231
83.450000 -1.338084
83.500000 -1.118827
83.550000 -0.954384
83.600000 -0.861885
83.650000 -0.769386
83.700000 -0.717998
83.750000 -0.783090
83.800000 -0.913273
83.850000 -1.057161
83.900000 -1.242159
83.950000 -1.444287
84.000000 -1.598452
84.050000 -1.684099
84.100000 -1.735488
84.150000 -1.728636
84.200000 -1.653267
84.250000 -1.512805
84.300000 -1.338084
84.350000 -1.183919
84.400000 -1.046883
84.450000 -0.940680
84.500000 -0.875589
84.550000 -0.872163
84.600000 -0.920125
84.650000 -0.995495
84.700000 -1.098272
84.750000 -1.221604
84.800000 -1.351788
84.850000 -1.454564
84.900000 -1.523082
84.950000 -1.553915
85.000000 -1.557341
85.050000 -1.526508
85.100000 -1.440861
85.150000 -1.338084
85.200000 -1.228456
85.250000 -1.098272
85.300000 -0.971513
85.350000 -0.875588
85.400000 -0.800219
85.450000 -0.721424
85.500000 -0.666610
85.550000 -0.697443
85.600000 -0.776238
85.650000 -0.841330
85.700000 -0.909847
85.750000 -1.019477
85.800000 -1.139382
85.850000 -1.221604
85.900000 -1.296974
85.950000 -1.396324
86.000000 -1.485397
86.050000 -1.533360
86.100000 -1.564193
86.150000 -1.598452
86.200000 -1.605304
86.250000 -1.598452
86.300000 -1.608730
86.350000 -1.653267
86.400000 -1.690951
86.450000 -1.701228
86.500000 -1.708080
86.550000 -1.732061
86.600000 -1.762894
86.650000 -1.766321
86.700000 -1.745765
86.750000 -1.728636
86.800000 -1.701228
86.850000 -1.639562
86.900000 -1.577896
86.950000 -1.560767
87.000000 -1.533360
87.050000 -1.454565
87.100000 -1.375769
87.150000 -1.372344
87.200000 -1.382621
87.250000 -1.341510
87.300000 -1.300399
87.350000 -1.303825
87.400000 -1.303825
87.450000 -1.259289
87.500000 -1.218178
87.550000 -1.211326
87.600000 -1.207900
87.650000 -1.163363
87.700000 -1.125678
87.750000 -1.125679
87.800000 -1.132531
87.850000 -1.115401
87.900000 -1.087994
87.950000 -1.077716
88.000000 -1.084568
88.050000 -1.101697
88.100000 -1.135957
88.150000 -1.187345
88.200000 -1.228456
88.250000 -1.269566
88.300000 -1.338084
88.350000 -1.423731
88.400000 -1.512804
88.450000 -1.619007
88.500000 -1.752617
88.550000 -1.869097
88.600000 -1.930763
88.650000 -1.968448
88.700000 -1.999281
88.750000 -1.995855
88.800000 -1.934189
88.850000 -1.834839
88.900000 -1.728636
88.950000 -1.619007
89.000000 -1.502527
89.050000 -1.382620
89.100000 -1.266141
89.150000 -1.170216
89.200000 -1.111975
89.250000 -1.081142
89.300000 -1.060587
89.350000 -1.060587
89.400000 -1.094846
89.450000 -1.118827
89.500000 -1.125679
89.550000 -1.163364
89.600000 -1.235308
89.650000 -1.266141
89.700000 -1.262714
89.750000 -1.262715
89.800000 -1.252437
89.850000 -1.211326
89.900000 -1.166790
89.950000 -1.115401
90.000000 -1.019476
90.050000 -0.902996
90.100000 -0.827627
90.150000 -0.762534
90.200000 -0.673461
90.250000 -0.628925
90.300000 -0.646054
90.350000 -0.687164
90.400000 -0.717998
90.450000 -0.783089
90.500000 -0.896144
90.550000 -1.036606
90.600000 -1.173641
90.650000 -1.290122
90.700000 -1.389472
90.750000 -1.475120
90.800000 -1.529934
90.850000 -1.523082
90.900000 -1.454564
90.950000 -1.341510
91.000000 -1.197623
91.050000 -1.029754
91.100000 -0.851607
91.150000 -0.694016
91.200000 -0.563833
91.250000 -0.461056
91.300000 -0.395964
91.350000 -0.409668
91.400000 -0.502167
91.450000 -0.594666
91.500000 -0.704294
91.550000 -0.885867
91.600000 -1.101698
91.650000 -1.242159
91.700000 -1.341510
91.750000 -1.461416
91.800000 -1.547063
91.850000 -1.540212
91.900000 -1.505952
91.950000 -1.488823
92.000000 -1.457990
92.050000 -1.375768
92.100000 -1.293548
92.150000 -1.218178
92.200000 -1.156512
92.250000 -1.098271
92.300000 -1.043457
92.350000 -1.002347
92.400000 -0.981792
92.450000 -0.947533
92.500000 -0.913274
92.550000 -0.906422
92.600000 -0.913273
92.650000 -0.896144
92.700000 -0.882440
92.750000 -0.899570
92.800000 -0.937254
92.850000 -0.978366
92.900000 -1.033180
92.950000 -1.091420
93.000000 -1.118827
93.050000 -1.139382
93.100000 -1.159937
93.150000 -1.170216
93.200000 -1.190771
93.250000 -1.221603
93.300000 -1.225030
93.350000 -1.218178
93.400000 -1.252437
93.450000 -1.300400
93.500000 -1.320955
93.550000 -1.355214
93.600000 -1.420306
93.650000 -1.454565
93.700000 -1.468269
93.750000 -1.495675
93.800000 -1.499101
93.850000 -1.447712
93.900000 -1.386046
93.950000 -1.324381
94.000000 -1.207900
94.050000 -1.074290
94.100000 -0.974939
94.150000 -0.892719
94.200000 -0.827626
94.250000 -0.800219
94.300000 -0.817349
94.350000 -0.868737
94.400000 -0.964662
94.450000 -1.084568
94.500000 -1.187345
94.550000 -1.293547
94.600000 -1.420305
94.650000 -1.516230
94.700000 -1.574470
94.750000 -1.622433
94.800000 -1.636136
94.850000 -1.595026
94.900000 -1.553915
94.950000 -1.533360
95.000000 -1.488823
95.050000 -1.434009
95.100000 -1.396324
95.150000 -1.365491
95.200000 -1.307251
95.250000 -1.238733
95.300000 -1.197622
95.350000 -1.180493
95.400000 -1.156511
95.450000 -1.111975
95.500000 -1.077717
95.550000 -1.064013
95.600000 -1.033180
95.650000 -0.985217
95.700000 -0.957810
95.750000 -0.954384
95.800000 -0.933828
95.850000 -0.902996
95.900000 -0.879014
95.950000 -0.858460
96.000000 -0.834478
96.050000 -0.800219
96.100000 -0.741979
96.150000 -0.697443
96.200000 -0.694016
96.250000 -0.694017
96.300000 -0.676887
96.350000 -0.704294
96.400000 -0.783089
96.450000 -0.858459
96.500000 -0.926977
96.550000 -1.019476
96.600000 -1.122253
96.650000 -1.211326
96.700000 -1.296973
96.750000 -1.382621
96.800000 -1.444287
96.850000 -1.481971
96.900000 -1.512805
96.950000 -1.523082
97.000000 -1.533360
97.050000 -1.529934
97.100000 -1.492250
97.150000 -1.440861
97.200000 -1.389473
97.250000 -1.307251
97.300000 -1.201049
97.350000 -1.129105
97.400000 -1.091420
97.450000 -1.050309
97.500000 -0.998921
97.550000 -0.992069
97.600000 -1.009198
97.650000 -1.009199
97.700000 -1.012625
97.750000 -1.077716
97.800000 -1.159938
97.850000 -1.211326
97.900000 -1.249011
97.950000 -1.307251
98.000000 -1.365492
98.050000 -1.399750
98.100000 -1.410027
98.150000 -1.440860
98.200000 -1.478545
98.250000 -1.471694
98.300000 -1.423731
98.350000 -1.392898
98.400000 -1.362065
98.450000 -1.272992
98.500000 -1.156512
98.550000 -1.091421
98.600000 -1.070865
98.650000 -1.026329
98.700000 -0.985217
98.750000 -1.016050
98.800000 -1.091420
98.850000 -1.153086
98.900000 -1.221604
98.950000 -1.334658
99.000000 -1.451138
99.050000 -1.536786
99.100000 -1.598452
99.150000 -1.629285
99.200000 -1.622432
99.250000 -1.591600
99.300000 -1.540211
99.350000 -1.461416
99.400000 -1.362065
99.450000 -1.259288
99.500000 -1.159938
99.550000 -1.081142
99.600000 -1.019476
99.650000 -0.954385
99.700000 -0.892719
99.750000 -0.868737
99.800000 -0.868737
99.850000 -0.851608
99.900000 -0.834478
99.950000 -0.844756
100.000000 -0.855033
100.050000 -0.861885
100.100000 -0.896144
100.150000 -0.947532
100.200000 -0.968088
100.250000 -0.974939
100.300000 -1.016050
100.350000 -1.070864
100.400000 -1.098271
100.450000 -1.101698
100.500000 -1.101698
100.550000 -1.087994
100.600000 -1.057161
100.650000 -1.026328
100.700000 -1.005773
100.750000 -0.988644
100.800000 -0.971514
100.850000 -0.940681
100.900000 -0.889293
100.950000 -0.851608
101.000000 -0.831052
101.050000 -0.789941
101.100000 -0.741979
101.150000 -0.717998
101.200000 -0.687165
101.250000 -0.625499
101.300000 -0.577536
101.350000 -0.587814
101.400000 -0.618647
101.450000 -0.639202
101.500000 -0.680313
101.550000 -0.765960
101.600000 -0.861885
101.650000 -0.937255
101.700000 -1.005772
101.750000 -1.111976
101.800000 -1.218178
101.850000 -1.272992
101.900000 -1.262714
101.950000 -1.231881
102.000000 -1.211326
102.050000 -1.190771
102.100000 -1.146234
102.150000 -1.101697
102.200000 -1.057161
102.250000 -0.995495
102.300000 -0.933829
102.350000 -0.906421
102.400000 -0.909848
102.450000 -0.882440
102.500000 -0.831052
102.550000 -0.824201
102.600000 -0.861886
102.650000 -0.868737
102.700000 -0.841330
102.750000 -0.865311
102.800000 -0.950959
102.850000 -1.009199
102.900000 -1.029754
102.950000 -1.087994
103.000000 -1.166790
103.050000 -1.228456
103.100000 -1.279844
103.150000 -1.341509
103.200000 -1.372343
103.250000 -1.372343
103.300000 -1.362066
103.350000 -1.351788
103.400000 -1.324380
103.450000 -1.290121
103.500000 -1.255863
103.550000 -1.214752
103.600000 -1.183919
103.650000 -1.166789
103.700000 -1.142809
103.750000 -1.125678
103.800000 -1.132531
103.850000 -1.146234
103.900000 -1.153086
103.950000 -1.142808
104.000000 -1.108549
104.050000 -1.050309
104.100000 -0.981792
104.150000 -0.892718
104.200000 -0.786515
104.250000 -0.694017
104.300000 -0.625499
104.350000 -0.563833
104.400000 -0.515870
104.450000 -0.505593
104.500000 -0.533000
104.550000 -0.594666
104.600000 -0.690590
104.650000 -0.793367
104.700000 -0.872163
104.750000 -0.950958
104.800000 -1.064013
104.850000 -1.194197
104.900000 -1.286696
104.950000 -1.341510
105.000000 -1.386047
105.050000 -1.403176
105.100000 -1.389473
105.150000 -1.386046
105.200000 -1.410028
105.250000 -1.403176
105.300000 -1.362066
105.350000 -1.338084
105.400000 -1.317529
105.450000 -1.266140
105.500000 -1.204475
105.550000 -1.170215
105.600000 -1.146234
105.650000 -1.105123
105.700000 -1.087994
105.750000 -1.098272
105.800000 -1.098272
105.850000 -1.064012
105.900000 -1.033180
105.950000 -0.995495
106.000000 -0.930403
106.050000 -0.817349
106.100000 -0.676887
106.150000 -0.553555
106.200000 -0.433649
106.250000 -0.306891
106.300000 -0.190411
106.350000 -0.132171
106.400000 -0.135596
106.450000 -0.169856
106.500000 -0.262354
106.550000 -0.426798
106.600000 -0.618647
106.650000 -0.803645
106.700000 -0.992069
106.750000 -1.180493
106.800000 -1.341510
106.850000 -1.440861
106.900000 -1.478545
106.950000 -1.457990
107.000000 -1.403176
107.050000 -1.307251
107.100000 -1.190771
107.150000 -1.057161
107.200000 -0.913274
107.250000 -0.765960
107.300000 -0.649481
107.350000 -0.546703
107.400000 -0.447352
107.450000 -0.361705
107.500000 -0.324020
107.550000 -0.327447
107.600000 -0.344576
107.650000 -0.358279
107.700000 -0.399390
107.750000 -0.488463
107.800000 -0.598092
107.850000 -0.680313
107.900000 -0.755683
107.950000 -0.861885
108.000000 -0.950958
108.050000 -0.992069
108.100000 -1.029754
108.150000 -1.091419
108.200000 -1.125678
108.250000 -1.118827
108.300000 -1.105123
108.350000 -1.091420
108.400000 -1.077717
108.450000 -1.064012
108.500000 -1.036605
108.550000 -1.019476
108.600000 -1.012625
108.650000 -1.012625
108.700000 -0.985217
108.750000 -0.968088
108.800000 -0.957811
108.850000 -0.930403
108.900000 -0.896144
108.950000 -0.882441
109.000000 -0.855033
109.050000 -0.807071
109.100000 -0.786515
109.150000 -0.803645
109.200000 -0.813923
109.250000 -0.844756
109.300000 -0.920125
109.350000 -1.016050
109.400000 -1.118827
109.450000 -1.231881
109.500000 -1.320955
109.550000 -1.386046
109.600000 -1.464842
109.650000 -1.533360
109.700000 -1.529934
109.750000 -1.495675
109.800000 -1.468268
109.850000 -1.420305
109.900000 -1.331232
109.950000 -1.235308
110.000000 -1.170215
110.050000 -1.111975
110.100000 -1.064013
110.150000 -1.046883
110.200000 -1.033180
110.250000 -1.029754
110.300000 -1.043457
110.350000 -1.057161
110.400000 -1.064013
110.450000 -1.064013
110.500000 -1.070865
110.550000 -1.067438
110.600000 -1.064012
110.650000 -1.043458
110.700000 -1.019477
110.750000 -1.019476
110.800000 -1.036606
110.850000 -1.029754
110.900000 -1.019476
110.950000 -1.057161
111.000000 -1.105123
111.050000 -1.129104
111.100000 -1.139382
111.150000 -1.149660
111.200000 -1.146234
111.250000 -1.111976
111.300000 -1.046883
111.350000 -0.981791
111.400000 -0.940680
111.450000 -0.896144
111.500000 -0.817349
111.550000 -0.748831
111.600000 -0.721423
111.650000 -0.697443
111.700000 -0.659758
111.750000 -0.663183
111.800000 -0.717998
111.850000 -0.772812
111.900000 -0.827626
111.950000 -0.909847
112.000000 -1.019476
112.050000 -1.139382
112.100000 -1.266141
112.150000 -1.386047
112.200000 -1.475120
112.250000 -1.553915
112.300000 -1.615581
112.350000 -1.653266
112.400000 -1.673821
112.450000 -1.673822
112.500000 -1.639563
112.550000 -1.591600
112.600000 -1.526508
112.650000 -1.440861
112.700000 -1.396324
112.750000 -1.392898
112.800000 -1.365491
112.850000 -1.314103
112.900000 -1.296973
112.950000 -1.276418
113.000000 -1.221604
113.050000 -1.177067
113.100000 -1.156512
113.150000 -1.108550
113.200000 -1.012624
113.250000 -0.913273
113.300000 -0.824201
113.350000 -0.728276
113.400000 -0.652906
113.450000 -0.587814
113.500000 -0.509018
113.550000 -0.457630
113.600000 -0.450778
113.650000 -0.454205
113.700000 -0.464482
113.750000 -0.498741
113.800000 -0.546704
113.850000 -0.587814
113.900000 -0.652906
113.950000 -0.721424
114.000000 -0.762534
114.050000 -0.810497
114.100000 -0.892718
114.150000 -0.981791
114.200000 -1.040031
114.250000 -1.084568
114.300000 -1.122252
114.350000 -1.149660
114.400000 -1.159938
114.450000 -1.142808
114.500000 -1.129104
114.550000 -1.118827
114.600000 -1.084568
114.650000 -1.012625
114.700000 -0.940681
114.750000 -0.909848
114.800000 -0.868737
114.850000 -0.817349
114.900000 -0.796794
114.950000 -0.803645
115.000000 -0.813922
115.050000 -0.834478
115.100000 -0.868737
115.150000 -0.909848
115.200000 -0.940681
115.250000 -0.974940
115.300000 -1.009198
115.350000 -1.053735
115.400000 -1.125678
115.450000 -1.204475
115.500000 -1.269566
115.550000 -1.320954
115.600000 -1.375769
115.650000 -1.423731
115.700000 -1.468268
115.750000 -1.495675
115.800000 -1.519656
115.850000 -1.536786
115.900000 -1.526508
115.950000 -1.499101
116.000000 -1.461416
116.050000 -1.392898
116.100000 -1.290121
116.150000 -1.211326
116.200000 -1.146234
116.250000 -1.053735
116.300000 -0.974940
116.350000 -0.968088
116.400000 -0.964662
116.450000 -0.920125
116.500000 -0.913274
116.550000 -0.971514
116.600000 -1.033180
116.650000 -1.087994
116.700000 -1.177067
116.750000 -1.300399
116.800000 -1.416880
116.850000 -1.509379
116.900000 -1.564192
116.950000 -1.577897
117.000000 -1.571045
117.050000 -1.540212
117.100000 -1.471693
117.150000 -1.399750
117.200000 -1.334658
117.250000 -1.235307
117.300000 -1.108549
117.350000 -1.026328
117.400000 -0.981791
117.450000 -0.937254
117.500000 -0.909848
117.550000 -0.926977
117.600000 -0.961236
117.650000 -0.988643
117.700000 -1.012624
117.750000 -1.053735
117.800000 -1.091420
117.850000 -1.091420
117.900000 -1.057161
117.950000 -1.016050
118.000000 -0.995495
118.050000 -0.974940
118.100000 -0.957810
118.150000 -0.957810
118.200000 -0.954384
118.250000 -0.940680
118.300000 -0.944107
118.350000 -0.971514
118.400000 -0.988643
118.450000 -0.992069
118.500000 -0.998920
118.550000 -0.988644
118.600000 -0.930403
118.650000 -0.851608
118.700000 -0.776238
118.750000 -0.714572
118.800000 -0.646054
118.850000 -0.553555
118.900000 -0.485038
118.950000 -0.485038
119.000000 -0.515870
119.050000 -0.509018
119.100000 -0.488463
119.150000 -0.522722
119.200000 -0.563833
119.250000 -0.580963
119.300000 -0.622073
119.350000 -0.707720
119.400000 -0.796794
119.450000 -0.868737
119.500000 -0.944107
119.550000 -1.046883
119.600000 -1.163363
119.650000 -1.249011
119.700000 -1.286696
119.750000 -1.307251
119.800000 -1.338084
119.850000 -1.341510
119.900000 -1.290122
119.950000 -1.231881
120.000000 -1.170216
120.050000 -1.074290
120.100000 -0.957810
120.150000 -0.865311
120.200000 -0.786516
120.250000 -0.694017
120.300000 -0.622073
120.350000 -0.570684
120.400000 -0.546704
120.450000 -0.546703
120.500000 -0.574111
120.550000 -0.632351
120.600000 -0.704294
120.650000 -0.769386
120.700000 -0.851607
120.750000 -0.971514
120.800000 -1.077716
120.850000 -1.146234
120.900000 -1.211326
120.950000 -1.262715
121.000000 -1.266140
121.050000 -1.235307
121.100000 -1.218178
121.150000 -1.194196
121.200000 -1.129104
121.250000 -1.074290
121.300000 -1.050309
121.350000 -1.053735
121.400000 -1.081142
121.450000 -1.101698
121.500000 -1.118827
121.550000 -1.142808
121.600000 -1.194197
121.650000 -1.245585
121.700000 -1.269566
121.750000 -1.286696
121.800000 -1.269567
121.850000 -1.204475
121.900000 -1.118827
121.950000 -1.040032
122.000000 -0.968088
122.050000 -0.899570
122.100000 -0.851608
122.150000 -0.800219
122.200000 -0.731701
122.250000 -0.683739
122.300000 -0.673461
122.350000 -0.666609
122.400000 -0.659757
122.450000 -0.666609
122.500000 -0.700868
122.550000 -0.759109
122.600000 -0.810497
122.650000 -0.841330
122.700000 -0.861885
122.750000 -0.892719
122.800000 -0.944106
122.850000 -1.009198
122.900000 -1.087994
122.950000 -1.153086
123.000000 -1.170215
123.050000 -1.142809
123.100000 -1.094846
123.150000 -1.033180
123.200000 -0.964662
123.250000 -0.872163
123.300000 -0.762534
123.350000 -0.676887
123.400000 -0.615221
123.450000 -0.570685
123.500000 -0.546703
123.550000 -0.580962
123.600000 -0.663183
123.650000 -0.748831
123.700000 -0.844756
123.750000 -0.957810
123.800000 -1.077716
123.850000 -1.159937
123.900000 -1.190771
123.950000 -1.190771
124.000000 -1.183919
124.050000 -1.177067
124.100000 -1.159938
124.150000 -1.139382
124.200000 -1.118827
124.250000 -1.087994
124.300000 -1.060587
124.350000 -1.057161
124.400000 -1.046883
124.450000 -1.026327
124.500000 -1.026328
124.550000 -1.043457
124.600000 -1.046883
124.650000 -1.036606
124.700000 -1.040031
124.750000 -1.057161
124.800000 -1.101697
124.850000 -1.156512
124.900000 -1.187345
124.950000 -1.221604
125.000000 -1.286695
125.050000 -1.338083
125.100000 -1.338084
125.150000 -1.334658
125.200000 -1.334658
125.250000 -1.293547
125.300000 -1.221604
125.350000 -1.173641
125.400000 -1.149660
125.450000 -1.084568
125.500000 -1.002347
125.550000 -0.981791
125.600000 -0.998921
125.650000 -0.974939
125.700000 -0.916700
125.750000 -0.882440
125.800000 -0.827627
125.850000 -0.738553
125.900000 -0.680313
125.950000 -0.673462
126.000000 -0.656332
126.050000 -0.649480
126.100000 -0.707720
126.150000 -0.803645
126.200000 -0.892719
126.250000 -0.992070
126.300000 -1.111975
126.350000 -1.207900
126.400000 -1.272992
126.450000 -1.314103
126.500000 -1.317529
126.550000 -1.262714
126.600000 -1.159938
126.650000 -1.036605
126.700000 -0.916699
126.750000 -0.827626
126.800000 -0.793367
126.850000 -0.813923
126.900000 -0.882440
126.950000 -0.978365
127.000000 -1.084568
127.050000 -1.180493
127.100000 -1.266141
127.150000 -1.331233
127.200000 -1.344936
127.250000 -1.314103
127.300000 -1.272992
127.350000 -1.204474
127.400000 -1.081143
127.450000 -0.950959
127.500000 -0.879015
127.550000 -0.841330
127.600000 -0.813923
127.650000 -0.813923
127.700000 -0.841331
127.750000 -0.902997
127.800000 -0.992070
127.850000 -1.057161
127.900000 -1.074291
127.950000 -1.111975
128.000000 -1.194197
128.050000 -1.242159
128.100000 -1.235307
128.150000 -1.245585
128.200000 -1.266140
128.250000 -1.245585
128.300000 -1.221604
128.350000 -1.218178
128.400000 -1.190770
128.450000 -1.139382
128.500000 -1.118827
128.550000 -1.118826
128.600000 -1.081142
128.650000 -1.016050
128.700000 -0.974940
128.750000 -0.954384
128.800000 -0.950958
128.850000 -0.978365
128.900000 -1.043457
128.950000 -1.129105
129.000000 -1.242159
129.050000 -1.372342
129.100000 -1.492249
129.150000 -1.622433
129.200000 -1.752617
129.250000 -1.824561
129.300000 -1.845116
129.350000 -1.862245
129.400000 -1.838264
129.450000 -1.718358
129.500000 -1.560767
129.550000 -1.413454
129.600000 -1.255863
129.650000 -1.067439
129.700000 -0.906422
129.750000 -0.817349
129.800000 -0.783090
129.850000 -0.762535
129.900000 -0.765961
129.950000 -0.803645
130.000000 -0.882441
130.050000 -0.957811
130.100000 -1.005773
130.150000 -1.057161
130.200000 -1.108549
130.250000 -1.132531
130.300000 -1.111976
130.350000 -1.081143
130.400000 -1.043457
130.450000 -0.978366
130.500000 -0.892718
130.550000 -0.817349
130.600000 -0.762534
130.650000 -0.724850
130.700000 -0.683739
130.750000 -0.649480
130.800000 -0.639203
130.850000 -0.639202
130.900000 -0.646054
130.950000 -0.666610
131.000000 -0.697443
131.050000 -0.717998
131.100000 -0.741979
131.150000 -0.776238
131.200000 -0.800220
131.250000 -0.824201
131.300000 -0.868737
131.350000 -0.940680
131.400000 -1.029754
131.450000 -1.115402
131.500000 -1.214751
131.550000 -1.331232
131.600000 -1.427157
131.650000 -1.502527
131.700000 -1.543638
131.750000 -1.553915
131.800000 -1.519656
131.850000 -1.437435
131.900000 -1.327806
131.950000 -1.197622
132.000000 -1.067439
132.050000 -0.944107
132.100000 -0.851608
132.150000 -0.813923
132.200000 -0.827626
132.250000 -0.865311
132.300000 -0.944107
132.350000 -1.060587
132.400000 -1.177068
132.450000 -1.266141
132.500000 -1.320955
132.550000 -1.317529
132.600000 -1.231882
132.650000 -1.101698
132.700000 -0.950959
132.750000 -0.772812
132.800000 -0.560407
132.850000 -0.358280
132.900000 -0.210966
132.950000 -0.125319
133.000000 -0.097912
133.050000 -0.132170
133.100000 -0.255502
133.150000 -0.443926
133.200000 -0.642628
133.250000 -0.824200
133.300000 -1.005773
133.350000 -1.173641
133.400000 -1.320955
133.450000 -1.434010
133.500000 -1.485397
133.550000 -1.485397
133.600000 -1.454564
133.650000 -1.396324
133.700000 -1.324380
133.750000 -1.242159
133.800000 -1.142808
133.850000 -1.043458
133.900000 -0.961236
133.950000 -0.913274
134.000000 -0.872163
134.050000 -0.824201
134.100000 -0.824201
134.150000 -0.875589
134.200000 -0.930403
134.250000 -0.995495
134.300000 -1.098271
134.350000 -1.228455
134.400000 -1.341509
134.450000 -1.423731
134.500000 -1.481971
134.550000 -1.505952
134.600000 -1.492249
134.650000 -1.440861
134.700000 -1.341510
134.750000 -1.228456
134.800000 -1.132530
134.850000 -1.053736
134.900000 -0.995494
134.950000 -0.961236
135.000000 -0.974939
135.050000 -1.043458
135.100000 -1.125679
135.150000 -1.207900
135.200000 -1.286696
135.250000 -1.348362
135.300000 -1.379195
135.350000 -1.399750
135.400000 -1.413454
135.450000 -1.382621
135.500000 -1.341510
135.550000 -1.348362
135.600000 -1.365491
135.650000 -1.358639
135.700000 -1.379194
135.750000 -1.451138
135.800000 -1.519656
135.850000 -1.547063
135.900000 -1.567619
135.950000 -1.588174
136.000000 -1.588174
136.050000 -1.547064
136.100000 -1.468268
136.150000 -1.379195
136.200000 -1.300399
136.250000 -1.190770
136.300000 -1.043458
136.350000 -0.933829
136.400000 -0.882441
136.450000 -0.820774
136.500000 -0.738553
136.550000 -0.704294
136.600000 -0.700869
136.650000 -0.687165
136.700000 -0.714572
136.750000 -0.800220
136.800000 -0.865311
136.850000 -0.906422
136.900000 -1.002347
136.950000 -1.135957
137.000000 -1.238733
137.050000 -1.310676
137.100000 -1.365491
137.150000 -1.396324
137.200000 -1.410028
137.250000 -1.447712
137.300000 -1.464841
137.350000 -1.444286
137.400000 -1.434009
137.450000 -1.444287
137.500000 -1.430583
137.550000 -1.403176
137.600000 -1.392899
137.650000 -1.358639
137.700000 -1.276418
137.750000 -1.197623
137.800000 -1.129105
137.850000 -1.057161
137.900000 -0.985218
137.950000 -0.926977
138.000000 -0.902996
138.050000 -0.909848
138.100000 -0.954384
138.150000 -1.060586
138.200000 -1.214752
138.250000 -1.362065
138.300000 -1.502527
138.350000 -1.666969
138.400000 -1.797153
138.450000 -1.851968
138.500000 -1.872523
138.550000 -1.869098
138.600000 -1.783450
138.650000 -1.639563
138.700000 -1.502527
138.750000 -1.375769
138.800000 -1.218178
138.850000 -1.074290
138.900000 -0.974940
138.950000 -0.906422
139.000000 -0.841330
139.050000 -0.807071
139.100000 -0.803645
139.150000 -0.827626
139.200000 -0.858460
139.250000 -0.896144
139.300000 -0.940680
139.350000 -0.974939
139.400000 -0.974939
139.450000 -0.961236
139.500000 -0.954384
139.550000 -0.944107
139.600000 -0.902996
139.650000 -0.855034
139.700000 -0.831053
139.750000 -0.817349
139.800000 -0.783090
139.850000 -0.769386
139.900000 -0.796794
139.950000 -0.831052
140.000000 -0.841330
140.050000 -0.868737
140.100000 -0.933829
140.150000 -0.985217
140.200000 -0.998921
140.250000 -1.019476
140.300000 -1.057161
140.350000 -1.087994
140.400000 -1.105123
140.450000 -1.084568
140.500000 -1.036605
140.550000 -1.005772
140.600000 -0.998921
140.650000 -0.981792
140.700000 -0.954384
140.750000 -0.930403
140.800000 -0.892718
140.850000 -0.861885
140.900000 -0.844755
140.950000 -0.834478
141.000000 -0.813923
141.050000 -0.786515
141.100000 -0.759108
141.150000 -0.748831
141.200000 -0.762535
141.250000 -0.793367
141.300000 -0.824200
141.350000 -0.858459
141.400000 -0.920125
141.450000 -0.988643
141.500000 -1.036606
141.550000 -1.081142
141.600000 -1.146234
141.650000 -1.183919
141.700000 -1.163364
141.750000 -1.146234
141.800000 -1.153086
141.850000 -1.132531
141.900000 -1.067439
141.950000 -0.998920
142.000000 -0.954384
142.050000 -0.930403
142.100000 -0.923551
142.150000 -0.930403
142.200000 -0.950959
142.250000 -0.985218
142.300000 -1.036605
142.350000 -1.108549
142.400000 -1.190771
142.450000 -1.262714
142.500000 -1.317529
142.550000 -1.372343
142.600000 -1.420306
142.650000 -1.427157
142.700000 -1.382621
142.750000 -1.327806
142.800000 -1.286695
142.850000 -1.221604
142.900000 -1.125678
142.950000 -1.057161
143.000000 -1.036606
143.050000 -1.005772
143.100000 -0.981792
143.150000 -1.005773
143.200000 -1.046884
143.250000 -1.084569
143.300000 -1.139382
143.350000 -1.228455
143.400000 -1.296973
143.450000 -1.320954
143.500000 -1.307251
143.550000 -1.290122
143.600000 -1.266140
143.650000 -1.207900
143.700000 -1.094846
143.750000 -0.971514
143.800000 -0.861886
143.850000 -0.759108
143.900000 -0.694016
143.950000 -0.700869
144.000000 -0.738554
144.050000 -0.772812
144.100000 -0.855034
144.150000 -0.992070
144.200000 -1.139382
144.250000 -1.272992
144.300000 -1.403176
144.350000 -1.509379
144.400000 -1.560767
144.450000 -1.543638
144.500000 -1.481972
144.550000 -1.416880
144.600000 -1.348361
144.650000 -1.249011
144.700000 -1.135956
144.750000 -1.036606
144.800000 -0.957810
144.850000 -0.906422
144.900000 -0.889292
144.950000 -0.902996
145.000000 -0.906422
145.050000 -0.896144
145.100000 -0.892719
145.150000 -0.913273
145.200000 -0.937255
145.250000 -0.930403
145.300000 -0.889292
145.350000 -0.875589
145.400000 -0.889292
145.450000 -0.906422
145.500000 -0.947533
145.550000 -1.009199
145.600000 -1.064012
145.650000 -1.101698
145.700000 -1.159937
145.750000 -1.235307
145.800000 -1.272993
145.850000 -1.276418
145.900000 -1.283270
145.950000 -1.307251
146.000000 -1.324381
146.050000 -1.290122
146.100000 -1.245585
146.150000 -1.249011
146.200000 -1.259289
146.250000 -1.218178
146.300000 -1.156512
146.350000 -1.135956
146.400000 -1.115401
146.450000 -1.029753
146.500000 -0.933829
146.550000 -0.865311
146.600000 -0.789941
146.650000 -0.697442
146.700000 -0.635776
146.750000 -0.608370
146.800000 -0.598092
146.850000 -0.601517
146.900000 -0.628925
146.950000 -0.694017
147.000000 -0.807071
147.050000 -0.933828
147.100000 -1.043457
147.150000 -1.149660
147.200000 -1.259289
147.250000 -1.355213
147.300000 -1.396324
147.350000 -1.382620
147.400000 -1.348361
147.450000 -1.317528
147.500000 -1.266140
147.550000 -1.166790
147.600000 -1.036605
147.650000 -0.913273
147.700000 -0.820775
147.750000 -0.759108
147.800000 -0.741979
147.850000 -0.752256
147.900000 -0.793367
147.950000 -0.902996
148.000000 -1.040032
148.050000 -1.146234
148.100000 -1.235307
148.150000 -1.348362
148.200000 -1.434010
148.250000 -1.471693
148.300000 -1.485397
148.350000 -1.468268
148.400000 -1.389473
148.450000 -1.300399
148.500000 -1.228456
148.550000 -1.163363
148.600000 -1.129104
148.650000 -1.146234
148.700000 -1.180493
148.750000 -1.231882
148.800000 -1.310677
148.850000 -1.389473
148.900000 -1.434009
148.950000 -1.478545
149.000000 -1.519657
149.050000 -1.502527
149.100000 -1.430583
149.150000 -1.341510
149.200000 -1.231881
149.250000 -1.098272
149.300000 -0.985218
149.350000 -0.913273
149.400000 -0.865311
149.450000 -0.851607
149.500000 -0.858459
149.550000 -0.872163
149.600000 -0.899570
149.650000 -0.940681
149.700000 -0.971513
149.750000 -1.005772
149.800000 -1.029754
149.850000 -1.022902
149.900000 -1.005772
149.950000 -1.009199
150.000000 -0.988643
150.050000 -0.909848
150.100000 -0.841330
150.150000 -0.820775
150.200000 -0.786515
150.250000 -0.738553
150.300000 -0.711146
150.350000 -0.680313
150.400000 -0.642628
150.450000 -0.652906
150.500000 -0.687165
150.550000 -0.697443
150.600000 -0.711146
150.650000 -0.748830
150.700000 -0.807071
150.750000 -0.889292
150.800000 -0.995495
150.850000 -1.091420
150.900000 -1.187345
150.950000 -1.279844
151.000000 -1.334658
151.050000 -1.344936
151.100000 -1.348362
151.150000 -1.355214
151.200000 -1.327807
151.250000 -1.286696
151.300000 -1.238734
151.350000 -1.166789
151.400000 -1.074290
151.450000 -0.985218
151.500000 -0.902996
151.550000 -0.841330
151.600000 -0.803645
151.650000 -0.755683
151.700000 -0.724849
151.750000 -0.745405
151.800000 -0.779664
151.850000 -0.789941
151.900000 -0.824201
151.950000 -0.892719
152.000000 -0.954384
152.050000 -1.019477
152.100000 -1.094846
152.150000 -1.146234
152.200000 -1.166790
152.250000 -1.173642
152.300000 -1.180493
152.350000 -1.180494
152.400000 -1.166790
152.450000 -1.135957
152.500000 -1.105123
152.550000 -1.105123
152.600000 -1.087993
152.650000 -1.019476
152.700000 -0.964662
152.750000 -0.961236
152.800000 -0.961236
152.850000 -0.937255
152.900000 -0.926977
152.950000 -0.937254
153.000000 -0.944107
153.050000 -0.954384
153.100000 -0.978366
153.150000 -1.019476
153.200000 -1.040032
153.250000 -1.046884
153.300000 -1.087994
153.350000 -1.146235
153.400000 -1.190771
153.450000 -1.221604
153.500000 -1.266141
153.550000 -1.310677
153.600000 -1.320955
153.650000 -1.320955
153.700000 -1.331232
153.750000 -1.338084
153.800000 -1.310677
153.850000 -1.262714
153.900000 -1.194197
153.950000 -1.094846
154.000000 -0.961236
154.050000 -0.834478
154.100000 -0.717998
154.150000 -0.591240
154.200000 -0.457630
154.250000 -0.341150
154.300000 -0.279484
154.350000 -0.252076
154.400000 -0.238374
154.450000 -0.248651
154.500000 -0.286336
154.550000 -0.344575
154.600000 -0.426797
154.650000 -0.539851
154.700000 -0.676888
154.750000 -0.813923
154.800000 -0.961237
154.850000 -1.098271
154.900000 -1.211326
154.950000 -1.300399
155.000000 -1.396325
155.050000 -1.464842
155.100000 -1.471693
155.150000 -1.437435
155.200000 -1.399750
155.250000 -1.355213
155.300000 -1.290121
155.350000 -1.228455
155.400000 -1.177067
155.450000 -1.132530
155.500000 -1.094845
155.550000 -1.087994
155.600000 -1.101698
155.650000 -1.125679
155.700000 -1.166790
155.750000 -1.242159
155.800000 -1.320955
155.850000 -1.372343
155.900000 -1.410028
155.950000 -1.451139
156.000000 -1.451139
156.050000 -1.399750
156.100000 -1.368918
156.150000 -1.372344
156.200000 -1.341510
156.250000 -1.245585
156.300000 -1.153086
156.350000 -1.098272
156.400000 -1.019476
156.450000 -0.909848
156.500000 -0.831052
156.550000 -0.807071
156.600000 -0.796793
156.650000 -0.779664
156.700000 -0.793367
156.750000 -0.831052
156.800000 -0.861885
156.850000 -0.879014
156.900000 -0.899570
156.950000 -0.916700
157.000000 -0.906422
157.050000 -0.868737
157.100000 -0.820775
157.150000 -0.776238
157.200000 -0.735127
157.250000 -0.683739
157.300000 -0.632350
157.350000 -0.591239
157.400000 -0.574111
157.450000 -0.570685
157.500000 -0.598092
157.550000 -0.649481
157.600000 -0.683739
157.650000 -0.700869
157.700000 -0.731701
157.750000 -0.759108
157.800000 -0.786516
157.850000 -0.831053
157.900000 -0.875589
157.950000 -0.906421
158.000000 -0.940680
158.050000 -0.981792
158.100000 -1.016050
158.150000 -1.026327
158.200000 -1.009199
158.250000 -0.968088
158.300000 -0.930403
158.350000 -0.906422
158.400000 -0.865311
158.450000 -0.844756
158.500000 -0.889292
158.550000 -0.950958
158.600000 -1.012624
158.650000 -1.105123
158.700000 -1.228456
158.750000 -1.348362
158.800000 -1.457990
158.850000 -1.560767
158.900000 -1.636137
158.950000 -1.677247
159.000000 -1.663543
159.050000 -1.571044
159.100000 -1.468268
159.150000 -1.382620
159.200000 -1.266140
159.250000 -1.118827
159.300000 -1.016050
159.350000 -0.985217
159.400000 -0.964662
159.450000 -0.961236
159.500000 -1.016051
159.550000 -1.118827
159.600000 -1.228455
159.650000 -1.341510
159.700000 -1.457991
159.750000 -1.571044
159.800000 -1.663543
159.850000 -1.721784
159.900000 -1.738913
159.950000 -1.718358
160.000000 -1.687525
160.050000 -1.636137
160.100000 -1.557342
160.150000 -1.468268
160.200000 -1.379195
160.250000 -1.279844
160.300000 -1.187345
160.350000 -1.098271
160.400000 -1.026328
160.450000 -0.961236
160.500000 -0.902996
160.550000 -0.865311
160.600000 -0.844755
160.650000 -0.837904
160.700000 -0.858459
160.750000 -0.913274
160.800000 -0.968088
160.850000 -1.002346
160.900000 -1.046883
160.950000 -1.122253
161.000000 -1.194197
161.050000 -1.238733
161.100000 -1.290122
161.150000 -1.351788
161.200000 -1.389472
161.250000 -1.410028
161.300000 -1.454564
161.350000 -1.505953
161.400000 -1.536786
161.450000 -1.519656
161.500000 -1.499101
161.550000 -1.505952
161.600000 -1.519656
161.650000 -1.488823
161.700000 -1.434009
161.750000 -1.416879
161.800000 -1.399750
161.850000 -1.344936
161.900000 -1.296973
161.950000 -1.293548
162.000000 -1.290121
162.050000 -1.269567
162.100000 -1.279844
162.150000 -1.351788
162.200000 -1.437435
162.250000 -1.488823
162.300000 -1.523082
162.350000 -1.581322
162.400000 -1.653267
162.450000 -1.673821
162.500000 -1.653266
162.550000 -1.615581
162.600000 -1.547064
162.650000 -1.444287
162.700000 -1.341510
162.750000 -1.252437
162.800000 -1.153086
162.850000 -1.046883
162.900000 -0.961236
162.950000 -0.923551
163.000000 -0.926977
163.050000 -0.981791
163.100000 -1.081142
163.150000 -1.201048
163.200000 -1.338084
163.250000 -1.475120
163.300000 -1.595026
163.350000 -1.687525
163.400000 -1.766320
163.450000 -1.800580
163.500000 -1.780024
163.550000 -1.718358
163.600000 -1.615581
163.650000 -1.485398
163.700000 -1.331232
163.750000 -1.194196
163.800000 -1.081142
163.850000 -0.988644
163.900000 -0.902996
163.950000 -0.848182
164.000000 -0.820774
164.050000 -0.796793
164.100000 -0.776238
164.150000 -0.779664
164.200000 -0.793367
164.250000 -0.800219
164.300000 -0.800219
164.350000 -0.817348
164.400000 -0.837904
164.450000 -0.844756
164.500000 -0.855034
164.550000 -0.882440
164.600000 -0.920125
164.650000 -0.947532
164.700000 -0.971514
164.750000 -1.005773
164.800000 -1.012624
164.850000 -0.992069
164.900000 -1.002347
164.950000 -1.019476
165.000000 -0.998920
165.050000 -0.968088
165.100000 -0.985217
165.150000 -1.016050
165.200000 -1.029754
165.250000 -1.046883
165.300000 -1.098272
165.350000 -1.146234
165.400000 -1.183919
165.450000 -1.204475
165.500000 -1.218178
165.550000 -1.242159
165.600000 -1.252437
165.650000 -1.218178
165.700000 -1.149660
165.750000 -1.074291
165.800000 -0.974940
165.850000 -0.844756
165.900000 -0.717998
165.950000 -0.604944
166.000000 -0.505593
166.050000 -0.443926
166.100000 -0.409668
166.150000 -0.399390
166.200000 -0.423372
166.250000 -0.485038
166.300000 -0.570684
166.350000 -0.687165
166.400000 -0.824200
166.450000 -0.930403
166.500000 -0.968088
166.550000 -0.978366
166.600000 -0.981792
166.650000 -0.947532
166.700000 -0.861885
166.750000 -0.779664
166.800000 -0.700869
166.850000 -0.622073
166.900000 -0.580962
166.950000 -0.587814
167.000000 -0.622073
167.050000 -0.687165
167.100000 -0.793367
167.150000 -0.909848
167.200000 -0.998921
167.250000 -1.070864
167.300000 -1.146234
167.350000 -1.197623
167.400000 -1.190770
167.450000 -1.139383
167.500000 -1.060587
167.550000 -0.981792
167.600000 -0.902996
167.650000 -0.796793
167.700000 -0.714572
167.750000 -0.690590
167.800000 -0.694016
167.850000 -0.707720
167.900000 -0.762535
167.950000 -0.868737
168.000000 -0.971514
168.050000 -1.053735
168.100000 -1.129104
168.150000 -1.201048
168.200000 -1.238733
168.250000 -1.225030
168.300000 -1.166790
168.350000 -1.084568
168.400000 -0.974940
168.450000 -0.837904
168.500000 -0.707720
168.550000 -0.604943
168.600000 -0.533000
168.650000 -0.495315
168.700000 -0.515870
168.750000 -0.570684
168.800000 -0.639203
168.850000 -0.721424
168.900000 -0.837904
168.950000 -0.971514
169.000000 -1.084568
169.050000 -1.153086
169.100000 -1.163363
169.150000 -1.159937
169.200000 -1.153086
169.250000 -1.118827
169.300000 -1.060587
169.350000 -1.022902
169.400000 -1.009198
169.450000 -0.988643
169.500000 -0.978365
169.550000 -1.005773
169.600000 -1.053735
169.650000 -1.094845
169.700000 -1.146234
169.750000 -1.214752
169.800000 -1.279844
169.850000 -1.290121
169.900000 -1.269566
169.950000 -1.252437
170.000000 -1.255863
170.050000 -1.221604
170.100000 -1.163364
170.150000 -1.108549
170.200000 -1.070865
170.250000 -1.033180
170.300000 -0.995495
170.350000 -0.988643
170.400000 -1.019476
170.450000 -1.053735
170.500000 -1.074290
170.550000 -1.105124
170.600000 -1.142808
170.650000 -1.153086
170.700000 -1.135956
170.750000 -1.115401
170.800000 -1.087994
170.850000 -1.040031
170.900000 -0.992069
170.950000 -0.947532
171.000000 -0.913273
171.050000 -0.885867
171.100000 -0.855034
171.150000 -0.837904
171.200000 -0.834478
171.250000 -0.834478
171.300000 -0.796793
171.350000 -0.748831
171.400000 -0.731702
171.450000 -0.724850
171.500000 -0.690590
171.550000 -0.649480
171.600000 -0.642628
171.650000 -0.663183
171.700000 -0.697442
171.750000 -0.779664
171.800000 -0.902996
171.850000 -1.026328
171.900000 -1.139382
171.950000 -1.245586
172.000000 -1.324380
172.050000 -1.362066
172.100000 -1.362066
172.150000 -1.338084
172.200000 -1.290121
172.250000 -1.211326
172.300000 -1.108550
172.350000 -1.009198
172.400000 -0.944107
172.450000 -0.909847
172.500000 -0.875588
172.550000 -0.879015
172.600000 -0.913274
172.650000 -0.968088
172.700000 -1.043458
172.750000 -1.118827
172.800000 -1.170216
172.850000 -1.197622
172.900000 -1.225030
172.950000 -1.218177
173.000000 -1.180493
173.050000 -1.132530
173.100000 -1.081142
173.150000 -1.016050
173.200000 -0.944106
173.250000 -0.892718
173.300000 -0.841330
173.350000 -0.789941
173.400000 -0.762535
173.450000 -0.745405
173.500000 -0.735127
173.550000 -0.738553
173.600000 -0.741979
173.650000 -0.731702
173.700000 -0.728276
173.750000 -0.755682
173.800000 -0.796793
173.850000 -0.831052
173.900000 -0.885866
173.950000 -0.978366
174.000000 -1.081142
174.050000 -1.163364
174.100000 -1.235307
174.150000 -1.327807
174.200000 -1.423731
174.250000 -1.488823
174.300000 -1.516230
174.350000 -1.526508
174.400000 -1.509379
174.450000 -1.464842
174.500000 -1.410028
174.550000 -1.365491
174.600000 -1.324380
174.650000 -1.279844
174.700000 -1.238733
174.750000 -1.207900
174.800000 -1.197623
174.850000 -1.214752
174.900000 -1.249011
174.950000 -1.276418
175.000000 -1.279844
175.050000 -1.303826
175.100000 -1.365491
175.150000 -1.403176
175.200000 -1.362065
175.250000 -1.296973
175.300000 -1.259289
175.350000 -1.228456
175.400000 -1.194197
175.450000 -1.153086
175.500000 -1.118827
175.550000 -1.094846
175.600000 -1.111975
175.650000 -1.149660
175.700000 -1.177067
175.750000 -1.211326
175.800000 -1.266140
175.850000 -1.300399
175.900000 -1.303825
175.950000 -1.310677
176.000000 -1.314103
176.050000 -1.279844
176.100000 -1.238733
176.150000 -1.235307
176.200000 -1.221604
176.250000 -1.180493
176.300000 -1.149660
176.350000 -1.139382
176.400000 -1.125679
176.450000 -1.111975
176.500000 -1.087994
176.550000 -1.060587
176.600000 -1.040032
176.650000 -1.016050
176.700000 -0.985218
176.750000 -0.974940
176.800000 -0.992069
176.850000 -1.040032
176.900000 -1.139382
176.950000 -1.252437
177.000000 -1.334658
177.050000 -1.399750
177.100000 -1.481972
177.150000 -1.540212
177.200000 -1.533360
177.250000 -1.471694
177.300000 -1.375769
177.350000 -1.259289
177.400000 -1.146234
177.450000 -1.053735
177.500000 -0.964662
177.550000 -0.875589
177.600000 -0.800219
177.650000 -0.762534
177.700000 -0.762534
177.750000 -0.796793
177.800000 -0.865311
177.850000 -0.954385
177.900000 -1.016051
177.950000 -1.019476
178.000000 -1.002346
178.050000 -1.005772
178.100000 -1.005773
178.150000 -0.954384
178.200000 -0.889292
178.250000 -0.861885
178.300000 -0.868737
178.350000 -0.879015
178.400000 -0.902996
178.450000 -0.950959
178.500000 -1.026328
178.550000 -1.111975
178.600000 -1.194197
178.650000 -1.266140
178.700000 -1.341509
178.750000 -1.434009
178.800000 -1.509379
178.850000 -1.553915
178.900000 -1.577896
178.950000 -1.598451
179.000000 -1.595026
179.050000 -1.564193
179.100000 -1.516230
179.150000 -1.485397
179.200000 -1.478545
179.250000 -1.461416
179.300000 -1.413453
179.350000 -1.351788
179.400000 -1.296973
179.450000 -1.242159
179.500000 -1.177067
179.550000 -1.129105
179.600000 -1.105124
179.650000 -1.098272
179.700000 -1.118827
179.750000 -1.159937
179.800000 -1.204475
179.850000 -1.252436
179.900000 -1.320955
179.950000 -1.379195
180.000000 -1.379194
180.050000 -1.355213
180.100000 -1.338083
180.150000 -1.296973
180.200000 -1.231882
180.250000 -1.166790
180.300000 -1.108549
180.350000 -1.040032
180.400000 -0.992069
180.450000 -0.971513
180.500000 -0.968088
180.550000 -0.981791
180.600000 -1.026328
180.650000 -1.081143
180.700000 -1.115401
180.750000 -1.156512
180.800000 -1.194196
180.850000 -1.211326
180.900000 -1.207900
180.950000 -1.204474
181.000000 -1.190771
181.050000 -1.166789
181.100000 -1.142809
181.150000 -1.115401
181.200000 -1.098272
181.250000 -1.111975
181.300000 -1.125679
181.350000 -1.132531
181.400000 -1.142809
181.450000 -1.163364
181.500000 -1.187345
181.550000 -1.225030
181.600000 -1.283270
181.650000 -1.331232
181.700000 -1.375769
181.750000 -1.447713
181.800000 -1.523082
181.850000 -1.581322
181.900000 -1.653266
181.950000 -1.735488
182.000000 -1.773172
182.050000 -1.773172
182.100000 -1.745765
182.150000 -1.687525
182.200000 -1.629285
182.250000 -1.581322
182.300000 -1.495676
182.350000 -1.389472
182.400000 -1.290122
182.450000 -1.187345
182.500000 -1.074290
182.550000 -0.992069
182.600000 -0.961236
182.650000 -0.930403
182.700000 -0.902996
182.750000 -0.920125
182.800000 -0.940681
182.850000 -0.947532
182.900000 -0.978365
182.950000 -1.033180
183.000000 -1.060587
183.050000 -1.081142
183.100000 -1.125679
183.150000 -1.159938
183.200000 -1.156512
183.250000 -1.142808
183.300000 -1.115402
183.350000 -1.070864
183.400000 -1.046883
183.450000 -1.060587
183.500000 -1.064012
183.550000 -1.043457
183.600000 -1.036606
183.650000 -1.026328
183.700000 -0.992069
183.750000 -0.971514
183.800000 -0.981792
183.850000 -0.978365
183.900000 -0.964662
183.950000 -0.954384
184.000000 -0.944107
184.050000 -0.950958
184.100000 -0.981792
184.150000 -1.002347
184.200000 -1.016051
184.250000 -1.067439
184.300000 -1.149660
184.350000 -1.221604
184.400000 -1.286696
184.450000 -1.334658
184.500000 -1.344936
184.550000 -1.355213
184.600000 -1.338084
184.650000 -1.272992
184.700000 -1.218178
184.750000 -1.211326
184.800000 -1.194197
184.850000 -1.146234
184.900000 -1.122253
184.950000 -1.122253
185.000000 -1.091420
185.050000 -1.043458
185.100000 -1.012625
185.150000 -0.957810
185.200000 -0.879015
185.250000 -0.810497
185.300000 -0.741979
185.350000 -0.656332
185.400000 -0.601518
185.450000 -0.587814
185.500000 -0.594666
185.550000 -0.615221
185.600000 -0.673461
185.650000 -0.762535
185.700000 -0.868737
185.750000 -0.995495
185.800000 -1.125678
185.850000 -1.231881
185.900000 -1.317529
185.950000 -1.386047
186.000000 -1.403177
186.050000 -1.368917
186.100000 -1.314103
186.150000 -1.272992
186.200000 -1.214752
186.250000 -1.118827
186.300000 -1.012624
186.350000 -0.940681
186.400000 -0.885867
186.450000 -0.827626
186.500000 -0.796794
186.550000 -0.817349
186.600000 -0.837904
186.650000 -0.861886
186.700000 -0.957810
186.750000 -1.084568
186.800000 -1.183919
186.850000 -1.286696
186.900000 -1.430584
186.950000 -1.564193
187.000000 -1.625859
187.050000 -1.639563
187.100000 -1.615582
187.150000 -1.543637
187.200000 -1.430583
187.250000 -1.300400
187.300000 -1.139383
187.350000 -0.978366
187.400000 -0.834478
187.450000 -0.697442
187.500000 -0.594666
187.550000 -0.574110
187.600000 -0.587814
187.650000 -0.594665
187.700000 -0.628925
187.750000 -0.724850
187.800000 -0.817349
187.850000 -0.868737
187.900000 -0.909847
187.950000 -0.995495
188.000000 -1.087994
188.050000 -1.146234
188.100000 -1.207900
188.150000 -1.300400
188.200000 -1.386047
188.250000 -1.437435
188.300000 -1.478546
188.350000 -1.519656
188.400000 -1.526508
188.450000 -1.502527
188.500000 -1.461416
188.550000 -1.410028
188.600000 -1.365491
188.650000 -1.303825
188.700000 -1.207900
188.750000 -1.135956
