time[ns] Raw_signal[mV]
-11.200000 -0.780212
-11.150000 -0.814471
-11.100000 -0.787064
-11.050000 -0.708269
-11.000000 -0.643177
-10.950000 -0.560955
-10.900000 -0.427346
-10.850000 -0.290310
-10.800000 -0.194385
-10.750000 -0.101886
-10.700000 -0.009387
-10.650000 0.031724
-10.600000 0.031724
-10.550000 0.038575
-10.500000 0.007742
-10.450000 -0.074479
-10.400000 -0.139570
-10.350000 -0.173830
-10.300000 -0.232070
-10.250000 -0.293736
-10.200000 -0.290310
-10.150000 -0.228644
-10.100000 -0.160126
-10.050000 -0.095034
-10.000000 -0.019664
-9.950000 0.072835
-9.900000 0.189315
-9.850000 0.292091
-9.800000 0.353758
-9.750000 0.388016
-9.700000 0.415423
-9.650000 0.429127
-9.600000 0.408572
-9.550000 0.370887
-9.500000 0.326351
-9.450000 0.271536
-9.400000 0.230426
-9.350000 0.230425
-9.300000 0.244129
-9.250000 0.254406
-9.200000 0.274962
-9.150000 0.316073
-9.100000 0.346905
-9.050000 0.350331
-9.000000 0.336628
-8.950000 0.302369
-8.900000 0.247555
-8.850000 0.172185
-8.800000 0.093390
-8.750000 -0.002535
-8.700000 -0.132719
-8.650000 -0.266329
-8.600000 -0.389661
-8.550000 -0.489011
-8.500000 -0.554104
-8.450000 -0.571233
-8.400000 -0.564381
-8.350000 -0.550677
-8.300000 -0.489012
-8.250000 -0.403364
-8.200000 -0.334846
-8.150000 -0.266328
-8.100000 -0.149848
-8.050000 -0.040220
-8.000000 0.024872
-7.950000 0.083112
-7.900000 0.141353
-7.850000 0.179037
-7.800000 0.209870
-7.750000 0.247555
-7.700000 0.261259
-7.650000 0.281814
-7.600000 0.326350
-7.550000 0.346906
-7.500000 0.340054
-7.450000 0.350332
-7.400000 0.364035
-7.350000 0.336628
-7.300000 0.309221
-7.250000 0.285240
-7.200000 0.223574
-7.150000 0.137926
-7.100000 0.062557
-7.050000 -0.033368
-7.000000 -0.149848
-6.950000 -0.245773
-6.900000 -0.324568
-6.850000 -0.372531
-6.800000 -0.358828
-6.750000 -0.317717
-6.700000 -0.297162
-6.650000 -0.262903
-6.600000 -0.190959
-6.550000 -0.119015
-6.500000 -0.074479
-6.450000 -0.064201
-6.400000 -0.084756
-6.350000 -0.132719
-6.300000 -0.211514
-6.250000 -0.317717
-6.200000 -0.427345
-6.150000 -0.502715
-6.100000 -0.547252
-6.050000 -0.560955
-6.000000 -0.495863
-5.950000 -0.379383
-5.900000 -0.273181
-5.850000 -0.129294
-5.800000 0.100242
-5.750000 0.333202
-5.700000 0.514774
-5.650000 0.675791
-5.600000 0.809401
-5.550000 0.888196
-5.500000 0.936159
-5.450000 0.970417
-5.400000 0.939585
-5.350000 0.857363
-5.300000 0.785420
-5.250000 0.720327
-5.200000 0.638106
-5.150000 0.559310
-5.100000 0.501071
-5.050000 0.453108
-5.000000 0.415423
-4.950000 0.394868
-4.900000 0.384591
-4.850000 0.370887
-4.800000 0.346906
-4.750000 0.322924
-4.700000 0.322925
-4.650000 0.340054
-4.600000 0.360609
-4.550000 0.388016
-4.500000 0.439404
-4.450000 0.487368
-4.400000 0.518200
-4.350000 0.569589
-4.300000 0.634680
-4.250000 0.692921
-4.200000 0.740883
-4.150000 0.788846
-4.100000 0.826531
-4.050000 0.840234
-4.000000 0.853938
-3.950000 0.871067
-3.900000 0.905326
-3.850000 0.956714
-3.800000 0.980696
-3.750000 0.987547
-3.700000 1.014954
-3.650000 1.032084
-3.600000 0.997825
-3.550000 0.943011
-3.500000 0.915604
-3.450000 0.891622
-3.400000 0.840234
-3.350000 0.734031
-3.300000 0.593570
-3.250000 0.535330
-3.200000 0.576440
-3.150000 0.535329
-3.100000 0.418849
-3.050000 0.446256
-3.000000 0.552459
-2.950000 0.531904
-2.900000 0.483941
-2.850000 0.487367
-2.800000 0.411998
-2.750000 0.350332
-2.700000 0.483941
-2.650000 0.559310
-2.600000 0.391443
-2.550000 0.333202
-2.500000 0.463386
-2.450000 0.418849
-2.400000 0.271536
-2.350000 0.333203
-2.300000 0.381164
-2.250000 0.209870
-2.200000 0.158481
-2.150000 0.312647
-2.100000 0.295517
-2.050000 0.089964
-2.000000 0.000891
-1.950000 0.048853
-1.900000 0.131074
-1.850000 0.240703
-1.800000 0.254406
-1.750000 0.148204
-1.700000 0.165334
-1.650000 0.281814
-1.600000 0.220148
-1.550000 0.100241
-1.500000 0.199593
-1.450000 0.322925
-1.400000 0.240703
-1.350000 0.141352
-1.300000 0.083112
-1.250000 -0.064201
-1.200000 -0.088183
-1.150000 0.096815
-1.100000 0.089964
-1.050000 -0.163552
-1.000000 -0.149848
-0.950000 0.127648
-0.900000 0.223574
-0.850000 0.233851
-0.800000 0.446256
-0.750000 0.617551
-0.700000 0.593570
-0.650000 0.617551
-0.600000 0.696346
-0.550000 0.634680
-0.500000 0.521626
-0.450000 0.504497
-0.400000 0.497645
-0.350000 0.425701
-0.300000 0.374313
-0.250000 0.374313
-0.200000 0.374312
-0.150000 0.384590
-0.100000 0.425701
-0.050000 0.518200
0.000000 0.617551
0.050000 0.603847
0.100000 0.511348
0.150000 0.514774
0.200000 0.573014
0.250000 0.480515
0.300000 0.292092
0.350000 0.240703
0.400000 0.288666
0.450000 0.285240
0.500000 0.268110
0.550000 0.316073
0.600000 0.340054
0.650000 0.333202
0.700000 0.425701
0.750000 0.634680
0.800000 0.905326
0.850000 1.299303
0.900000 1.919389
0.950000 2.762158
1.000000 3.889276
1.050000 5.437779
1.100000 7.441928
1.150000 9.857178
1.200000 12.721223
1.250000 16.051187
1.300000 19.703180
1.350000 23.485371
1.400000 27.346341
1.450000 31.268985
1.500000 35.153953
1.550000 38.850482
1.600000 42.276379
1.650000 45.441893
1.700000 48.329922
1.750000 50.858222
1.800000 53.019962
1.850000 54.911052
1.900000 56.579472
1.950000 57.956672
2.000000 58.970742
2.050000 59.638782
2.100000 60.008782
2.150000 60.053322
2.200000 59.649062
2.250000 58.775462
2.300000 57.518162
2.350000 55.907992
2.400000 53.903842
2.450000 51.543412
2.500000 48.932872
2.550000 46.089392
2.600000 43.047202
2.650000 39.939912
2.700000 36.870322
2.750000 33.804152
2.800000 30.761962
2.850000 27.925322
2.900000 25.383312
2.950000 23.101662
3.000000 21.107800
3.050000 19.504479
3.100000 18.281439
3.150000 17.383856
3.200000 16.859693
3.250000 16.712386
3.300000 16.801456
3.350000 17.082377
3.400000 17.592832
3.450000 18.288291
3.500000 19.045410
3.550000 19.847071
3.600000 20.659006
3.650000 21.426411
3.700000 22.145845
3.750000 22.837874
3.800000 23.454539
3.850000 23.920455
3.900000 24.249340
3.950000 24.454894
4.000000 24.499427
4.050000 24.328136
4.100000 23.954710
4.150000 23.413420
4.200000 22.700835
4.250000 21.768998
4.300000 20.648732
4.350000 19.432537
4.400000 18.158109
4.450000 16.798029
4.500000 15.383139
4.550000 13.995652
4.600000 12.676684
4.650000 11.443363
4.700000 10.319672
4.750000 9.329590
4.800000 8.479969
4.850000 7.787939
4.900000 7.263778
4.950000 6.876652
5.000000 6.619711
5.050000 6.544341
5.100000 6.626566
5.150000 6.801283
5.200000 7.071927
5.250000 7.452201
5.300000 7.890715
5.350000 8.336081
5.400000 8.795153
5.450000 9.281630
5.500000 9.750978
5.550000 10.172362
5.600000 10.545781
5.650000 10.864391
5.700000 11.100776
5.750000 11.254941
5.800000 11.340585
5.850000 11.357715
5.900000 11.272067
5.950000 11.080219
6.000000 10.809570
6.050000 10.480690
6.100000 10.079862
6.150000 9.596811
6.200000 9.052096
6.250000 8.476542
6.300000 7.883864
6.350000 7.274056
6.400000 6.671099
6.450000 6.068142
6.500000 5.468611
6.550000 4.913618
6.600000 4.410011
6.650000 3.971498
6.700000 3.628908
6.750000 3.389097
6.800000 3.193821
6.850000 3.036229
6.900000 2.967712
6.950000 2.988267
7.000000 3.043081
7.050000 3.145858
7.100000 3.327430
7.150000 3.532983
7.200000 3.721407
7.250000 3.902979
7.300000 4.091404
7.350000 4.235291
7.400000 4.338067
7.450000 4.440844
7.500000 4.523065
7.550000 4.547047
7.600000 4.536769
7.650000 4.519640
7.700000 4.512788
7.750000 4.505936
7.800000 4.478529
7.850000 4.437418
7.900000 4.416863
7.950000 4.410012
8.000000 4.358623
8.050000 4.242143
8.100000 4.111959
8.150000 3.957794
8.200000 3.755667
8.250000 3.509002
8.300000 3.224654
8.350000 2.906046
8.400000 2.573734
8.450000 2.244849
8.500000 1.902260
8.550000 1.569948
8.600000 1.295878
8.650000 1.080046
8.700000 0.898474
8.750000 0.764865
8.800000 0.699772
8.850000 0.675791
8.900000 0.706624
8.950000 0.802549
9.000000 0.915604
9.050000 1.038935
9.100000 1.196526
9.150000 1.360969
9.200000 1.470597
9.250000 1.563097
9.300000 1.645318
9.350000 1.662447
9.400000 1.621337
9.450000 1.611059
9.500000 1.638466
9.550000 1.638466
9.600000 1.624763
9.650000 1.676151
9.700000 1.785779
9.750000 1.885130
9.800000 1.963926
9.850000 2.056424
9.900000 2.155776
9.950000 2.203738
10.000000 2.203738
10.050000 2.166053
10.100000 2.056425
10.150000 1.868001
10.200000 1.659022
10.250000 1.436339
10.300000 1.182823
10.350000 0.898474
10.400000 0.603847
10.450000 0.326351
10.500000 0.086538
10.550000 -0.112163
10.600000 -0.273181
10.650000 -0.389661
10.700000 -0.434197
10.750000 -0.406790
10.800000 -0.341698
10.850000 -0.232070
10.900000 -0.053924
10.950000 0.131075
11.000000 0.285239
11.050000 0.449683
11.100000 0.638107
11.150000 0.788845
11.200000 0.884770
11.250000 0.984121
11.300000 1.066343
11.350000 1.110879
11.400000 1.155416
11.450000 1.220507
11.500000 1.282174
11.550000 1.313007
11.600000 1.333562
11.650000 1.336988
11.700000 1.319859
11.750000 1.289025
11.800000 1.241063
11.850000 1.145138
11.900000 1.008102
11.950000 0.850511
12.000000 0.689494
12.050000 0.528477
12.100000 0.377739
12.150000 0.247554
12.200000 0.124223
12.250000 0.014594
12.300000 -0.088182
12.350000 -0.184107
12.400000 -0.280032
12.450000 -0.379383
12.500000 -0.465030
12.550000 -0.540400
12.600000 -0.626047
12.650000 -0.711694
12.700000 -0.749379
12.750000 -0.752805
12.800000 -0.773360
12.850000 -0.763083
12.900000 -0.643176
12.950000 -0.482160
13.000000 -0.355402
13.050000 -0.225218
13.100000 -0.033368
13.150000 0.134500
13.200000 0.237277
13.250000 0.326350
13.300000 0.429127
13.350000 0.507922
13.400000 0.555885
13.450000 0.593570
13.500000 0.610699
13.550000 0.583292
13.600000 0.549034
13.650000 0.528478
13.700000 0.494219
13.750000 0.439405
13.800000 0.381164
13.850000 0.316073
13.900000 0.223574
13.950000 0.086538
14.000000 -0.071053
14.050000 -0.214940
14.100000 -0.324569
14.150000 -0.430771
14.200000 -0.533548
14.250000 -0.605492
14.300000 -0.622621
14.350000 -0.612343
14.400000 -0.560955
14.450000 -0.434197
14.500000 -0.252625
14.550000 -0.077905
14.600000 0.069409
14.650000 0.206444
14.700000 0.329776
14.750000 0.394868
14.800000 0.418850
14.850000 0.401720
14.900000 0.333202
14.950000 0.216721
15.000000 0.093390
15.050000 0.004316
15.100000 -0.067627
15.150000 -0.129293
15.200000 -0.139571
15.250000 -0.091608
15.300000 -0.026516
15.350000 0.024872
15.400000 0.083112
15.450000 0.175611
15.500000 0.250981
15.550000 0.274962
15.600000 0.281814
15.650000 0.250981
15.700000 0.127649
15.750000 -0.064202
15.800000 -0.242347
15.850000 -0.396513
15.900000 -0.578084
15.950000 -0.773360
16.000000 -0.920673
16.050000 -1.033728
16.100000 -1.139931
16.150000 -1.198171
16.200000 -1.177615
16.250000 -1.112523
16.300000 -1.009747
16.350000 -0.876137
16.400000 -0.735676
16.450000 -0.560955
16.500000 -0.355401
16.550000 -0.180682
16.600000 -0.064201
16.650000 0.048854
16.700000 0.155056
16.750000 0.220148
16.800000 0.264684
16.850000 0.322924
16.900000 0.350331
16.950000 0.343480
17.000000 0.353757
17.050000 0.384591
17.100000 0.401720
17.150000 0.418849
17.200000 0.449683
17.250000 0.477089
17.300000 0.490793
17.350000 0.477089
17.400000 0.415423
17.450000 0.329776
17.500000 0.223573
17.550000 0.079686
17.600000 -0.101886
17.650000 -0.283459
17.700000 -0.468456
17.750000 -0.663731
17.800000 -0.835027
17.850000 -0.972063
17.900000 -1.095395
17.950000 -1.194745
18.000000 -1.242707
18.050000 -1.249560
18.100000 -1.239282
18.150000 -1.208449
18.200000 -1.160486
18.250000 -1.112523
18.300000 -1.047431
18.350000 -0.958359
18.400000 -0.855582
18.450000 -0.739102
18.500000 -0.608918
18.550000 -0.471882
18.600000 -0.338272
18.650000 -0.221792
18.700000 -0.115589
18.750000 -0.023090
18.800000 0.055705
18.850000 0.110519
18.900000 0.141352
18.950000 0.144778
19.000000 0.124223
19.050000 0.079687
19.100000 0.031723
19.150000 -0.016239
19.200000 -0.060776
19.250000 -0.101886
19.300000 -0.146423
19.350000 -0.177256
19.400000 -0.190959
19.450000 -0.211514
19.500000 -0.242347
19.550000 -0.290310
19.600000 -0.375958
19.650000 -0.492437
19.700000 -0.615769
19.750000 -0.752805
19.800000 -0.924100
19.850000 -1.098820
19.900000 -1.235856
19.950000 -1.366040
20.000000 -1.492797
20.050000 -1.544186
20.100000 -1.503075
20.150000 -1.427705
20.200000 -1.321503
20.250000 -1.146783
20.300000 -0.937803
20.350000 -0.725398
20.400000 -0.492438
20.450000 -0.276607
20.500000 -0.108738
20.550000 0.031724
20.600000 0.144778
20.650000 0.189315
20.700000 0.165334
20.750000 0.113945
20.800000 0.045427
20.850000 -0.057349
20.900000 -0.166978
20.950000 -0.256051
21.000000 -0.331421
21.050000 -0.382809
21.100000 -0.386235
21.150000 -0.386235
21.200000 -0.406791
21.250000 -0.430771
21.300000 -0.441049
21.350000 -0.482160
21.400000 -0.567807
21.450000 -0.670583
21.500000 -0.790490
21.550000 -0.944655
21.600000 -1.112523
21.650000 -1.239282
21.700000 -1.318077
21.750000 -1.379743
21.800000 -1.400298
21.850000 -1.342058
21.900000 -1.235856
21.950000 -1.126227
22.000000 -1.002895
22.050000 -0.859007
22.100000 -0.732250
22.150000 -0.626047
22.200000 -0.540399
22.250000 -0.482160
22.300000 -0.451327
22.350000 -0.406790
22.400000 -0.348550
22.450000 -0.276606
22.500000 -0.180682
22.550000 -0.071053
22.600000 0.018020
22.650000 0.117371
22.700000 0.254407
22.750000 0.353758
22.800000 0.360609
22.850000 0.312647
22.900000 0.254407
22.950000 0.127648
23.000000 -0.067627
23.050000 -0.286884
23.100000 -0.499289
23.150000 -0.711695
23.200000 -0.906970
23.250000 -1.078265
23.300000 -1.205023
23.350000 -1.276966
23.400000 -1.294096
23.450000 -1.287244
23.500000 -1.239282
23.550000 -1.170764
23.600000 -1.115950
23.650000 -1.067987
23.700000 -1.002895
23.750000 -0.930952
23.800000 -0.872711
23.850000 -0.800768
23.900000 -0.718547
23.950000 -0.646603
24.000000 -0.571233
24.050000 -0.482159
24.100000 -0.389660
24.150000 -0.300588
24.200000 -0.187533
24.250000 -0.071053
24.300000 0.007743
24.350000 0.062556
24.400000 0.124223
24.450000 0.182463
24.500000 0.227000
24.550000 0.237277
24.600000 0.199593
24.650000 0.124223
24.700000 0.055705
24.750000 -0.036794
24.800000 -0.180682
24.850000 -0.341699
24.900000 -0.482160
24.950000 -0.650028
25.000000 -0.828175
25.050000 -0.975488
25.100000 -1.105672
25.150000 -1.249559
25.200000 -1.372892
25.250000 -1.461964
25.300000 -1.547611
25.350000 -1.629833
25.400000 -1.674369
25.450000 -1.698351
25.500000 -1.694925
25.550000 -1.629833
25.600000 -1.520205
25.650000 -1.386595
25.700000 -1.208449
25.750000 -0.975488
25.800000 -0.735676
25.850000 -0.502715
25.900000 -0.256051
25.950000 -0.047072
26.000000 0.093390
26.050000 0.182463
26.100000 0.240703
26.150000 0.230425
26.200000 0.155056
26.250000 0.065982
26.300000 -0.040220
26.350000 -0.166978
26.400000 -0.283458
26.450000 -0.382809
26.500000 -0.451327
26.550000 -0.489011
26.600000 -0.523270
26.650000 -0.543825
26.700000 -0.526696
26.750000 -0.519845
26.800000 -0.554104
26.850000 -0.584937
26.900000 -0.605492
26.950000 -0.660306
27.000000 -0.773361
27.050000 -0.876137
27.100000 -0.958359
27.150000 -1.054283
27.200000 -1.136505
27.250000 -1.163912
27.300000 -1.143356
27.350000 -1.102245
27.400000 -1.054284
27.450000 -0.982340
27.500000 -0.872711
27.550000 -0.742527
27.600000 -0.626047
27.650000 -0.533548
27.700000 -0.444475
27.750000 -0.386235
27.800000 -0.372531
27.850000 -0.420494
27.900000 -0.516419
27.950000 -0.646602
28.000000 -0.780212
28.050000 -0.913822
28.100000 -1.033728
28.150000 -1.139930
28.200000 -1.225577
28.250000 -1.270115
28.300000 -1.266689
28.350000 -1.252985
28.400000 -1.242708
28.450000 -1.201597
28.500000 -1.129653
28.550000 -1.050858
28.600000 -0.951507
28.650000 -0.879563
28.700000 -0.889841
28.750000 -0.937803
28.800000 -0.992617
28.850000 -1.088542
28.900000 -1.222152
28.950000 -1.342058
29.000000 -1.458538
29.050000 -1.568167
29.100000 -1.599000
29.150000 -1.578445
29.200000 -1.568166
29.250000 -1.533908
29.300000 -1.441409
29.350000 -1.338633
29.400000 -1.239281
29.450000 -1.126227
29.500000 -1.020025
29.550000 -0.937803
29.600000 -0.859007
29.650000 -0.790490
29.700000 -0.739102
29.750000 -0.687713
29.800000 -0.629473
29.850000 -0.574659
29.900000 -0.543826
29.950000 -0.533548
30.000000 -0.540400
30.050000 -0.519844
30.100000 -0.506141
30.150000 -0.547251
30.200000 -0.615769
30.250000 -0.650029
30.300000 -0.687713
30.350000 -0.769934
30.400000 -0.841878
30.450000 -0.855581
30.500000 -0.869285
30.550000 -0.889841
30.600000 -0.882989
30.650000 -0.855582
30.700000 -0.848730
30.750000 -0.835026
30.800000 -0.797342
30.850000 -0.763083
30.900000 -0.749379
30.950000 -0.735676
31.000000 -0.732250
31.050000 -0.735676
31.100000 -0.735675
31.150000 -0.721972
31.200000 -0.718546
31.250000 -0.711694
31.300000 -0.701417
31.350000 -0.704842
31.400000 -0.711694
31.450000 -0.732250
31.500000 -0.787064
31.550000 -0.848730
31.600000 -0.872712
31.650000 -0.906970
31.700000 -0.989191
31.750000 -1.057709
31.800000 -1.085116
31.850000 -1.095394
31.900000 -1.088542
31.950000 -1.050858
32.000000 -0.999469
32.050000 -0.910396
32.100000 -0.776787
32.150000 -0.653454
32.200000 -0.584937
32.250000 -0.523270
32.300000 -0.471882
32.350000 -0.465031
32.400000 -0.516418
32.450000 -0.595214
32.500000 -0.663732
32.550000 -0.749380
32.600000 -0.876137
32.650000 -1.009747
32.700000 -1.095394
32.750000 -1.163911
32.800000 -1.222152
32.850000 -1.225578
32.900000 -1.174189
32.950000 -1.102246
33.000000 -1.009746
33.050000 -0.882989
33.100000 -0.773360
33.150000 -0.697991
33.200000 -0.643176
33.250000 -0.591789
33.300000 -0.564381
33.350000 -0.564381
33.400000 -0.564381
33.450000 -0.554103
33.500000 -0.540400
33.550000 -0.564381
33.600000 -0.588362
33.650000 -0.584937
33.700000 -0.574658
33.750000 -0.564381
33.800000 -0.547251
33.850000 -0.543826
33.900000 -0.571233
33.950000 -0.598640
34.000000 -0.636325
34.050000 -0.708269
34.100000 -0.787064
34.150000 -0.855582
34.200000 -0.941229
34.250000 -1.037154
34.300000 -1.115950
34.350000 -1.167338
34.400000 -1.211874
34.450000 -1.232429
34.500000 -1.229003
34.550000 -1.229003
34.600000 -1.208448
34.650000 -1.139930
34.700000 -1.040580
34.750000 -0.968636
34.800000 -0.941229
34.850000 -0.917248
34.900000 -0.869285
34.950000 -0.848730
35.000000 -0.852156
35.050000 -0.838453
35.100000 -0.811045
35.150000 -0.828174
35.200000 -0.872711
35.250000 -0.882989
35.300000 -0.889841
35.350000 -0.917248
35.400000 -0.948081
35.450000 -0.941229
35.500000 -0.913822
35.550000 -0.886415
35.600000 -0.879563
35.650000 -0.872712
35.700000 -0.852156
35.750000 -0.841878
35.800000 -0.824748
35.850000 -0.787063
35.900000 -0.752805
35.950000 -0.745953
36.000000 -0.756231
36.050000 -0.759657
36.100000 -0.763083
36.150000 -0.763083
36.200000 -0.787064
36.250000 -0.845304
36.300000 -0.917248
36.350000 -0.978914
36.400000 -1.054283
36.450000 -1.153635
36.500000 -1.229003
36.550000 -1.280392
36.600000 -1.352336
36.650000 -1.410576
36.700000 -1.410576
36.750000 -1.383169
36.800000 -1.345484
36.850000 -1.276966
36.900000 -1.191319
36.950000 -1.109097
37.000000 -1.016598
37.050000 -0.917248
37.100000 -0.831601
37.150000 -0.763083
37.200000 -0.739102
37.250000 -0.766508
37.300000 -0.790489
37.350000 -0.800767
37.400000 -0.848730
37.450000 -0.903544
37.500000 -0.920673
37.550000 -0.937803
37.600000 -0.982340
37.650000 -1.006321
37.700000 -1.020024
37.750000 -1.081691
37.800000 -1.157060
37.850000 -1.187893
37.900000 -1.198171
37.950000 -1.218726
38.000000 -1.211874
38.050000 -1.177615
38.100000 -1.139930
38.150000 -1.067987
38.200000 -0.944655
38.250000 -0.821323
38.300000 -0.745953
38.350000 -0.708268
38.400000 -0.680861
38.450000 -0.660306
38.500000 -0.650028
38.550000 -0.674010
38.600000 -0.721972
38.650000 -0.759657
38.700000 -0.780212
38.750000 -0.800768
38.800000 -0.811045
38.850000 -0.804193
38.900000 -0.793916
38.950000 -0.780212
39.000000 -0.780212
39.050000 -0.807619
39.100000 -0.869285
39.150000 -0.958359
39.200000 -1.047432
39.250000 -1.139931
39.300000 -1.246133
39.350000 -1.362614
39.400000 -1.465390
39.450000 -1.537334
39.500000 -1.578444
39.550000 -1.578444
39.600000 -1.547612
39.650000 -1.513352
39.700000 -1.475668
39.750000 -1.400298
39.800000 -1.297522
39.850000 -1.201597
39.900000 -1.102246
39.950000 -0.996044
40.000000 -0.903544
40.050000 -0.824749
40.100000 -0.763083
40.150000 -0.745953
40.200000 -0.783638
40.250000 -0.821323
40.300000 -0.889841
40.350000 -0.992617
40.400000 -1.085116
40.450000 -1.146783
40.500000 -1.201597
40.550000 -1.218726
40.600000 -1.181042
40.650000 -1.129653
40.700000 -1.081690
40.750000 -0.999469
40.800000 -0.893266
40.850000 -0.800767
40.900000 -0.701417
40.950000 -0.626047
41.000000 -0.639751
41.050000 -0.711694
41.100000 -0.790490
41.150000 -0.903545
41.200000 -1.047431
41.250000 -1.177616
41.300000 -1.304373
41.350000 -1.437983
41.400000 -1.554464
41.450000 -1.640110
41.500000 -1.681221
41.550000 -1.677796
41.600000 -1.653814
41.650000 -1.629833
41.700000 -1.554464
41.750000 -1.441409
41.800000 -1.338632
41.850000 -1.229004
41.900000 -1.112523
41.950000 -1.023450
42.000000 -0.978914
42.050000 -0.937803
42.100000 -0.930951
42.150000 -1.002895
42.200000 -1.098820
42.250000 -1.181041
42.300000 -1.263262
42.350000 -1.355762
42.400000 -1.431132
42.450000 -1.492798
42.500000 -1.533908
42.550000 -1.523630
42.600000 -1.472242
42.650000 -1.420854
42.700000 -1.345484
42.750000 -1.239281
42.800000 -1.133079
42.850000 -1.044005
42.900000 -0.968636
42.950000 -0.920674
43.000000 -0.910396
43.050000 -0.910396
43.100000 -0.924099
43.150000 -0.954933
43.200000 -1.020025
43.250000 -1.105672
43.300000 -1.191319
43.350000 -1.246133
43.400000 -1.294096
43.450000 -1.372891
43.500000 -1.444835
43.550000 -1.492797
43.600000 -1.520204
43.650000 -1.509927
43.700000 -1.437983
43.750000 -1.359188
43.800000 -1.307799
43.850000 -1.229003
43.900000 -1.119376
43.950000 -1.026876
44.000000 -0.948081
44.050000 -0.852156
44.100000 -0.769934
44.150000 -0.739102
44.200000 -0.728824
44.250000 -0.718546
44.300000 -0.711694
44.350000 -0.745953
44.400000 -0.807619
44.450000 -0.893266
44.500000 -0.996043
44.550000 -1.112523
44.600000 -1.222152
44.650000 -1.321503
44.700000 -1.427705
44.750000 -1.530482
44.800000 -1.612704
44.850000 -1.664091
44.900000 -1.705202
44.950000 -1.722332
45.000000 -1.694925
45.050000 -1.640110
45.100000 -1.578445
45.150000 -1.506501
45.200000 -1.410576
45.250000 -1.311225
45.300000 -1.229003
45.350000 -1.177616
45.400000 -1.126228
45.450000 -1.085116
45.500000 -1.074839
45.550000 -1.112523
45.600000 -1.139931
45.650000 -1.146782
45.700000 -1.167338
45.750000 -1.218727
45.800000 -1.256411
45.850000 -1.259837
45.900000 -1.252985
45.950000 -1.276967
46.000000 -1.318077
46.050000 -1.348910
46.100000 -1.372891
46.150000 -1.386595
46.200000 -1.393447
46.250000 -1.410576
46.300000 -1.410576
46.350000 -1.369465
46.400000 -1.328355
46.450000 -1.304373
46.500000 -1.263262
46.550000 -1.194745
46.600000 -1.136505
46.650000 -1.074839
46.700000 -1.002895
46.750000 -0.941229
46.800000 -0.896692
46.850000 -0.848730
46.900000 -0.804193
46.950000 -0.804193
47.000000 -0.821323
47.050000 -0.817897
47.100000 -0.831601
47.150000 -0.865860
47.200000 -0.879563
47.250000 -0.886414
47.300000 -0.896692
47.350000 -0.900119
47.400000 -0.910396
47.450000 -0.934377
47.500000 -0.930951
47.550000 -0.910396
47.600000 -0.934377
47.650000 -0.954933
47.700000 -0.951507
47.750000 -0.982339
47.800000 -1.050858
47.850000 -1.088543
47.900000 -1.105672
47.950000 -1.157060
48.000000 -1.198171
48.050000 -1.211874
48.100000 -1.232430
48.150000 -1.259837
48.200000 -1.270114
48.250000 -1.276966
48.300000 -1.280392
48.350000 -1.276966
48.400000 -1.273540
48.450000 -1.256411
48.500000 -1.201597
48.550000 -1.126227
48.600000 -1.071413
48.650000 -0.999469
48.700000 -0.879563
48.750000 -0.745953
48.800000 -0.636324
48.850000 -0.554103
48.900000 -0.478734
48.950000 -0.430771
49.000000 -0.461605
49.050000 -0.540400
49.100000 -0.632899
49.150000 -0.735675
49.200000 -0.862434
49.250000 -0.948081
49.300000 -0.978914
49.350000 -1.006321
49.400000 -1.040580
49.450000 -1.020024
49.500000 -0.958358
49.550000 -0.913822
49.600000 -0.879563
49.650000 -0.841879
49.700000 -0.848730
49.750000 -0.882989
49.800000 -0.927526
49.850000 -1.002895
49.900000 -1.088543
49.950000 -1.157060
50.000000 -1.218726
50.050000 -1.263263
50.100000 -1.235856
50.150000 -1.163912
50.200000 -1.102246
50.250000 -1.037154
50.300000 -0.941229
50.350000 -0.882989
50.400000 -0.896692
50.450000 -0.972062
50.500000 -1.057709
50.550000 -1.150208
50.600000 -1.256411
50.650000 -1.400298
50.700000 -1.527057
50.750000 -1.571593
50.800000 -1.564742
50.850000 -1.557889
50.900000 -1.520205
50.950000 -1.417428
51.000000 -1.314651
51.050000 -1.266689
51.100000 -1.259837
51.150000 -1.263263
51.200000 -1.290669
51.250000 -1.331780
51.300000 -1.372891
51.350000 -1.441409
51.400000 -1.544186
51.450000 -1.636685
51.500000 -1.657240
51.550000 -1.626407
51.600000 -1.585297
51.650000 -1.537334
51.700000 -1.448260
51.750000 -1.355762
51.800000 -1.304373
51.850000 -1.259836
51.900000 -1.205023
51.950000 -1.174189
52.000000 -1.177616
52.050000 -1.167338
52.100000 -1.126227
52.150000 -1.095394
52.200000 -1.057709
52.250000 -0.985766
52.300000 -0.879563
52.350000 -0.766508
52.400000 -0.663732
52.450000 -0.567807
52.500000 -0.465030
52.550000 -0.389661
52.600000 -0.369106
52.650000 -0.403364
52.700000 -0.458179
52.750000 -0.536974
52.800000 -0.650028
52.850000 -0.783638
52.900000 -0.906970
52.950000 -1.009747
53.000000 -1.095394
53.050000 -1.133078
53.100000 -1.136504
53.150000 -1.129653
53.200000 -1.085116
53.250000 -0.975488
53.300000 -0.855582
53.350000 -0.766509
53.400000 -0.677436
53.450000 -0.588362
53.500000 -0.523270
53.550000 -0.492438
53.600000 -0.492437
53.650000 -0.509567
53.700000 -0.540400
53.750000 -0.605492
53.800000 -0.728824
53.850000 -0.862433
53.900000 -0.954933
53.950000 -1.054283
54.000000 -1.191319
54.050000 -1.297522
54.100000 -1.352336
54.150000 -1.410576
54.200000 -1.482519
54.250000 -1.496224
54.300000 -1.468816
54.350000 -1.451686
54.400000 -1.407150
54.450000 -1.324929
54.500000 -1.256411
54.550000 -1.205023
54.600000 -1.129653
54.650000 -1.040580
54.700000 -0.972062
54.750000 -0.917247
54.800000 -0.845304
54.850000 -0.769935
54.900000 -0.684287
54.950000 -0.591788
55.000000 -0.536974
55.050000 -0.530122
55.100000 -0.533548
55.150000 -0.567807
55.200000 -0.674009
55.250000 -0.841878
55.300000 -1.030302
55.350000 -1.222152
55.400000 -1.403724
55.450000 -1.547611
55.500000 -1.660666
55.550000 -1.756591
55.600000 -1.794276
55.650000 -1.746313
55.700000 -1.640111
55.750000 -1.509927
55.800000 -1.386595
55.850000 -1.263262
55.900000 -1.126227
55.950000 -1.026876
56.000000 -0.999469
56.050000 -1.016598
56.100000 -1.067987
56.150000 -1.163912
56.200000 -1.273540
56.250000 -1.366040
56.300000 -1.461965
56.350000 -1.533908
56.400000 -1.554463
56.450000 -1.547612
56.500000 -1.530482
56.550000 -1.472242
56.600000 -1.386594
56.650000 -1.283818
56.700000 -1.163912
56.750000 -1.061135
56.800000 -1.009747
56.850000 -0.965211
56.900000 -0.927525
56.950000 -0.937803
57.000000 -1.016598
57.050000 -1.112524
57.100000 -1.187893
57.150000 -1.252985
57.200000 -1.314651
57.250000 -1.376317
57.300000 -1.420854
57.350000 -1.441409
57.400000 -1.455113
57.450000 -1.448261
57.500000 -1.431131
57.550000 -1.424280
57.600000 -1.427706
57.650000 -1.427705
57.700000 -1.444835
57.750000 -1.499649
57.800000 -1.581870
57.850000 -1.660666
57.900000 -1.729184
57.950000 -1.780572
58.000000 -1.828534
58.050000 -1.859368
58.100000 -1.869645
58.150000 -1.876497
58.200000 -1.876497
58.250000 -1.842239
58.300000 -1.770294
58.350000 -1.694925
58.400000 -1.605851
58.450000 -1.468816
58.500000 -1.328355
58.550000 -1.225578
58.600000 -1.150208
58.650000 -1.057710
58.700000 -0.996043
58.750000 -1.006321
58.800000 -1.050857
58.850000 -1.085116
58.900000 -1.139931
58.950000 -1.225578
59.000000 -1.304373
59.050000 -1.345484
59.100000 -1.393447
59.150000 -1.437983
59.200000 -1.448261
59.250000 -1.444835
59.300000 -1.451687
59.350000 -1.475668
59.400000 -1.523630
59.450000 -1.602426
59.500000 -1.684647
59.550000 -1.766869
59.600000 -1.869646
59.650000 -1.948441
59.700000 -1.965570
59.750000 -1.941589
59.800000 -1.910756
59.850000 -1.849090
59.900000 -1.746313
59.950000 -1.619555
60.000000 -1.485945
60.050000 -1.359188
60.100000 -1.249559
60.150000 -1.191319
60.200000 -1.157060
60.250000 -1.112524
60.300000 -1.074839
60.350000 -1.085116
60.400000 -1.102245
60.450000 -1.085116
60.500000 -1.067987
60.550000 -1.088542
60.600000 -1.109098
60.650000 -1.146782
60.700000 -1.229004
60.750000 -1.311226
60.800000 -1.390021
60.850000 -1.492797
60.900000 -1.581870
60.950000 -1.636685
61.000000 -1.715480
61.050000 -1.790849
61.100000 -1.804554
61.150000 -1.797702
61.200000 -1.828534
61.250000 -1.835386
61.300000 -1.790850
61.350000 -1.773720
61.400000 -1.790850
61.450000 -1.749740
61.500000 -1.698350
61.550000 -1.691499
61.600000 -1.677795
61.650000 -1.619555
61.700000 -1.564741
61.750000 -1.503075
61.800000 -1.403724
61.850000 -1.318077
61.900000 -1.273540
61.950000 -1.246133
62.000000 -1.215300
62.050000 -1.201597
62.100000 -1.184467
62.150000 -1.153634
62.200000 -1.146782
62.250000 -1.143356
62.300000 -1.102246
62.350000 -1.071413
62.400000 -1.081690
62.450000 -1.102246
62.500000 -1.109098
62.550000 -1.143356
62.600000 -1.211875
62.650000 -1.297522
62.700000 -1.420853
62.750000 -1.547611
62.800000 -1.640111
62.850000 -1.729184
62.900000 -1.825109
62.950000 -1.886775
63.000000 -1.886775
63.050000 -1.859368
63.100000 -1.804554
63.150000 -1.736036
63.200000 -1.698351
63.250000 -1.664092
63.300000 -1.612704
63.350000 -1.588723
63.400000 -1.619555
63.450000 -1.643537
63.500000 -1.657240
63.550000 -1.684647
63.600000 -1.722332
63.650000 -1.718906
63.700000 -1.701777
63.750000 -1.670943
63.800000 -1.619555
63.850000 -1.554463
63.900000 -1.485946
63.950000 -1.400298
64.000000 -1.328355
64.050000 -1.276966
64.100000 -1.235856
64.150000 -1.215301
64.200000 -1.222152
64.250000 -1.229004
64.300000 -1.222152
64.350000 -1.225577
64.400000 -1.249559
64.450000 -1.246133
64.500000 -1.222152
64.550000 -1.208448
64.600000 -1.191319
64.650000 -1.146782
64.700000 -1.119375
64.750000 -1.119376
64.800000 -1.115950
64.850000 -1.115949
64.900000 -1.143357
64.950000 -1.181041
65.000000 -1.205022
65.050000 -1.208449
65.100000 -1.222152
65.150000 -1.239281
65.200000 -1.235855
65.250000 -1.201597
65.300000 -1.160486
65.350000 -1.133079
65.400000 -1.122801
65.450000 -1.133079
65.500000 -1.153634
65.550000 -1.177615
65.600000 -1.205023
65.650000 -1.252985
65.700000 -1.314651
65.750000 -1.376317
65.800000 -1.403724
65.850000 -1.414002
65.900000 -1.431131
65.950000 -1.458538
66.000000 -1.458538
66.050000 -1.427706
66.100000 -1.410576
66.150000 -1.417428
66.200000 -1.417428
66.250000 -1.424280
66.300000 -1.475668
66.350000 -1.547611
66.400000 -1.588723
66.450000 -1.605851
66.500000 -1.612704
66.550000 -1.598999
66.600000 -1.551037
66.650000 -1.472242
66.700000 -1.393447
66.750000 -1.331781
66.800000 -1.276966
66.850000 -1.211874
66.900000 -1.133079
66.950000 -1.095394
67.000000 -1.098820
67.050000 -1.102246
67.100000 -1.081691
67.150000 -1.078265
67.200000 -1.088542
67.250000 -1.061135
67.300000 -0.999470
67.350000 -0.948081
67.400000 -0.913822
67.450000 -0.845304
67.500000 -0.759657
67.550000 -0.715120
67.600000 -0.701416
67.650000 -0.646603
67.700000 -0.591788
67.750000 -0.608918
67.800000 -0.639751
67.850000 -0.632899
67.900000 -0.643176
67.950000 -0.701416
68.000000 -0.742528
68.050000 -0.790490
68.100000 -0.896693
68.150000 -1.020024
68.200000 -1.133079
68.250000 -1.266688
68.300000 -1.407150
68.350000 -1.509927
68.400000 -1.616130
68.450000 -1.736035
68.500000 -1.821682
68.550000 -1.873071
68.600000 -1.927885
68.650000 -1.938163
68.700000 -1.893626
68.750000 -1.852515
68.800000 -1.825109
68.850000 -1.770295
68.900000 -1.708628
68.950000 -1.653814
69.000000 -1.578445
69.050000 -1.506501
69.100000 -1.444835
69.150000 -1.366039
69.200000 -1.252985
69.250000 -1.160486
69.300000 -1.074838
69.350000 -0.961785
69.400000 -0.841879
69.450000 -0.752805
69.500000 -0.691139
69.550000 -0.656880
69.600000 -0.646603
69.650000 -0.656880
69.700000 -0.694565
69.750000 -0.769934
69.800000 -0.879563
69.850000 -1.002895
69.900000 -1.119375
69.950000 -1.225578
70.000000 -1.321503
70.050000 -1.386595
70.100000 -1.386595
70.150000 -1.369466
70.200000 -1.366040
70.250000 -1.366040
70.300000 -1.318077
70.350000 -1.249559
70.400000 -1.184467
70.450000 -1.115949
70.500000 -1.033728
70.550000 -0.954933
70.600000 -0.889841
70.650000 -0.824749
70.700000 -0.769934
70.750000 -0.718547
70.800000 -0.663732
70.850000 -0.629473
70.900000 -0.626048
70.950000 -0.643176
71.000000 -0.687713
71.050000 -0.766509
71.100000 -0.848730
71.150000 -0.924099
71.200000 -1.002895
71.250000 -1.081691
71.300000 -1.122802
71.350000 -1.143357
71.400000 -1.150208
71.450000 -1.119375
71.500000 -1.054284
71.550000 -0.999469
71.600000 -0.965210
71.650000 -0.906970
71.700000 -0.845304
71.750000 -0.828175
71.800000 -0.859007
71.850000 -0.924100
71.900000 -1.016598
71.950000 -1.133079
72.000000 -1.259837
72.050000 -1.386595
72.100000 -1.492798
72.150000 -1.557889
72.200000 -1.588722
72.250000 -1.581870
72.300000 -1.533908
72.350000 -1.468816
72.400000 -1.386594
72.450000 -1.246133
72.500000 -1.091968
72.550000 -0.975488
72.600000 -0.882989
72.650000 -0.787064
72.700000 -0.732250
72.750000 -0.749380
72.800000 -0.793916
72.850000 -0.828175
72.900000 -0.876138
72.950000 -0.961785
73.000000 -1.050857
73.050000 -1.098820
73.100000 -1.115949
73.150000 -1.133079
73.200000 -1.157060
73.250000 -1.150208
73.300000 -1.105672
73.350000 -1.067987
73.400000 -1.054283
73.450000 -1.023450
73.500000 -0.992618
73.550000 -1.013173
73.600000 -1.044006
73.650000 -1.050858
73.700000 -1.081690
73.750000 -1.136504
73.800000 -1.153634
73.850000 -1.136505
73.900000 -1.126227
73.950000 -1.115950
74.000000 -1.095394
74.050000 -1.071412
74.100000 -1.030303
74.150000 -0.989191
74.200000 -0.985766
74.250000 -0.989191
74.300000 -0.982340
74.350000 -1.020024
74.400000 -1.109098
74.450000 -1.191319
74.500000 -1.256411
74.550000 -1.338633
74.600000 -1.407150
74.650000 -1.434557
74.700000 -1.455113
74.750000 -1.472242
74.800000 -1.451687
74.850000 -1.393447
74.900000 -1.318076
74.950000 -1.239281
75.000000 -1.198170
75.050000 -1.198171
75.100000 -1.208449
75.150000 -1.225578
75.200000 -1.290670
75.250000 -1.376317
75.300000 -1.448261
75.350000 -1.520205
75.400000 -1.588722
75.450000 -1.605852
75.500000 -1.588722
75.550000 -1.551037
75.600000 -1.465390
75.650000 -1.324929
75.700000 -1.170764
75.750000 -1.023450
75.800000 -0.862434
75.850000 -0.711694
75.900000 -0.605492
75.950000 -0.536974
76.000000 -0.465030
76.050000 -0.427345
76.100000 -0.451327
76.150000 -0.516419
76.200000 -0.574659
76.250000 -0.632899
76.300000 -0.694565
76.350000 -0.745953
76.400000 -0.790490
76.450000 -0.817896
76.500000 -0.817897
76.550000 -0.800767
76.600000 -0.793915
76.650000 -0.773361
76.700000 -0.728824
76.750000 -0.704842
76.800000 -0.749379
76.850000 -0.824749
76.900000 -0.879563
76.950000 -0.917248
77.000000 -0.975488
77.050000 -1.047431
77.100000 -1.102246
77.150000 -1.119375
77.200000 -1.146783
77.250000 -1.184468
77.300000 -1.184467
77.350000 -1.157060
77.400000 -1.139930
77.450000 -1.143357
77.500000 -1.139931
77.550000 -1.139930
77.600000 -1.174190
77.650000 -1.198171
77.700000 -1.194745
77.750000 -1.208449
77.800000 -1.222152
77.850000 -1.211874
77.900000 -1.191319
77.950000 -1.184467
78.000000 -1.174190
78.050000 -1.174189
78.100000 -1.211874
78.150000 -1.266688
78.200000 -1.342058
78.250000 -1.451687
78.300000 -1.581870
78.350000 -1.722332
78.400000 -1.879923
78.450000 -2.027236
78.500000 -2.112884
78.550000 -2.150568
78.600000 -2.174550
78.650000 -2.150568
78.700000 -2.061495
78.750000 -1.945015
78.800000 -1.814831
78.850000 -1.674369
78.900000 -1.520204
78.950000 -1.366039
79.000000 -1.225578
79.050000 -1.098820
79.100000 -0.978913
79.150000 -0.876138
79.200000 -0.804194
79.250000 -0.735675
79.300000 -0.615769
79.350000 -0.506141
79.400000 -0.444475
79.450000 -0.393086
79.500000 -0.317717
79.550000 -0.269754
79.600000 -0.245773
79.650000 -0.235496
79.700000 -0.269755
79.750000 -0.345124
79.800000 -0.444475
79.850000 -0.560955
79.900000 -0.680862
79.950000 -0.776786
80.000000 -0.865860
80.050000 -0.975488
80.100000 -1.057709
80.150000 -1.122802
80.200000 -1.211875
80.250000 -1.294096
80.300000 -1.342059
80.350000 -1.393447
80.400000 -1.458538
80.450000 -1.503075
80.500000 -1.527056
80.550000 -1.564741
80.600000 -1.595574
80.650000 -1.578445
80.700000 -1.530482
80.750000 -1.458538
80.800000 -1.379743
80.850000 -1.304373
80.900000 -1.208449
80.950000 -1.102246
81.000000 -0.999469
81.050000 -0.900118
81.100000 -0.790490
81.150000 -0.718546
81.200000 -0.687713
81.250000 -0.660306
81.300000 -0.636324
81.350000 -0.636325
81.400000 -0.639750
81.450000 -0.646603
81.500000 -0.684287
81.550000 -0.728823
81.600000 -0.756231
81.650000 -0.811045
81.700000 -0.889841
81.750000 -0.944655
81.800000 -0.975488
81.850000 -0.999469
81.900000 -0.968636
81.950000 -0.889840
82.000000 -0.821323
82.050000 -0.763082
82.100000 -0.674009
82.150000 -0.574659
82.200000 -0.506141
82.250000 -0.458178
82.300000 -0.413642
82.350000 -0.396513
82.400000 -0.410216
82.450000 -0.427345
82.500000 -0.427345
82.550000 -0.430772
82.600000 -0.444475
82.650000 -0.447901
82.700000 -0.454752
82.750000 -0.482160
82.800000 -0.526697
82.850000 -0.578085
82.900000 -0.626047
82.950000 -0.680862
83.000000 -0.749380
83.050000 -0.811045
83.100000 -0.841878
83.150000 -0.865859
83.200000 -0.886415
83.250000 -0.841879
83.300000 -0.728824
83.350000 -0.615769
83.400000 -0.512993
83.450000 -0.379383
83.500000 -0.228644
83.550000 -0.139571
83.600000 -0.105312
83.650000 -0.091608
83.700000 -0.122441
83.750000 -0.211515
83.800000 -0.324569
83.850000 -0.468457
83.900000 -0.650028
83.950000 -0.848730
84.000000 -1.037154
84.050000 -1.211874
84.100000 -1.352336
84.150000 -1.444835
84.200000 -1.489372
84.250000 -1.479094
84.300000 -1.424280
84.350000 -1.342058
84.400000 -1.252985
84.450000 -1.153634
84.500000 -1.020024
84.550000 -0.893267
84.600000 -0.797342
84.650000 -0.725398
84.700000 -0.677436
84.750000 -0.691139
84.800000 -0.756231
84.850000 -0.797342
84.900000 -0.807619
84.950000 -0.852155
85.000000 -0.917248
85.050000 -0.941229
85.100000 -0.937804
85.150000 -0.951506
85.200000 -0.985765
85.250000 -1.006321
85.300000 -1.016599
85.350000 -1.040579
85.400000 -1.078264
85.450000 -1.122801
85.500000 -1.184467
85.550000 -1.270115
85.600000 -1.359187
85.650000 -1.420853
85.700000 -1.482519
85.750000 -1.533908
85.800000 -1.561315
85.850000 -1.571593
85.900000 -1.561316
85.950000 -1.516779
86.000000 -1.448261
86.050000 -1.359188
86.100000 -1.252985
86.150000 -1.153634
86.200000 -1.078264
86.250000 -1.013173
86.300000 -0.958358
86.350000 -0.944655
86.400000 -0.975487
86.450000 -1.023451
86.500000 -1.095394
86.550000 -1.187893
86.600000 -1.304374
86.650000 -1.396873
86.700000 -1.444835
86.750000 -1.458538
86.800000 -1.434558
86.850000 -1.362613
86.900000 -1.246133
86.950000 -1.133079
87.000000 -1.033728
87.050000 -0.906970
87.100000 -0.783638
87.150000 -0.715120
87.200000 -0.694565
87.250000 -0.674010
87.300000 -0.667158
87.350000 -0.701417
87.400000 -0.756231
87.450000 -0.793916
87.500000 -0.793915
87.550000 -0.776786
87.600000 -0.759657
87.650000 -0.739102
87.700000 -0.680861
87.750000 -0.619195
87.800000 -0.554103
87.850000 -0.468456
87.900000 -0.369106
87.950000 -0.334847
88.000000 -0.379383
88.050000 -0.430772
88.100000 -0.471882
88.150000 -0.550678
88.200000 -0.663732
88.250000 -0.766508
88.300000 -0.841878
88.350000 -0.917247
88.400000 -0.992618
88.450000 -1.061135
88.500000 -1.091968
88.550000 -1.078265
88.600000 -1.044006
88.650000 -1.020025
88.700000 -0.989191
88.750000 -0.951506
88.800000 -0.965211
88.850000 -1.040580
88.900000 -1.153634
88.950000 -1.273541
89.000000 -1.414002
89.050000 -1.537334
89.100000 -1.643536
89.150000 -1.736036
89.200000 -1.797702
89.250000 -1.790850
89.300000 -1.749739
89.350000 -1.684648
89.400000 -1.551037
89.450000 -1.366039
89.500000 -1.198171
89.550000 -1.054284
89.600000 -0.910396
89.650000 -0.811045
89.700000 -0.756231
89.750000 -0.721973
89.800000 -0.732250
89.850000 -0.797342
89.900000 -0.869285
89.950000 -0.941229
90.000000 -1.047432
90.050000 -1.139930
90.100000 -1.191319
90.150000 -1.242707
90.200000 -1.283818
90.250000 -1.273540
90.300000 -1.229004
90.350000 -1.187893
90.400000 -1.143357
90.450000 -1.071413
90.500000 -1.002895
90.550000 -0.944655
90.600000 -0.913822
90.650000 -0.920674
90.700000 -0.934378
90.750000 -0.930951
90.800000 -0.937803
90.850000 -0.965210
90.900000 -1.002895
90.950000 -1.040580
91.000000 -1.078264
91.050000 -1.102246
91.100000 -1.129653
91.150000 -1.170764
91.200000 -1.205023
91.250000 -1.194745
91.300000 -1.177615
91.350000 -1.181041
91.400000 -1.170763
91.450000 -1.139930
91.500000 -1.129653
91.550000 -1.143357
91.600000 -1.153634
91.650000 -1.160486
91.700000 -1.181041
91.750000 -1.194745
91.800000 -1.201597
91.850000 -1.201596
91.900000 -1.174190
91.950000 -1.126228
92.000000 -1.078265
92.050000 -0.996043
92.100000 -0.886414
92.150000 -0.797342
92.200000 -0.721972
92.250000 -0.643177
92.300000 -0.574658
92.350000 -0.543826
92.400000 -0.543826
92.450000 -0.595214
92.500000 -0.680862
92.550000 -0.752805
92.600000 -0.817897
92.650000 -0.889841
92.700000 -0.930952
92.750000 -0.937803
92.800000 -0.954933
92.850000 -0.954933
92.900000 -0.924100
92.950000 -0.906970
93.000000 -0.889841
93.050000 -0.814471
93.100000 -0.725398
93.150000 -0.708269
93.200000 -0.701417
93.250000 -0.653454
93.300000 -0.608918
93.350000 -0.574659
93.400000 -0.523270
93.450000 -0.499289
93.500000 -0.523270
93.550000 -0.550677
93.600000 -0.557529
93.650000 -0.584937
93.700000 -0.629473
93.750000 -0.650028
93.800000 -0.677436
93.850000 -0.718546
93.900000 -0.745954
93.950000 -0.766509
94.000000 -0.787064
94.050000 -0.790490
94.100000 -0.776786
94.150000 -0.763083
94.200000 -0.752805
94.250000 -0.756231
94.300000 -0.787064
94.350000 -0.821323
94.400000 -0.835027
94.450000 -0.841878
94.500000 -0.862434
94.550000 -0.893266
94.600000 -0.934377
94.650000 -0.978914
94.700000 -1.026876
94.750000 -1.085116
94.800000 -1.160486
94.850000 -1.225578
94.900000 -1.273540
94.950000 -1.342058
95.000000 -1.424280
95.050000 -1.482520
95.100000 -1.513353
95.150000 -1.551038
95.200000 -1.581870
95.250000 -1.592148
95.300000 -1.571593
95.350000 -1.520205
95.400000 -1.441408
95.450000 -1.348910
95.500000 -1.239281
95.550000 -1.109098
95.600000 -0.996044
95.650000 -0.893267
95.700000 -0.800767
95.750000 -0.728824
95.800000 -0.677435
95.850000 -0.629473
95.900000 -0.612344
95.950000 -0.650028
96.000000 -0.728824
96.050000 -0.800768
96.100000 -0.869286
96.150000 -0.958358
96.200000 -1.023451
96.250000 -1.030302
96.300000 -1.002895
96.350000 -0.978913
96.400000 -0.941229
96.450000 -0.893267
96.500000 -0.879563
96.550000 -0.903544
96.600000 -0.930951
96.650000 -0.978913
96.700000 -1.088543
96.750000 -1.235855
96.800000 -1.379743
96.850000 -1.530482
96.900000 -1.670944
96.950000 -1.780572
97.000000 -1.849090
97.050000 -1.873071
97.100000 -1.842238
97.150000 -1.766869
97.200000 -1.664092
97.250000 -1.506501
97.300000 -1.300947
97.350000 -1.126228
97.400000 -0.996043
97.450000 -0.865859
97.500000 -0.763083
97.550000 -0.725398
97.600000 -0.718547
97.650000 -0.704843
97.700000 -0.725398
97.750000 -0.790490
97.800000 -0.862434
97.850000 -0.913822
97.900000 -0.930951
97.950000 -0.937803
98.000000 -0.975488
98.050000 -1.020024
98.100000 -1.009747
98.150000 -0.989192
98.200000 -1.030302
98.250000 -1.091968
98.300000 -1.129653
98.350000 -1.170764
98.400000 -1.235855
98.450000 -1.300947
98.500000 -1.345484
98.550000 -1.366039
98.600000 -1.359188
98.650000 -1.314651
98.700000 -1.218726
98.750000 -1.102246
98.800000 -0.999469
98.850000 -0.903544
98.900000 -0.797341
98.950000 -0.721972
99.000000 -0.691139
99.050000 -0.670584
99.100000 -0.670583
99.150000 -0.745954
99.200000 -0.882989
99.250000 -1.013173
99.300000 -1.153634
99.350000 -1.335206
99.400000 -1.475668
99.450000 -1.551037
99.500000 -1.643536
99.550000 -1.736035
99.600000 -1.753165
99.650000 -1.701776
99.700000 -1.636685
99.750000 -1.571593
99.800000 -1.489372
99.850000 -1.372892
99.900000 -1.229003
99.950000 -1.095394
100.000000 -0.999469
100.050000 -0.889841
100.100000 -0.783638
100.150000 -0.718546
100.200000 -0.691139
100.250000 -0.643176
100.300000 -0.602066
100.350000 -0.605492
100.400000 -0.619195
100.450000 -0.602066
100.500000 -0.595214
100.550000 -0.626047
100.600000 -0.656880
100.650000 -0.667158
100.700000 -0.680862
100.750000 -0.691139
100.800000 -0.684287
100.850000 -0.674010
100.900000 -0.674010
100.950000 -0.653454
101.000000 -0.646602
101.050000 -0.660306
101.100000 -0.670584
101.150000 -0.684287
101.200000 -0.721972
101.250000 -0.752805
101.300000 -0.759657
101.350000 -0.780212
101.400000 -0.814471
101.450000 -0.817897
101.500000 -0.790490
101.550000 -0.763083
101.600000 -0.725398
101.650000 -0.684287
101.700000 -0.663732
101.750000 -0.660306
101.800000 -0.663732
101.850000 -0.701417
101.900000 -0.807619
101.950000 -0.961784
102.000000 -1.119375
102.050000 -1.266689
102.100000 -1.396872
102.150000 -1.506501
102.200000 -1.575019
102.250000 -1.575019
102.300000 -1.533908
102.350000 -1.479094
102.400000 -1.403724
102.450000 -1.290670
102.500000 -1.160486
102.550000 -1.040580
102.600000 -0.972062
102.650000 -0.954932
102.700000 -0.951506
102.750000 -0.968636
102.800000 -1.050857
102.850000 -1.157060
102.900000 -1.225578
102.950000 -1.266688
103.000000 -1.311225
103.050000 -1.304373
103.100000 -1.239281
103.150000 -1.177615
103.200000 -1.109098
103.250000 -0.978914
103.300000 -0.821323
103.350000 -0.701417
103.400000 -0.622621
103.450000 -0.564382
103.500000 -0.519845
103.550000 -0.499289
103.600000 -0.495864
103.650000 -0.499289
103.700000 -0.509567
103.750000 -0.516419
103.800000 -0.536974
103.850000 -0.557529
103.900000 -0.557529
103.950000 -0.591788
104.000000 -0.674010
104.050000 -0.756231
104.100000 -0.824749
104.150000 -0.934377
104.200000 -1.061135
104.250000 -1.153634
104.300000 -1.222152
104.350000 -1.297522
104.400000 -1.338632
104.450000 -1.307799
104.500000 -1.239281
104.550000 -1.174190
104.600000 -1.105671
104.650000 -1.026876
104.700000 -0.958358
104.750000 -0.924099
104.800000 -0.917248
104.850000 -0.920674
104.900000 -0.920674
104.950000 -0.920674
105.000000 -0.924100
105.050000 -0.941229
105.100000 -0.941229
105.150000 -0.920674
105.200000 -0.903544
105.250000 -0.876137
105.300000 -0.811045
105.350000 -0.759657
105.400000 -0.763083
105.450000 -0.797341
105.500000 -0.848730
105.550000 -0.951506
105.600000 -1.074838
105.650000 -1.170764
105.700000 -1.252985
105.750000 -1.328355
105.800000 -1.390021
105.850000 -1.427706
105.900000 -1.417428
105.950000 -1.348910
106.000000 -1.273540
106.050000 -1.215300
106.100000 -1.119375
106.150000 -0.992618
106.200000 -0.913822
106.250000 -0.889840
106.300000 -0.872711
106.350000 -0.876137
106.400000 -0.920674
106.450000 -0.989192
106.500000 -1.088542
106.550000 -1.229004
106.600000 -1.379742
106.650000 -1.499649
106.700000 -1.588722
106.750000 -1.670943
106.800000 -1.756590
106.850000 -1.801128
106.900000 -1.756591
106.950000 -1.674369
107.000000 -1.605851
107.050000 -1.513353
107.100000 -1.366039
107.150000 -1.225578
107.200000 -1.136505
107.250000 -1.054283
107.300000 -0.951507
107.350000 -0.879563
107.400000 -0.838453
107.450000 -0.776786
107.500000 -0.708269
107.550000 -0.680862
107.600000 -0.674009
107.650000 -0.629473
107.700000 -0.554103
107.750000 -0.512993
107.800000 -0.499290
107.850000 -0.485585
107.900000 -0.489011
107.950000 -0.516419
108.000000 -0.584936
108.050000 -0.704842
108.100000 -0.876137
108.150000 -1.071413
108.200000 -1.273540
108.250000 -1.472242
108.300000 -1.643536
108.350000 -1.773721
108.400000 -1.831960
108.450000 -1.842239
108.500000 -1.811405
108.550000 -1.729184
108.600000 -1.616129
108.650000 -1.485945
108.700000 -1.342058
108.750000 -1.198170
108.800000 -1.112523
108.850000 -1.078265
108.900000 -1.037154
108.950000 -1.013173
109.000000 -1.054283
109.050000 -1.119375
109.100000 -1.170763
109.150000 -1.232429
109.200000 -1.307799
109.250000 -1.348910
109.300000 -1.379743
109.350000 -1.417428
109.400000 -1.441409
109.450000 -1.434557
109.500000 -1.431131
109.550000 -1.472242
109.600000 -1.527057
109.650000 -1.554463
109.700000 -1.544186
109.750000 -1.509927
109.800000 -1.475668
109.850000 -1.441409
109.900000 -1.383169
109.950000 -1.307799
110.000000 -1.232430
110.050000 -1.170764
110.100000 -1.105672
110.150000 -1.050857
110.200000 -1.006321
110.250000 -0.978913
110.300000 -0.989191
110.350000 -1.037154
110.400000 -1.078265
110.450000 -1.095394
110.500000 -1.119375
110.550000 -1.153634
110.600000 -1.174189
110.650000 -1.194745
110.700000 -1.215301
110.750000 -1.211874
110.800000 -1.181041
110.850000 -1.150208
110.900000 -1.105672
110.950000 -1.054284
111.000000 -0.996043
111.050000 -0.934378
111.100000 -0.835026
111.150000 -0.745953
111.200000 -0.674010
111.250000 -0.581511
111.300000 -0.478734
111.350000 -0.434198
111.400000 -0.430771
111.450000 -0.441049
111.500000 -0.502715
111.550000 -0.629473
111.600000 -0.769935
111.650000 -0.917248
111.700000 -1.115949
111.750000 -1.324929
111.800000 -1.482520
111.850000 -1.595574
111.900000 -1.677795
111.950000 -1.718906
112.000000 -1.712054
112.050000 -1.646963
112.100000 -1.520204
112.150000 -1.383169
112.200000 -1.280392
112.250000 -1.181041
112.300000 -1.071413
112.350000 -1.020025
112.400000 -1.037154
112.450000 -1.071413
112.500000 -1.150208
112.550000 -1.287244
112.600000 -1.383169
112.650000 -1.434557
112.700000 -1.489371
112.750000 -1.506501
112.800000 -1.448261
112.850000 -1.366039
112.900000 -1.270115
112.950000 -1.122802
113.000000 -0.972062
113.050000 -0.845304
113.100000 -0.725398
113.150000 -0.636325
113.200000 -0.636325
113.250000 -0.691139
113.300000 -0.769935
113.350000 -0.882989
113.400000 -1.016599
113.450000 -1.133079
113.500000 -1.229003
113.550000 -1.287244
113.600000 -1.287244
113.650000 -1.229004
113.700000 -1.133079
113.750000 -1.016599
113.800000 -0.886415
113.850000 -0.763083
113.900000 -0.653454
113.950000 -0.567807
114.000000 -0.536974
114.050000 -0.560956
114.100000 -0.636325
114.150000 -0.763083
114.200000 -0.903545
114.250000 -1.023451
114.300000 -1.136505
114.350000 -1.225578
114.400000 -1.242707
114.450000 -1.198171
114.500000 -1.150208
114.550000 -1.078265
114.600000 -0.961785
114.650000 -0.859008
114.700000 -0.800767
114.750000 -0.780212
114.800000 -0.797341
114.850000 -0.862433
114.900000 -0.951506
114.950000 -1.067987
115.000000 -1.215300
115.050000 -1.376317
115.100000 -1.513352
115.150000 -1.626407
115.200000 -1.722332
115.250000 -1.760016
115.300000 -1.732610
115.350000 -1.677795
115.400000 -1.605852
115.450000 -1.492797
115.500000 -1.366039
115.550000 -1.266689
115.600000 -1.170764
115.650000 -1.071412
115.700000 -1.016599
115.750000 -1.023451
115.800000 -1.054283
115.850000 -1.085117
115.900000 -1.136505
115.950000 -1.235856
116.000000 -1.348909
116.050000 -1.427705
116.100000 -1.458539
116.150000 -1.499649
116.200000 -1.540760
116.250000 -1.530482
116.300000 -1.455112
116.350000 -1.386595
116.400000 -1.314651
116.450000 -1.211875
116.500000 -1.129653
116.550000 -1.105672
116.600000 -1.085116
116.650000 -1.040580
116.700000 -1.016598
116.750000 -1.020024
116.800000 -0.996043
116.850000 -0.941229
116.900000 -0.876137
116.950000 -0.780212
117.000000 -0.656880
117.050000 -0.547251
117.100000 -0.444475
117.150000 -0.338272
117.200000 -0.249199
117.250000 -0.194385
117.300000 -0.180682
117.350000 -0.228644
117.400000 -0.331421
117.450000 -0.441049
117.500000 -0.550678
117.550000 -0.667158
117.600000 -0.752805
117.650000 -0.804194
117.700000 -0.841878
117.750000 -0.848730
117.800000 -0.797342
117.850000 -0.718546
117.900000 -0.639751
117.950000 -0.554104
118.000000 -0.458179
118.050000 -0.403364
118.100000 -0.379383
118.150000 -0.369105
118.200000 -0.382809
118.250000 -0.444475
118.300000 -0.543825
118.350000 -0.677435
118.400000 -0.835027
118.450000 -0.999470
118.500000 -1.153634
118.550000 -1.297521
118.600000 -1.427706
118.650000 -1.516778
118.700000 -1.547612
118.750000 -1.540760
118.800000 -1.530482
118.850000 -1.509927
118.900000 -1.448261
118.950000 -1.362614
119.000000 -1.283818
119.050000 -1.218726
119.100000 -1.143356
119.150000 -1.074838
119.200000 -1.050857
119.250000 -1.040580
119.300000 -1.016598
119.350000 -0.982340
119.400000 -0.958358
119.450000 -0.930952
119.500000 -0.893266
119.550000 -0.862433
119.600000 -0.865860
119.650000 -0.876137
119.700000 -0.882989
119.750000 -0.906970
119.800000 -0.951507
119.850000 -1.009747
119.900000 -1.088542
119.950000 -1.167338
120.000000 -1.194745
120.050000 -1.163912
120.100000 -1.115950
120.150000 -1.061136
120.200000 -0.941229
120.250000 -0.783638
120.300000 -0.643177
120.350000 -0.536974
120.400000 -0.441049
120.450000 -0.379383
120.500000 -0.375957
120.550000 -0.420494
120.600000 -0.489012
120.650000 -0.567807
120.700000 -0.639751
120.750000 -0.697991
120.800000 -0.763083
120.850000 -0.797342
120.900000 -0.766509
120.950000 -0.715120
121.000000 -0.650028
121.050000 -0.554103
121.100000 -0.451327
121.150000 -0.386235
121.200000 -0.351976
121.250000 -0.314292
121.300000 -0.317717
121.350000 -0.372531
121.400000 -0.437623
121.450000 -0.485585
121.500000 -0.540400
121.550000 -0.591788
121.600000 -0.629473
121.650000 -0.691139
121.700000 -0.780212
121.750000 -0.852156
121.800000 -0.903545
121.850000 -0.951507
121.900000 -0.992618
121.950000 -1.030302
122.000000 -1.061135
122.050000 -1.067987
122.100000 -1.037154
122.150000 -1.013173
122.200000 -0.982340
122.250000 -0.924099
122.300000 -0.852156
122.350000 -0.790490
122.400000 -0.718546
122.450000 -0.667158
122.500000 -0.660306
122.550000 -0.687713
122.600000 -0.708269
122.650000 -0.745953
122.700000 -0.811045
122.750000 -0.872712
122.800000 -0.927526
122.850000 -0.961785
122.900000 -0.972062
122.950000 -0.972062
123.000000 -0.961784
123.050000 -0.910396
123.100000 -0.807620
123.150000 -0.721972
123.200000 -0.667157
123.250000 -0.615770
123.300000 -0.564382
123.350000 -0.550677
123.400000 -0.595214
123.450000 -0.680861
123.500000 -0.807619
123.550000 -0.958359
123.600000 -1.122801
123.650000 -1.300948
123.700000 -1.461965
123.750000 -1.588723
123.800000 -1.705203
123.850000 -1.790850
123.900000 -1.804553
123.950000 -1.766869
124.000000 -1.715480
124.050000 -1.643537
124.100000 -1.540760
124.150000 -1.431131
124.200000 -1.324929
124.250000 -1.218726
124.300000 -1.143356
124.350000 -1.119375
124.400000 -1.122802
124.450000 -1.129653
124.500000 -1.122802
124.550000 -1.136505
124.600000 -1.153634
124.650000 -1.139931
124.700000 -1.129653
124.750000 -1.143356
124.800000 -1.167338
124.850000 -1.177616
124.900000 -1.198171
124.950000 -1.249559
125.000000 -1.321503
125.050000 -1.396872
125.100000 -1.458538
125.150000 -1.499649
125.200000 -1.554464
125.250000 -1.622981
125.300000 -1.640110
125.350000 -1.595574
125.400000 -1.544185
125.450000 -1.503075
125.500000 -1.420854
125.550000 -1.338632
125.600000 -1.283818
125.650000 -1.232430
125.700000 -1.181041
125.750000 -1.181041
125.800000 -1.211874
125.850000 -1.229004
125.900000 -1.242707
125.950000 -1.256411
126.000000 -1.242708
126.050000 -1.208448
126.100000 -1.177616
126.150000 -1.112523
126.200000 -1.002895
126.250000 -0.913822
126.300000 -0.848730
126.350000 -0.773360
126.400000 -0.728824
126.450000 -0.735675
126.500000 -0.752805
126.550000 -0.763082
126.600000 -0.804193
126.650000 -0.879563
126.700000 -0.934378
126.750000 -0.978914
126.800000 -1.030302
126.850000 -1.064561
126.900000 -1.067987
126.950000 -1.054284
127.000000 -1.026877
127.050000 -0.996043
127.100000 -0.961785
127.150000 -0.917248
127.200000 -0.889840
127.250000 -0.896692
127.300000 -0.893266
127.350000 -0.886415
127.400000 -0.906970
127.450000 -0.944655
127.500000 -0.958359
127.550000 -0.989192
127.600000 -1.033728
127.650000 -1.057709
127.700000 -1.078265
127.750000 -1.102246
127.800000 -1.078265
127.850000 -1.026876
127.900000 -0.999469
127.950000 -0.978914
128.000000 -0.930951
128.050000 -0.865860
128.100000 -0.824748
128.150000 -0.811045
128.200000 -0.807619
128.250000 -0.797342
128.300000 -0.811045
128.350000 -0.862434
128.400000 -0.917248
128.450000 -0.934377
128.500000 -0.944655
128.550000 -0.968636
128.600000 -0.961784
128.650000 -0.913822
128.700000 -0.855581
128.750000 -0.773360
128.800000 -0.677435
128.850000 -0.615769
128.900000 -0.581511
128.950000 -0.550678
129.000000 -0.567807
129.050000 -0.639750
129.100000 -0.725398
129.150000 -0.821323
129.200000 -0.927525
129.250000 -1.013173
129.300000 -1.078265
129.350000 -1.136505
129.400000 -1.139931
129.450000 -1.078265
129.500000 -0.999469
129.550000 -0.917247
129.600000 -0.817897
129.650000 -0.745953
129.700000 -0.721972
129.750000 -0.708269
129.800000 -0.704842
129.850000 -0.725398
129.900000 -0.756230
129.950000 -0.800768
130.000000 -0.859008
130.050000 -0.917248
130.100000 -0.965210
130.150000 -1.006321
130.200000 -1.030302
130.250000 -1.023450
130.300000 -1.030303
130.350000 -1.085116
130.400000 -1.150208
130.450000 -1.177615
130.500000 -1.201596
130.550000 -1.249559
130.600000 -1.290670
130.650000 -1.300947
130.700000 -1.300947
130.750000 -1.318077
130.800000 -1.328355
130.850000 -1.328355
130.900000 -1.314651
130.950000 -1.324928
131.000000 -1.355761
131.050000 -1.372892
131.100000 -1.369465
131.150000 -1.400298
131.200000 -1.444835
131.250000 -1.451687
131.300000 -1.420854
131.350000 -1.403724
131.400000 -1.372891
131.450000 -1.304373
131.500000 -1.201597
131.550000 -1.078265
131.600000 -0.958359
131.650000 -0.855582
131.700000 -0.756231
131.750000 -0.650029
131.800000 -0.567807
131.850000 -0.550678
131.900000 -0.571233
131.950000 -0.605492
132.000000 -0.663732
132.050000 -0.715120
132.100000 -0.745953
132.150000 -0.787064
132.200000 -0.828175
132.250000 -0.807619
132.300000 -0.742528
132.350000 -0.694565
132.400000 -0.632899
132.450000 -0.512993
132.500000 -0.410216
132.550000 -0.382809
132.600000 -0.379383
132.650000 -0.369105
132.700000 -0.417068
132.750000 -0.540400
132.800000 -0.674010
132.850000 -0.797341
132.900000 -0.944655
132.950000 -1.105672
133.000000 -1.218726
133.050000 -1.273541
133.100000 -1.314651
133.150000 -1.338633
133.200000 -1.328354
133.250000 -1.280392
133.300000 -1.208448
133.350000 -1.129653
133.400000 -1.085116
133.450000 -1.074839
133.500000 -1.044006
133.550000 -0.989191
133.600000 -0.968636
133.650000 -0.992617
133.700000 -1.054284
133.750000 -1.129653
133.800000 -1.201597
133.850000 -1.273540
133.900000 -1.352336
133.950000 -1.407150
134.000000 -1.417428
134.050000 -1.393447
134.100000 -1.331780
134.150000 -1.235856
134.200000 -1.119375
134.250000 -0.992618
134.300000 -0.845304
134.350000 -0.687713
134.400000 -0.571233
134.450000 -0.502715
134.500000 -0.471882
134.550000 -0.482160
134.600000 -0.530123
134.650000 -0.619195
134.700000 -0.742527
134.750000 -0.889841
134.800000 -1.016599
134.850000 -1.146782
134.900000 -1.280392
134.950000 -1.383168
135.000000 -1.461964
135.050000 -1.530482
135.100000 -1.551038
135.150000 -1.513353
135.200000 -1.485946
135.250000 -1.482520
135.300000 -1.431131
135.350000 -1.328354
135.400000 -1.222152
135.450000 -1.105671
135.500000 -0.958359
135.550000 -0.817897
135.600000 -0.711695
135.650000 -0.598640
135.700000 -0.495863
135.750000 -0.465030
135.800000 -0.489011
135.850000 -0.512993
135.900000 -0.560956
135.950000 -0.653454
136.000000 -0.742528
136.050000 -0.831600
136.100000 -0.944655
136.150000 -1.061135
136.200000 -1.122801
136.250000 -1.157060
136.300000 -1.191319
136.350000 -1.191319
136.400000 -1.153634
136.450000 -1.109098
136.500000 -1.081691
136.550000 -1.040580
136.600000 -1.006321
136.650000 -0.989191
136.700000 -0.978914
136.750000 -0.978914
136.800000 -1.006321
136.850000 -1.044005
136.900000 -1.054284
136.950000 -1.044006
137.000000 -1.050858
137.050000 -1.074838
137.100000 -1.078264
137.150000 -1.081691
137.200000 -1.102246
137.250000 -1.105672
137.300000 -1.081690
137.350000 -1.088542
137.400000 -1.150208
137.450000 -1.222152
137.500000 -1.307800
137.550000 -1.444835
137.600000 -1.588722
137.650000 -1.712054
137.700000 -1.835387
137.750000 -1.975848
137.800000 -2.092329
137.850000 -2.147142
137.900000 -2.157420
137.950000 -2.133438
138.000000 -2.075199
138.050000 -1.962145
138.100000 -1.801127
138.150000 -1.633259
138.200000 -1.468816
138.250000 -1.283818
138.300000 -1.064561
138.350000 -0.869285
138.400000 -0.756231
138.450000 -0.691139
138.500000 -0.646603
138.550000 -0.639751
138.600000 -0.674010
138.650000 -0.732249
138.700000 -0.811045
138.750000 -0.917248
138.800000 -1.040580
138.850000 -1.150208
138.900000 -1.229004
138.950000 -1.273540
139.000000 -1.300948
139.050000 -1.280392
139.100000 -1.205022
139.150000 -1.122802
139.200000 -1.057710
139.250000 -0.992617
139.300000 -0.913822
139.350000 -0.889840
139.400000 -0.927525
139.450000 -0.968636
139.500000 -1.033728
139.550000 -1.153634
139.600000 -1.270114
139.650000 -1.338632
139.700000 -1.410576
139.750000 -1.503075
139.800000 -1.557890
139.850000 -1.547611
139.900000 -1.516778
139.950000 -1.479093
140.000000 -1.407150
140.050000 -1.294095
140.100000 -1.160486
140.150000 -1.030302
140.200000 -0.910396
140.250000 -0.790490
140.300000 -0.670583
140.350000 -0.588362
140.400000 -0.557529
140.450000 -0.543826
140.500000 -0.543826
140.550000 -0.571233
140.600000 -0.650028
140.650000 -0.749379
140.700000 -0.835026
140.750000 -0.930951
140.800000 -1.067987
140.850000 -1.205023
140.900000 -1.290670
140.950000 -1.335206
141.000000 -1.396872
141.050000 -1.458539
141.100000 -1.482519
141.150000 -1.489371
141.200000 -1.482519
141.250000 -1.451687
141.300000 -1.400298
141.350000 -1.331780
141.400000 -1.252985
141.450000 -1.181041
141.500000 -1.112523
141.550000 -1.023450
141.600000 -0.930952
141.650000 -0.862433
141.700000 -0.800767
141.750000 -0.773360
141.800000 -0.797342
141.850000 -0.821323
141.900000 -0.824749
141.950000 -0.859007
142.000000 -0.924100
142.050000 -0.930952
142.100000 -0.896692
142.150000 -0.889841
142.200000 -0.889840
142.250000 -0.845304
142.300000 -0.807619
142.350000 -0.807619
142.400000 -0.821322
142.450000 -0.845305
142.500000 -0.900118
142.550000 -0.961785
142.600000 -1.002895
142.650000 -1.030302
142.700000 -1.064561
142.750000 -1.085116
142.800000 -1.071413
142.850000 -1.016598
142.900000 -0.934377
142.950000 -0.859008
143.000000 -0.800768
143.050000 -0.739101
143.100000 -0.697991
143.150000 -0.701417
143.200000 -0.749379
143.250000 -0.821323
143.300000 -0.934377
143.350000 -1.067987
143.400000 -1.187893
143.450000 -1.294096
143.500000 -1.407150
143.550000 -1.506501
143.600000 -1.568167
143.650000 -1.599000
143.700000 -1.585296
143.750000 -1.537334
143.800000 -1.461964
143.850000 -1.331781
143.900000 -1.163912
143.950000 -1.026876
144.000000 -0.930951
144.050000 -0.814471
144.100000 -0.701417
144.150000 -0.667158
144.200000 -0.701417
144.250000 -0.749379
144.300000 -0.828175
144.350000 -0.961785
144.400000 -1.115949
144.450000 -1.273540
144.500000 -1.448261
144.550000 -1.626407
144.600000 -1.780572
144.650000 -1.903904
144.700000 -1.982700
144.750000 -2.020385
144.800000 -2.020385
144.850000 -1.975848
144.900000 -1.897052
144.950000 -1.801127
145.000000 -1.664092
145.050000 -1.496223
145.100000 -1.300947
145.150000 -1.088542
145.200000 -0.886414
145.250000 -0.711695
145.300000 -0.540400
145.350000 -0.389660
145.400000 -0.310865
145.450000 -0.286884
145.500000 -0.262902
145.550000 -0.286884
145.600000 -0.365679
145.650000 -0.444475
145.700000 -0.512993
145.750000 -0.605492
145.800000 -0.667158
145.850000 -0.694565
145.900000 -0.718546
145.950000 -0.718547
146.000000 -0.680861
146.050000 -0.656881
146.100000 -0.646603
146.150000 -0.605491
146.200000 -0.598640
146.250000 -0.636324
146.300000 -0.646603
146.350000 -0.629473
146.400000 -0.656880
146.450000 -0.691139
146.500000 -0.680862
146.550000 -0.687713
146.600000 -0.704843
146.650000 -0.660306
146.700000 -0.612344
146.750000 -0.643176
146.800000 -0.708269
146.850000 -0.728824
146.900000 -0.773361
146.950000 -0.889841
147.000000 -1.033728
147.050000 -1.170764
147.100000 -1.290670
147.150000 -1.396872
147.200000 -1.485945
147.250000 -1.544185
147.300000 -1.537334
147.350000 -1.489371
147.400000 -1.414002
147.450000 -1.290670
147.500000 -1.112524
147.550000 -0.954932
147.600000 -0.824749
147.650000 -0.674009
147.700000 -0.519845
147.750000 -0.413642
147.800000 -0.341698
147.850000 -0.273181
147.900000 -0.232070
147.950000 -0.242348
148.000000 -0.273180
148.050000 -0.324569
148.100000 -0.413641
148.150000 -0.543825
148.200000 -0.674010
148.250000 -0.807619
148.300000 -0.968636
148.350000 -1.139931
148.400000 -1.283818
148.450000 -1.383169
148.500000 -1.461964
148.550000 -1.530482
148.600000 -1.581870
148.650000 -1.595574
148.700000 -1.571593
148.750000 -1.520205
148.800000 -1.444835
148.850000 -1.366039
148.900000 -1.314651
148.950000 -1.297521
149.000000 -1.276966
149.050000 -1.263263
149.100000 -1.273541
149.150000 -1.307800
149.200000 -1.342059
149.250000 -1.362614
149.300000 -1.390021
149.350000 -1.451687
149.400000 -1.509927
149.450000 -1.527056
149.500000 -1.527056
149.550000 -1.547611
149.600000 -1.540760
149.650000 -1.479094
149.700000 -1.414002
149.750000 -1.352335
149.800000 -1.280392
149.850000 -1.177616
149.900000 -1.054284
149.950000 -0.934378
150.000000 -0.828175
150.050000 -0.715120
150.100000 -0.605492
150.150000 -0.533548
150.200000 -0.512993
150.250000 -0.506141
150.300000 -0.526697
150.350000 -0.595214
150.400000 -0.670584
150.450000 -0.725398
150.500000 -0.807620
150.550000 -0.906970
150.600000 -0.972062
150.650000 -1.009747
150.700000 -1.033728
150.750000 -1.044006
150.800000 -1.023450
150.850000 -0.992617
150.900000 -0.924100
150.950000 -0.841879
151.000000 -0.783638
151.050000 -0.756231
151.100000 -0.732250
151.150000 -0.732249
151.200000 -0.745954
151.250000 -0.756231
151.300000 -0.742528
151.350000 -0.725398
151.400000 -0.728824
151.450000 -0.725398
151.500000 -0.697991
151.550000 -0.697991
151.600000 -0.728824
151.650000 -0.756231
151.700000 -0.783638
151.750000 -0.855582
151.800000 -0.958359
151.850000 -1.044006
151.900000 -1.139930
151.950000 -1.229003
152.000000 -1.273541
152.050000 -1.270115
152.100000 -1.252985
152.150000 -1.208448
152.200000 -1.105672
152.250000 -0.972062
152.300000 -0.817897
152.350000 -0.653454
152.400000 -0.530122
152.450000 -0.468457
152.500000 -0.441049
152.550000 -0.441049
152.600000 -0.523270
152.650000 -0.663732
152.700000 -0.800767
152.750000 -0.948081
152.800000 -1.115949
152.850000 -1.252985
152.900000 -1.345484
152.950000 -1.417427
153.000000 -1.455112
153.050000 -1.434557
153.100000 -1.386594
153.150000 -1.345484
153.200000 -1.273541
153.250000 -1.153634
153.300000 -1.016599
153.350000 -0.917248
153.400000 -0.855581
153.450000 -0.790490
153.500000 -0.735675
153.550000 -0.701417
153.600000 -0.694565
153.650000 -0.670583
153.700000 -0.629473
153.750000 -0.605492
153.800000 -0.602066
153.850000 -0.574659
153.900000 -0.509567
153.950000 -0.444475
154.000000 -0.386235
154.050000 -0.314291
154.100000 -0.232069
154.150000 -0.166978
154.200000 -0.136145
154.250000 -0.142997
154.300000 -0.166978
154.350000 -0.194385
154.400000 -0.235495
154.450000 -0.280032
154.500000 -0.324568
154.550000 -0.372531
154.600000 -0.413642
154.650000 -0.441049
154.700000 -0.458179
154.750000 -0.471882
154.800000 -0.492438
154.850000 -0.530122
154.900000 -0.571233
154.950000 -0.608917
155.000000 -0.670583
155.050000 -0.752805
155.100000 -0.831600
155.150000 -0.917248
155.200000 -1.016599
155.250000 -1.105672
155.300000 -1.160486
155.350000 -1.211874
155.400000 -1.290670
155.450000 -1.362613
155.500000 -1.376317
155.550000 -1.348910
155.600000 -1.331780
155.650000 -1.294096
155.700000 -1.225578
155.750000 -1.136505
155.800000 -1.054283
155.850000 -0.948080
155.900000 -0.821323
155.950000 -0.687713
156.000000 -0.584937
156.050000 -0.533548
156.100000 -0.509567
156.150000 -0.482159
156.200000 -0.495863
156.250000 -0.571233
156.300000 -0.653455
156.350000 -0.749379
156.400000 -0.893266
156.450000 -1.033728
156.500000 -1.115949
156.550000 -1.167338
156.600000 -1.235856
156.650000 -1.276966
156.700000 -1.287244
156.750000 -1.307800
156.800000 -1.348910
156.850000 -1.390021
156.900000 -1.427706
156.950000 -1.448260
157.000000 -1.444835
157.050000 -1.434557
157.100000 -1.424279
157.150000 -1.386595
157.200000 -1.331781
157.250000 -1.259837
157.300000 -1.163912
157.350000 -1.071413
157.400000 -0.992618
157.450000 -0.924099
157.500000 -0.862433
157.550000 -0.838452
157.600000 -0.859008
157.650000 -0.913822
157.700000 -0.985766
157.750000 -1.078265
157.800000 -1.167338
157.850000 -1.246133
157.900000 -1.314651
157.950000 -1.386595
158.000000 -1.444835
158.050000 -1.468816
158.100000 -1.465390
158.150000 -1.441409
158.200000 -1.417428
158.250000 -1.383169
158.300000 -1.300948
158.350000 -1.218726
158.400000 -1.208448
158.450000 -1.232430
158.500000 -1.229004
158.550000 -1.242707
158.600000 -1.307799
158.650000 -1.359188
158.700000 -1.386595
158.750000 -1.437983
158.800000 -1.489371
158.850000 -1.489371
158.900000 -1.475668
158.950000 -1.424280
159.000000 -1.321503
159.050000 -1.205023
159.100000 -1.071413
159.150000 -0.896692
159.200000 -0.732250
159.250000 -0.591788
159.300000 -0.447901
159.350000 -0.345124
159.400000 -0.327995
159.450000 -0.327994
159.500000 -0.327995
159.550000 -0.406791
159.600000 -0.543826
159.650000 -0.663732
159.700000 -0.797341
159.750000 -0.965210
159.800000 -1.085117
159.850000 -1.153634
159.900000 -1.198171
159.950000 -1.211874
160.000000 -1.174190
160.050000 -1.081690
160.100000 -0.951506
160.150000 -0.821323
160.200000 -0.739102
160.250000 -0.677435
160.300000 -0.584937
160.350000 -0.523270
160.400000 -0.536974
160.450000 -0.550677
160.500000 -0.554104
160.550000 -0.598640
160.600000 -0.636325
160.650000 -0.608917
160.700000 -0.567807
160.750000 -0.543826
160.800000 -0.489011
160.850000 -0.403364
160.900000 -0.348550
160.950000 -0.314291
161.000000 -0.300588
161.050000 -0.348550
161.100000 -0.444475
161.150000 -0.550678
161.200000 -0.684287
161.250000 -0.852156
161.300000 -0.985766
161.350000 -1.064562
161.400000 -1.119376
161.450000 -1.146783
161.500000 -1.098820
161.550000 -1.037154
161.600000 -0.978914
161.650000 -0.879563
161.700000 -0.787064
161.750000 -0.763082
161.800000 -0.814472
161.850000 -0.896692
161.900000 -1.002895
161.950000 -1.126227
162.000000 -1.266689
162.050000 -1.420854
162.100000 -1.544186
162.150000 -1.616130
162.200000 -1.664092
162.250000 -1.657240
162.300000 -1.571593
162.350000 -1.475668
162.400000 -1.376317
162.450000 -1.239282
162.500000 -1.119376
162.550000 -1.078265
162.600000 -1.040579
162.650000 -0.968636
162.700000 -0.948081
162.750000 -0.972062
162.800000 -0.985765
162.850000 -0.999469
162.900000 -1.037154
162.950000 -1.033728
163.000000 -0.992618
163.050000 -0.965211
163.100000 -0.927526
163.150000 -0.855582
163.200000 -0.780213
163.250000 -0.718546
163.300000 -0.629473
163.350000 -0.571233
163.400000 -0.543826
163.450000 -0.485586
163.500000 -0.417067
163.550000 -0.399938
163.600000 -0.413642
163.650000 -0.396512
163.700000 -0.396512
163.750000 -0.434197
163.800000 -0.485586
163.850000 -0.543825
163.900000 -0.622621
163.950000 -0.701417
164.000000 -0.790490
164.050000 -0.879563
164.100000 -0.944655
164.150000 -0.996044
164.200000 -1.054283
164.250000 -1.085117
164.300000 -1.074839
164.350000 -1.071413
164.400000 -1.088543
164.450000 -1.088543
164.500000 -1.085117
164.550000 -1.098820
164.600000 -1.095394
164.650000 -1.067987
164.700000 -1.057709
164.750000 -1.064561
164.800000 -1.054283
164.850000 -1.037154
164.900000 -1.033728
164.950000 -1.037154
165.000000 -1.026877
165.050000 -1.002895
165.100000 -0.968636
165.150000 -0.958358
165.200000 -0.958358
165.250000 -0.924100
165.300000 -0.893267
165.350000 -0.900118
165.400000 -0.927525
165.450000 -0.937803
165.500000 -0.954933
165.550000 -0.996043
165.600000 -1.023451
165.650000 -1.033728
165.700000 -1.033728
165.750000 -1.020025
165.800000 -0.982340
165.850000 -0.934377
165.900000 -0.852156
165.950000 -0.769935
166.000000 -0.728824
166.050000 -0.701417
166.100000 -0.646603
166.150000 -0.598641
166.200000 -0.602066
166.250000 -0.622622
166.300000 -0.636325
166.350000 -0.680862
166.400000 -0.759657
166.450000 -0.828174
166.500000 -0.865859
166.550000 -0.886415
166.600000 -0.900119
166.650000 -0.917248
166.700000 -0.917248
166.750000 -0.886415
166.800000 -0.845304
166.850000 -0.824749
166.900000 -0.800767
166.950000 -0.756231
167.000000 -0.715120
167.050000 -0.694565
167.100000 -0.697991
167.150000 -0.721972
167.200000 -0.745953
167.250000 -0.773361
167.300000 -0.821323
167.350000 -0.876138
167.400000 -0.917247
167.450000 -0.941229
167.500000 -0.958358
167.550000 -0.968636
167.600000 -0.982339
167.650000 -0.989191
167.700000 -0.958359
167.750000 -0.920674
167.800000 -0.903544
167.850000 -0.872711
167.900000 -0.817897
167.950000 -0.804193
168.000000 -0.828175
168.050000 -0.828175
168.100000 -0.831601
168.150000 -0.889840
168.200000 -0.965210
168.250000 -1.016598
168.300000 -1.088542
168.350000 -1.181042
168.400000 -1.252985
168.450000 -1.294096
168.500000 -1.331780
168.550000 -1.335206
168.600000 -1.311225
168.650000 -1.276966
168.700000 -1.232430
168.750000 -1.167338
168.800000 -1.102246
168.850000 -1.006321
168.900000 -0.900118
168.950000 -0.848730
169.000000 -0.852156
169.050000 -0.862434
169.100000 -0.889841
169.150000 -0.965210
169.200000 -1.057709
169.250000 -1.139930
169.300000 -1.232430
169.350000 -1.311225
169.400000 -1.359188
169.450000 -1.396873
169.500000 -1.431131
169.550000 -1.431132
169.600000 -1.414002
169.650000 -1.372892
169.700000 -1.311225
169.750000 -1.276967
169.800000 -1.266689
169.850000 -1.222152
169.900000 -1.167337
169.950000 -1.174189
170.000000 -1.201597
170.050000 -1.170764
170.100000 -1.136504
170.150000 -1.136505
170.200000 -1.122801
170.250000 -1.091968
170.300000 -1.081690
170.350000 -1.067987
170.400000 -1.037154
170.450000 -1.057710
170.500000 -1.091968
170.550000 -1.102245
170.600000 -1.139931
170.650000 -1.218726
170.700000 -1.273540
170.750000 -1.324928
170.800000 -1.417428
170.850000 -1.479094
170.900000 -1.475668
170.950000 -1.468817
171.000000 -1.448261
171.050000 -1.386595
171.100000 -1.314651
171.150000 -1.273540
171.200000 -1.208448
171.250000 -1.139931
171.300000 -1.095394
171.350000 -1.054283
171.400000 -0.985765
171.450000 -0.944655
171.500000 -0.948081
171.550000 -0.968636
171.600000 -0.989192
171.650000 -0.989191
171.700000 -0.972062
171.750000 -0.965210
171.800000 -0.985766
171.850000 -1.006321
171.900000 -1.013173
171.950000 -1.026877
172.000000 -1.030303
172.050000 -1.023450
172.100000 -1.009747
172.150000 -0.999469
172.200000 -0.978914
172.250000 -0.951507
172.300000 -0.924100
172.350000 -0.900118
172.400000 -0.879563
172.450000 -0.848730
172.500000 -0.800768
172.550000 -0.783638
172.600000 -0.769935
172.650000 -0.725398
172.700000 -0.677435
172.750000 -0.656880
172.800000 -0.605492
172.850000 -0.509567
172.900000 -0.434197
172.950000 -0.372531
173.000000 -0.286884
173.050000 -0.194385
173.100000 -0.125867
173.150000 -0.098461
173.200000 -0.105312
173.250000 -0.156700
173.300000 -0.238922
173.350000 -0.348550
173.400000 -0.506141
173.450000 -0.680861
173.500000 -0.835026
173.550000 -0.985765
173.600000 -1.146783
173.650000 -1.259837
173.700000 -1.297522
173.750000 -1.304374
173.800000 -1.280392
173.850000 -1.194744
173.900000 -1.067987
173.950000 -0.941229
174.000000 -0.828174
174.050000 -0.735675
174.100000 -0.670583
174.150000 -0.650029
174.200000 -0.660307
174.250000 -0.687713
174.300000 -0.739101
174.350000 -0.824749
174.400000 -0.900118
174.450000 -0.944654
174.500000 -0.975488
174.550000 -0.999469
174.600000 -0.989192
174.650000 -0.924100
174.700000 -0.848730
174.750000 -0.793915
174.800000 -0.763083
174.850000 -0.745954
174.900000 -0.745953
174.950000 -0.787064
175.000000 -0.865859
175.050000 -0.958358
175.100000 -1.044006
175.150000 -1.146783
175.200000 -1.256410
175.250000 -1.331780
175.300000 -1.386594
175.350000 -1.455112
175.400000 -1.506500
175.450000 -1.516778
175.500000 -1.547612
175.550000 -1.612704
175.600000 -1.636685
175.650000 -1.609278
175.700000 -1.595575
175.750000 -1.571592
175.800000 -1.506501
175.850000 -1.451687
175.900000 -1.390021
175.950000 -1.280392
176.000000 -1.157060
176.050000 -1.074839
176.100000 -1.002895
176.150000 -0.917248
176.200000 -0.872711
176.250000 -0.889841
176.300000 -0.913822
176.350000 -0.934377
176.400000 -0.972062
176.450000 -0.996043
176.500000 -0.992618
176.550000 -0.972062
176.600000 -0.927525
176.650000 -0.824749
176.700000 -0.694565
176.750000 -0.584937
176.800000 -0.482160
176.850000 -0.375957
176.900000 -0.300588
176.950000 -0.269754
177.000000 -0.273180
177.050000 -0.314291
177.100000 -0.382809
177.150000 -0.471882
177.200000 -0.571233
177.250000 -0.677435
177.300000 -0.763083
177.350000 -0.821323
177.400000 -0.852156
177.450000 -0.831600
177.500000 -0.773360
177.550000 -0.725398
177.600000 -0.687713
177.650000 -0.639751
177.700000 -0.591788
177.750000 -0.584936
177.800000 -0.602066
177.850000 -0.632899
177.900000 -0.687713
177.950000 -0.763082
178.000000 -0.824749
178.050000 -0.882989
178.100000 -0.941229
178.150000 -0.972062
178.200000 -0.965210
178.250000 -0.961785
178.300000 -0.951507
178.350000 -0.913821
178.400000 -0.889840
178.450000 -0.876137
178.500000 -0.817897
178.550000 -0.756231
178.600000 -0.749379
178.650000 -0.749379
178.700000 -0.721972
178.750000 -0.715121
178.800000 -0.749379
178.850000 -0.790490
178.900000 -0.828175
178.950000 -0.865859
179.000000 -0.903544
179.050000 -0.948081
179.100000 -0.999470
179.150000 -1.020024
179.200000 -1.023451
179.250000 -1.040580
179.300000 -1.047432
179.350000 -1.013173
179.400000 -0.965210
179.450000 -0.917248
179.500000 -0.852156
179.550000 -0.787064
179.600000 -0.739101
179.650000 -0.718546
179.700000 -0.715120
179.750000 -0.728824
179.800000 -0.763082
179.850000 -0.814471
179.900000 -0.889840
179.950000 -0.975488
180.000000 -1.067987
180.050000 -1.163912
180.100000 -1.229004
180.150000 -1.263263
180.200000 -1.300947
180.250000 -1.307799
180.300000 -1.249559
180.350000 -1.201596
180.400000 -1.198171
180.450000 -1.163912
180.500000 -1.112523
180.550000 -1.105671
180.600000 -1.112524
180.650000 -1.091968
180.700000 -1.102246
180.750000 -1.146782
180.800000 -1.157060
180.850000 -1.126227
180.900000 -1.105672
180.950000 -1.109098
181.000000 -1.105671
181.050000 -1.071412
181.100000 -1.002895
181.150000 -0.948081
181.200000 -0.927526
181.250000 -0.900119
181.300000 -0.882989
181.350000 -0.924099
181.400000 -0.989191
181.450000 -1.009747
181.500000 -1.016599
181.550000 -1.050857
181.600000 -1.047432
181.650000 -0.985766
181.700000 -0.924099
181.750000 -0.886415
181.800000 -0.852156
181.850000 -0.814472
181.900000 -0.811045
181.950000 -0.855582
182.000000 -0.924100
182.050000 -0.996044
182.100000 -1.078264
182.150000 -1.187893
182.200000 -1.287244
182.250000 -1.338633
182.300000 -1.345484
182.350000 -1.307799
182.400000 -1.222152
182.450000 -1.098820
182.500000 -0.954933
182.550000 -0.800767
182.600000 -0.667157
182.650000 -0.547251
182.700000 -0.447901
182.750000 -0.389661
182.800000 -0.389661
182.850000 -0.406791
182.900000 -0.427345
182.950000 -0.465030
183.000000 -0.512993
183.050000 -0.554104
183.100000 -0.598640
183.150000 -0.632899
183.200000 -0.643176
183.250000 -0.650028
183.300000 -0.674010
183.350000 -0.701417
183.400000 -0.732249
183.450000 -0.769935
183.500000 -0.811045
183.550000 -0.859008
183.600000 -0.930951
183.650000 -0.989192
183.700000 -1.013173
183.750000 -1.009747
183.800000 -0.985766
183.850000 -0.944655
183.900000 -0.917248
183.950000 -0.913822
184.000000 -0.893266
184.050000 -0.869285
184.100000 -0.882988
184.150000 -0.920674
184.200000 -0.965210
184.250000 -1.040579
184.300000 -1.133079
184.350000 -1.205023
184.400000 -1.256411
184.450000 -1.280392
184.500000 -1.256411
184.550000 -1.208449
184.600000 -1.150208
184.650000 -1.064561
184.700000 -0.941229
184.750000 -0.845305
184.800000 -0.787064
184.850000 -0.739101
184.900000 -0.701416
184.950000 -0.708269
185.000000 -0.759657
185.050000 -0.835026
185.100000 -0.917248
185.150000 -0.999469
185.200000 -1.105671
185.250000 -1.205022
185.300000 -1.249559
185.350000 -1.270114
185.400000 -1.311225
185.450000 -1.304373
185.500000 -1.211874
185.550000 -1.112523
185.600000 -1.033728
185.650000 -0.910396
185.700000 -0.742527
185.750000 -0.598640
185.800000 -0.471882
185.850000 -0.358828
185.900000 -0.290310
185.950000 -0.256051
186.000000 -0.242347
186.050000 -0.297162
186.100000 -0.393086
186.150000 -0.485585
186.200000 -0.591788
186.250000 -0.721972
186.300000 -0.835026
186.350000 -0.930952
186.400000 -1.030302
186.450000 -1.088543
186.500000 -1.095395
186.550000 -1.095394
186.600000 -1.088542
186.650000 -1.040580
186.700000 -0.982340
186.750000 -0.941229
186.800000 -0.889841
186.850000 -0.852156
186.900000 -0.831600
186.950000 -0.811045
187.000000 -0.780212
187.050000 -0.763083
187.100000 -0.773360
187.150000 -0.811046
187.200000 -0.879563
187.250000 -0.937803
187.300000 -0.961785
187.350000 -0.989192
187.400000 -1.016598
187.450000 -1.023451
187.500000 -1.023451
187.550000 -1.037154
187.600000 -1.044005
187.650000 -1.037154
187.700000 -1.037154
187.750000 -1.026876
187.800000 -0.972062
187.850000 -0.906970
187.900000 -0.855582
187.950000 -0.790490
188.000000 -0.711694
188.050000 -0.643176
188.100000 -0.588362
188.150000 -0.547251
188.200000 -0.530122
188.250000 -0.519844
188.300000 -0.519844
188.350000 -0.564381
188.400000 -0.656880
188.450000 -0.745953
188.500000 -0.807619
188.550000 -0.855582
188.600000 -0.900119
188.650000 -0.924099
188.700000 -0.913822
188.750000 -0.896693
188.800000 -0.882988
