time[ns] Raw_signal[mV]
-11.100000 -0.201647
-11.050000 -0.040631
-11.000000 0.099831
-10.950000 0.223163
-10.900000 0.308810
-10.850000 0.332791
-10.800000 0.301958
-10.750000 0.230014
-10.700000 0.120387
-10.650000 -0.020076
-10.600000 -0.167389
-10.550000 -0.297573
-10.500000 -0.410627
-10.450000 -0.482570
-10.400000 -0.509978
-10.350000 -0.516830
-10.300000 -0.496274
-10.250000 -0.434608
-10.200000 -0.376367
-10.150000 -0.352387
-10.100000 -0.348961
-10.050000 -0.352387
-10.000000 -0.383220
-9.950000 -0.431182
-9.900000 -0.455164
-9.850000 -0.482571
-9.800000 -0.503126
-9.750000 -0.479145
-9.700000 -0.410627
-9.650000 -0.345535
-9.600000 -0.259888
-9.550000 -0.119426
-9.500000 0.014184
-9.450000 0.106683
-9.400000 0.195756
-9.350000 0.271125
-9.300000 0.305384
-9.250000 0.319088
-9.200000 0.332792
-9.150000 0.339643
-9.100000 0.353346
-9.050000 0.380754
-9.000000 0.415013
-8.950000 0.452698
-8.900000 0.510937
-8.850000 0.586307
-8.800000 0.654825
-8.750000 0.699361
-8.700000 0.685658
-8.650000 0.637695
-8.600000 0.572604
-8.550000 0.476679
-8.500000 0.349920
-8.450000 0.226589
-8.400000 0.127238
-8.350000 0.038165
-8.300000 -0.026927
-8.250000 -0.020076
-8.200000 0.045017
-8.150000 0.144368
-8.100000 0.267699
-8.050000 0.408161
-8.000000 0.552049
-7.950000 0.668529
-7.900000 0.740472
-7.850000 0.743898
-7.800000 0.678807
-7.750000 0.572604
-7.700000 0.428716
-7.650000 0.260848
-7.600000 0.096404
-7.550000 -0.040631
-7.500000 -0.143407
-7.450000 -0.198221
-7.400000 -0.167389
-7.350000 -0.074889
-7.300000 0.038165
-7.250000 0.185478
-7.200000 0.367050
-7.150000 0.521215
-7.100000 0.610288
-7.050000 0.668529
-7.000000 0.706213
-6.950000 0.692510
-6.900000 0.647973
-6.850000 0.593159
-6.800000 0.517789
-6.750000 0.408161
-6.700000 0.329366
-6.650000 0.315662
-6.600000 0.339643
-6.550000 0.377328
-6.500000 0.432142
-6.450000 0.476679
-6.400000 0.486957
-6.350000 0.486956
-6.300000 0.452698
-6.250000 0.387605
-6.200000 0.360198
-6.150000 0.367051
-6.100000 0.349921
-6.050000 0.325940
-6.000000 0.349920
-5.950000 0.404735
-5.900000 0.466401
-5.850000 0.558900
-5.800000 0.668529
-5.750000 0.730195
-5.700000 0.774732
-5.650000 0.802138
-5.600000 0.785009
-5.550000 0.743898
-5.500000 0.726769
-5.450000 0.692510
-5.400000 0.637695
-5.350000 0.644547
-5.300000 0.709639
-5.250000 0.764453
-5.200000 0.832971
-5.150000 0.935748
-5.100000 1.038524
-5.050000 1.137876
-5.000000 1.216671
-4.950000 1.230375
-4.900000 1.185838
-4.850000 1.107042
-4.800000 0.973432
-4.750000 0.771305
-4.700000 0.562326
-4.650000 0.391031
-4.600000 0.209459
-4.550000 0.007332
-4.500000 -0.139981
-4.450000 -0.215351
-4.400000 -0.246184
-4.350000 -0.249610
-4.300000 -0.235907
-4.250000 -0.194796
-4.200000 -0.126278
-4.150000 -0.047482
-4.100000 0.021035
-4.050000 0.096405
-4.000000 0.182052
-3.950000 0.230015
-3.900000 0.247144
-3.850000 0.291681
-3.800000 0.343069
-3.750000 0.356773
-3.700000 0.360198
-3.650000 0.387605
-3.600000 0.411587
-3.550000 0.415012
-3.500000 0.401310
-3.450000 0.394457
-3.400000 0.384180
-3.350000 0.363624
-3.300000 0.346495
-3.250000 0.298532
-3.200000 0.168348
-3.150000 0.055294
-3.100000 0.048442
-3.050000 0.014183
-3.000000 -0.119426
-2.950000 -0.146833
-2.900000 -0.044056
-2.850000 -0.044057
-2.800000 -0.122852
-2.750000 -0.116001
-2.700000 -0.129703
-2.650000 -0.170815
-2.600000 -0.033779
-2.550000 0.113535
-2.500000 0.007332
-2.450000 -0.064611
-2.400000 0.089553
-2.350000 0.089553
-2.300000 -0.068037
-2.250000 0.024461
-2.200000 0.199182
-2.150000 0.134090
-2.100000 0.147793
-2.050000 0.421864
-2.000000 0.524641
-1.950000 0.339643
-1.900000 0.253995
-1.850000 0.315662
-1.800000 0.349921
-1.750000 0.384180
-1.700000 0.353347
-1.650000 0.144367
-1.600000 0.010757
-1.550000 0.045016
-1.500000 -0.040630
-1.450000 -0.187944
-1.400000 -0.064612
-1.350000 0.140941
-1.300000 0.144367
-1.250000 0.144368
-1.200000 0.216311
-1.150000 0.158071
-1.100000 0.130664
-1.050000 0.288255
-1.000000 0.219737
-0.950000 -0.160537
-0.900000 -0.328405
-0.850000 -0.229055
-0.800000 -0.300999
-0.750000 -0.438033
-0.700000 -0.331832
-0.650000 -0.208499
-0.600000 -0.218777
-0.550000 -0.098871
-0.500000 0.151219
-0.450000 0.253996
-0.400000 0.288255
-0.350000 0.404735
-0.300000 0.510938
-0.250000 0.486956
-0.200000 0.411587
-0.150000 0.291681
-0.100000 0.134090
-0.050000 -0.002946
0.000000 -0.102297
0.050000 -0.150259
0.100000 -0.133130
0.150000 -0.092019
0.200000 -0.040631
0.250000 0.140941
0.300000 0.449271
0.350000 0.661677
0.400000 0.750750
0.450000 0.952877
0.500000 1.271485
0.550000 1.435928
0.600000 1.470187
0.650000 1.538705
0.700000 1.572964
0.750000 1.504446
0.800000 1.518149
0.850000 1.720276
0.900000 2.045737
0.950000 2.628137
1.000000 3.683312
1.050000 5.269498
1.100000 7.451791
1.150000 10.456293
1.200000 14.344686
1.250000 19.010744
1.300000 24.451054
1.350000 30.699882
1.400000 37.555090
1.450000 44.739183
1.500000 52.101416
1.550000 59.573278
1.600000 67.031438
1.650000 74.270358
1.700000 81.159808
1.750000 87.689568
1.800000 93.801348
1.850000 99.323888
1.900000 104.168098
1.950000 108.395638
2.000000 111.979128
2.050000 114.757528
2.100000 116.665738
2.150000 117.751748
2.200000 118.042948
2.250000 117.515368
2.300000 116.162138
2.350000 113.969568
2.400000 111.009598
2.450000 107.408988
2.500000 103.212268
2.550000 98.477688
2.600000 93.379958
2.650000 88.052708
2.700000 82.519888
2.750000 76.870598
2.800000 71.252148
2.850000 65.674788
2.900000 60.196798
2.950000 55.081948
3.000000 50.460418
3.050000 46.280828
3.100000 42.690498
3.150000 39.888128
3.200000 37.812028
3.250000 36.376578
3.300000 35.657138
3.350000 35.605758
3.400000 36.047688
3.450000 36.911028
3.500000 38.161478
3.550000 39.668858
3.600000 41.296158
3.650000 42.926878
3.700000 44.482238
3.750000 45.924538
3.800000 47.216098
3.850000 48.267838
3.900000 49.024958
3.950000 49.477188
4.000000 49.593668
4.050000 49.329878
4.100000 48.685798
4.150000 47.661458
4.200000 46.256848
4.250000 44.495938
4.300000 42.440408
4.350000 40.117658
4.400000 37.572218
4.450000 34.906868
4.500000 32.193568
4.550000 29.456278
4.600000 26.756688
4.650000 24.183838
4.700000 21.816548
4.750000 19.702770
4.800000 17.863068
4.850000 16.341974
4.900000 15.194304
4.950000 14.416626
5.000000 13.940427
5.050000 13.752006
5.100000 13.875336
5.150000 14.228200
5.200000 14.745508
5.250000 15.444392
5.300000 16.300868
5.350000 17.195022
5.400000 18.089181
5.450000 19.010747
5.500000 19.884343
5.550000 20.638037
5.600000 21.288962
5.650000 21.847380
5.700000 22.261915
5.750000 22.481173
5.800000 22.505157
5.850000 22.337279
5.900000 21.980988
5.950000 21.432849
6.000000 20.713412
6.050000 19.846663
6.100000 18.853150
6.150000 17.743165
6.200000 16.561233
6.250000 15.341614
6.300000 14.115147
6.350000 12.929789
6.400000 11.823227
6.450000 10.812589
6.500000 9.887599
6.550000 9.037978
6.600000 8.274005
6.650000 7.616233
6.700000 7.068091
6.750000 6.612448
6.800000 6.286988
6.850000 6.098564
6.900000 6.002639
6.950000 5.985510
7.000000 6.078009
7.050000 6.290414
7.100000 6.591893
7.150000 6.951611
7.200000 7.352440
7.250000 7.780679
7.300000 8.239745
7.350000 8.667978
7.400000 9.007147
7.450000 9.267515
7.500000 9.462787
7.550000 9.579264
7.600000 9.606676
7.650000 9.575842
7.700000 9.521028
7.750000 9.435381
7.800000 9.294920
7.850000 9.089366
7.900000 8.822147
7.950000 8.524094
8.000000 8.178080
8.050000 7.760121
8.100000 7.259941
8.150000 6.694669
8.200000 6.071157
8.250000 5.430516
8.300000 4.786448
8.350000 4.169788
8.400000 3.601090
8.450000 3.111188
8.500000 2.703508
8.550000 2.381474
8.600000 2.151939
8.650000 1.997774
8.700000 1.912126
8.750000 1.877868
8.800000 1.884719
8.850000 1.929256
8.900000 2.001200
8.950000 2.110828
9.000000 2.261568
9.050000 2.426011
9.100000 2.590453
9.150000 2.782303
9.200000 3.022115
9.250000 3.279057
9.300000 3.515443
9.350000 3.710719
9.400000 3.861458
9.450000 3.984790
9.500000 4.073863
9.550000 4.125251
9.600000 4.128677
9.650000 4.070438
9.700000 3.957383
9.750000 3.854607
9.800000 3.751830
9.850000 3.618220
9.900000 3.464054
9.950000 3.327019
10.000000 3.159151
10.050000 2.936468
10.100000 2.710359
10.150000 2.456843
10.200000 2.138235
10.250000 1.771666
10.300000 1.401669
10.350000 0.993988
10.400000 0.593159
10.450000 0.247144
10.500000 -0.050909
10.550000 -0.307850
10.600000 -0.496274
10.650000 -0.609328
10.700000 -0.650439
10.750000 -0.616180
10.800000 -0.530533
10.850000 -0.438034
10.900000 -0.342109
10.950000 -0.232481
11.000000 -0.119426
11.050000 -0.016649
11.100000 0.072424
11.150000 0.154645
11.200000 0.253996
11.250000 0.380754
11.300000 0.510937
11.350000 0.647974
11.400000 0.805564
11.450000 0.970006
11.500000 1.144727
11.550000 1.333151
11.600000 1.504445
11.650000 1.631204
11.700000 1.703148
11.750000 1.706574
11.800000 1.631203
11.850000 1.483891
11.900000 1.257781
11.950000 0.956303
12.000000 0.593159
12.050000 0.216311
12.100000 -0.157111
12.150000 -0.533959
12.200000 -0.910807
12.250000 -1.239692
12.300000 -1.489782
12.350000 -1.698762
12.400000 -1.842649
12.450000 -1.887185
12.500000 -1.897463
12.550000 -1.935148
12.600000 -1.907741
12.650000 -1.784409
12.700000 -1.664502
12.750000 -1.575430
12.800000 -1.421264
12.850000 -1.239692
12.900000 -1.109509
12.950000 -0.989602
13.000000 -0.794327
13.050000 -0.578495
13.100000 -0.379794
13.150000 -0.170814
13.200000 0.045017
13.250000 0.230015
13.300000 0.384179
13.350000 0.531493
13.400000 0.658251
13.450000 0.740472
13.500000 0.781583
13.550000 0.764454
13.600000 0.675381
13.650000 0.545196
13.700000 0.401309
13.750000 0.199181
13.800000 -0.061186
13.850000 -0.307850
13.900000 -0.530532
13.950000 -0.773771
14.000000 -1.037565
14.050000 -1.246544
14.100000 -1.410987
14.150000 -1.589133
14.200000 -1.746724
14.250000 -1.839223
14.300000 -1.894037
14.350000 -1.942000
14.400000 -1.952277
14.450000 -1.924870
14.500000 -1.880334
14.550000 -1.811816
14.600000 -1.712465
14.650000 -1.609689
14.700000 -1.510337
14.750000 -1.393857
14.800000 -1.246544
14.850000 -1.099231
14.900000 -0.938214
14.950000 -0.770345
15.000000 -0.623032
15.050000 -0.516830
15.100000 -0.438034
15.150000 -0.379794
15.200000 -0.359238
15.250000 -0.386646
15.300000 -0.455163
15.350000 -0.551088
15.400000 -0.643587
15.450000 -0.749790
15.500000 -0.897104
15.550000 -1.054694
15.600000 -1.150619
15.650000 -1.202008
15.700000 -1.246544
15.750000 -1.291080
15.800000 -1.297932
15.850000 -1.294506
15.900000 -1.318488
15.950000 -1.349321
16.000000 -1.383579
16.050000 -1.438394
16.100000 -1.524041
16.150000 -1.609688
16.200000 -1.709039
16.250000 -1.811816
16.300000 -1.894037
16.350000 -1.914592
16.400000 -1.887186
16.450000 -1.804964
16.500000 -1.661077
16.550000 -1.486356
16.600000 -1.304784
16.650000 -1.088953
16.700000 -0.869696
16.750000 -0.701827
16.800000 -0.592199
16.850000 -0.496274
16.900000 -0.420905
16.950000 -0.400349
17.000000 -0.420905
17.050000 -0.462015
17.100000 -0.513404
17.150000 -0.578495
17.200000 -0.657291
17.250000 -0.739512
17.300000 -0.849141
17.350000 -0.975898
17.400000 -1.116360
17.450000 -1.253396
17.500000 -1.410987
17.550000 -1.589133
17.600000 -1.787834
17.650000 -2.007091
17.700000 -2.229774
17.750000 -2.428476
17.800000 -2.603197
17.850000 -2.753935
17.900000 -2.853286
17.950000 -2.894397
18.000000 -2.877268
18.050000 -2.801898
18.100000 -2.671714
18.150000 -2.531253
18.200000 -2.373662
18.250000 -2.174960
18.300000 -1.965981
18.350000 -1.787834
18.400000 -1.602837
18.450000 -1.414413
18.500000 -1.270525
18.550000 -1.167749
18.600000 -1.064972
18.650000 -0.955344
18.700000 -0.879973
18.750000 -0.842289
18.800000 -0.787475
18.850000 -0.701827
18.900000 -0.616180
18.950000 -0.564792
19.000000 -0.540810
19.050000 -0.533959
19.100000 -0.561366
19.150000 -0.636735
19.200000 -0.753216
19.250000 -0.890251
19.300000 -1.051268
19.350000 -1.239693
19.400000 -1.445246
19.450000 -1.664502
19.500000 -1.887185
19.550000 -2.089313
19.600000 -2.226349
19.650000 -2.318847
19.700000 -2.377088
19.750000 -2.397643
19.800000 -2.407921
19.850000 -2.401069
19.900000 -2.366810
19.950000 -2.305144
20.000000 -2.253756
20.050000 -2.198941
20.100000 -2.130424
20.150000 -2.072183
20.200000 -2.027647
20.250000 -1.962555
20.300000 -1.876908
20.350000 -1.787835
20.400000 -1.685057
20.450000 -1.565152
20.500000 -1.417839
20.550000 -1.253396
20.600000 -1.099230
20.650000 -0.996454
20.700000 -0.917658
20.750000 -0.842289
20.800000 -0.804604
20.850000 -0.808030
20.900000 -0.835437
20.950000 -0.914233
21.000000 -1.034139
21.050000 -1.164322
21.100000 -1.297932
21.150000 -1.431542
21.200000 -1.537745
21.250000 -1.595985
21.300000 -1.619966
21.350000 -1.633670
21.400000 -1.613114
21.450000 -1.561726
21.500000 -1.506912
21.550000 -1.431542
21.600000 -1.339043
21.650000 -1.287655
21.700000 -1.287655
21.750000 -1.253396
21.800000 -1.191729
21.850000 -1.174600
21.900000 -1.191729
21.950000 -1.174600
22.000000 -1.140341
22.050000 -1.136916
22.100000 -1.133490
22.150000 -1.095805
22.200000 -1.034139
22.250000 -0.948491
22.300000 -0.842289
22.350000 -0.756642
22.400000 -0.694976
22.450000 -0.609328
22.500000 -0.509978
22.550000 -0.424331
22.600000 -0.372943
22.650000 -0.369516
22.700000 -0.414053
22.750000 -0.462015
22.800000 -0.537385
22.850000 -0.667568
22.900000 -0.849141
22.950000 -1.054694
23.000000 -1.256822
23.050000 -1.441819
23.100000 -1.626818
23.150000 -1.822094
23.200000 -1.976258
23.250000 -2.072183
23.300000 -2.140701
23.350000 -2.168109
23.400000 -2.140701
23.450000 -2.082461
23.500000 -2.037924
23.550000 -1.986536
23.600000 -1.918019
23.650000 -1.870056
23.700000 -1.849501
23.750000 -1.818668
23.800000 -1.780983
23.850000 -1.757001
23.900000 -1.726169
23.950000 -1.671354
24.000000 -1.606263
24.050000 -1.544596
24.100000 -1.469227
24.150000 -1.369877
24.200000 -1.260248
24.250000 -1.154045
24.300000 -1.058120
24.350000 -0.982750
24.400000 -0.900529
24.450000 -0.849140
24.500000 -0.866270
24.550000 -0.917659
24.600000 -0.962195
24.650000 -1.030713
24.700000 -1.167749
24.750000 -1.328765
24.800000 -1.479504
24.850000 -1.623392
24.900000 -1.777557
24.950000 -1.931722
25.000000 -2.041350
25.050000 -2.092739
25.100000 -2.116720
25.150000 -2.144127
25.200000 -2.137276
25.250000 -2.092738
25.300000 -2.065332
25.350000 -2.055054
25.400000 -2.024221
25.450000 -1.986536
25.500000 -1.945426
25.550000 -1.856353
25.600000 -1.722743
25.650000 -1.589133
25.700000 -1.434968
25.750000 -1.243118
25.800000 -1.047842
25.850000 -0.849141
25.900000 -0.653865
25.950000 -0.496274
26.000000 -0.396923
26.050000 -0.355813
26.100000 -0.410627
26.150000 -0.557940
26.200000 -0.746364
26.250000 -0.982751
26.300000 -1.297932
26.350000 -1.602836
26.400000 -1.832371
26.450000 -2.031072
26.500000 -2.216071
26.550000 -2.305144
26.600000 -2.294867
26.650000 -2.233201
26.700000 -2.103017
26.750000 -1.897463
26.800000 -1.674781
26.850000 -1.448672
26.900000 -1.222562
26.950000 -1.051268
27.000000 -0.972473
27.050000 -0.958769
27.100000 -1.013583
27.150000 -1.150619
27.200000 -1.342469
27.250000 -1.568578
27.300000 -1.828945
27.350000 -2.082461
27.400000 -2.288014
27.450000 -2.445605
27.500000 -2.555234
27.550000 -2.582641
27.600000 -2.541531
27.650000 -2.462735
27.700000 -2.332551
27.750000 -2.188664
27.800000 -2.068758
27.850000 -1.962555
27.900000 -1.876908
27.950000 -1.849500
28.000000 -1.883759
28.050000 -1.955703
28.100000 -2.082461
28.150000 -2.236626
28.200000 -2.353106
28.250000 -2.431902
28.300000 -2.517550
28.350000 -2.592919
28.400000 -2.637455
28.450000 -2.640881
28.500000 -2.616900
28.550000 -2.592919
28.600000 -2.575789
28.650000 -2.531253
28.700000 -2.490142
28.750000 -2.466161
28.800000 -2.411347
28.850000 -2.311996
28.900000 -2.240053
28.950000 -2.157830
29.000000 -2.000240
29.050000 -1.835797
29.100000 -1.722743
29.150000 -1.589133
29.200000 -1.428116
29.250000 -1.321914
29.300000 -1.280803
29.350000 -1.260247
29.400000 -1.304784
29.450000 -1.414413
29.500000 -1.537745
29.550000 -1.695336
29.600000 -1.897463
29.650000 -2.065332
29.700000 -2.168108
29.750000 -2.260608
29.800000 -2.301718
29.850000 -2.253756
29.900000 -2.185238
29.950000 -2.103017
30.000000 -1.948851
30.050000 -1.760428
30.100000 -1.616540
30.150000 -1.510337
30.200000 -1.417838
30.250000 -1.380154
30.300000 -1.387005
30.350000 -1.428116
30.400000 -1.513763
30.450000 -1.619966
30.500000 -1.715891
30.550000 -1.839223
30.600000 -1.972833
30.650000 -2.034499
30.700000 -2.031073
30.750000 -2.034499
30.800000 -1.983111
30.850000 -1.856353
30.900000 -1.733021
30.950000 -1.637095
31.000000 -1.513764
31.050000 -1.417839
31.100000 -1.421265
31.150000 -1.472653
31.200000 -1.534319
31.250000 -1.661077
31.300000 -1.849500
31.350000 -2.017369
31.400000 -2.161257
31.450000 -2.298293
31.500000 -2.394217
31.550000 -2.438753
31.600000 -2.438754
31.650000 -2.366810
31.700000 -2.253756
31.750000 -2.130424
31.800000 -2.000239
31.850000 -1.870056
31.900000 -1.794686
31.950000 -1.774131
32.000000 -1.804964
32.050000 -1.880333
32.100000 -1.996814
32.150000 -2.123572
32.200000 -2.257182
32.250000 -2.383940
32.300000 -2.455883
32.350000 -2.462735
32.400000 -2.435328
32.450000 -2.370236
32.500000 -2.257182
32.550000 -2.106442
32.600000 -1.948852
32.650000 -1.815241
32.700000 -1.726169
32.750000 -1.640521
32.800000 -1.568578
32.850000 -1.537744
32.900000 -1.548023
32.950000 -1.561726
33.000000 -1.565152
33.050000 -1.572003
33.100000 -1.568578
33.150000 -1.548022
33.200000 -1.541170
33.250000 -1.554874
33.300000 -1.572004
33.350000 -1.592559
33.400000 -1.630243
33.450000 -1.664503
33.500000 -1.691910
33.550000 -1.709039
33.600000 -1.712465
33.650000 -1.719317
33.700000 -1.750150
33.750000 -1.774132
33.800000 -1.784409
33.850000 -1.825520
33.900000 -1.924871
33.950000 -2.041350
34.000000 -2.185238
34.050000 -2.373662
34.100000 -2.579216
34.150000 -2.774491
34.200000 -2.962915
34.250000 -3.144487
34.300000 -3.271245
34.350000 -3.305504
34.400000 -3.264393
34.450000 -3.182172
34.500000 -3.069117
34.550000 -2.921804
34.600000 -2.771065
34.650000 -2.640882
34.700000 -2.534679
34.750000 -2.438754
34.800000 -2.363384
34.850000 -2.335977
34.900000 -2.356532
34.950000 -2.373662
35.000000 -2.359958
35.050000 -2.349680
35.100000 -2.359958
35.150000 -2.329125
35.200000 -2.240052
35.250000 -2.137275
35.300000 -2.034499
35.350000 -1.921444
35.400000 -1.811816
35.450000 -1.733021
35.500000 -1.702188
35.550000 -1.729594
35.600000 -1.811815
35.650000 -1.931722
35.700000 -2.089313
35.750000 -2.294866
35.800000 -2.510697
35.850000 -2.712825
35.900000 -2.908100
35.950000 -3.062266
36.000000 -3.141061
36.050000 -3.165043
36.100000 -3.137635
36.150000 -3.034858
36.200000 -2.901249
36.250000 -2.784769
36.300000 -2.658011
36.350000 -2.514123
36.400000 -2.418199
36.450000 -2.359958
36.500000 -2.284589
36.550000 -2.212645
36.600000 -2.185238
36.650000 -2.150979
36.700000 -2.072183
36.750000 -1.959129
36.800000 -1.856352
36.850000 -1.770705
36.900000 -1.674781
36.950000 -1.575430
37.000000 -1.513763
37.050000 -1.534318
37.100000 -1.599411
37.150000 -1.719317
37.200000 -1.914593
37.250000 -2.150979
37.300000 -2.380513
37.350000 -2.627178
37.400000 -2.884120
37.450000 -3.093099
37.500000 -3.230134
37.550000 -3.329485
37.600000 -3.377447
37.650000 -3.315781
37.700000 -3.161617
37.750000 -2.956063
37.800000 -2.723103
37.850000 -2.486716
37.900000 -2.260608
37.950000 -2.072184
38.000000 -1.931722
38.050000 -1.870056
38.100000 -1.890612
38.150000 -1.996814
38.200000 -2.157831
38.250000 -2.339403
38.300000 -2.531253
38.350000 -2.719676
38.400000 -2.873842
38.450000 -2.983470
38.500000 -3.055414
38.550000 -3.058840
38.600000 -2.986896
38.650000 -2.901249
38.700000 -2.812175
38.750000 -2.685418
38.800000 -2.555234
38.850000 -2.476438
38.900000 -2.438754
38.950000 -2.421624
39.000000 -2.414773
39.050000 -2.411346
39.100000 -2.435328
39.150000 -2.483290
39.200000 -2.510697
39.250000 -2.517549
39.300000 -2.524401
39.350000 -2.510697
39.400000 -2.486716
39.450000 -2.473012
39.500000 -2.435328
39.550000 -2.339402
39.600000 -2.236626
39.650000 -2.164682
39.700000 -2.075609
39.750000 -1.976259
39.800000 -1.938574
39.850000 -1.918019
39.900000 -1.870056
39.950000 -1.839223
40.000000 -1.835797
40.050000 -1.828945
40.100000 -1.842649
40.150000 -1.897463
40.200000 -1.979684
40.250000 -2.061906
40.300000 -2.178387
40.350000 -2.322273
40.400000 -2.462735
40.450000 -2.603196
40.500000 -2.753936
40.550000 -2.884119
40.600000 -2.962915
40.650000 -2.973193
40.700000 -2.956064
40.750000 -2.904675
40.800000 -2.784769
40.850000 -2.606622
40.900000 -2.404495
40.950000 -2.202367
41.000000 -2.024221
41.050000 -1.911167
41.100000 -1.852927
41.150000 -1.852926
41.200000 -1.924870
41.250000 -2.068757
41.300000 -2.253755
41.350000 -2.455883
41.400000 -2.658010
41.450000 -2.839583
41.500000 -2.949211
41.550000 -2.990322
41.600000 -2.973193
41.650000 -2.925231
41.700000 -2.849860
41.750000 -2.750509
41.800000 -2.644307
41.850000 -2.579215
41.900000 -2.575789
41.950000 -2.599771
42.000000 -2.647733
42.050000 -2.740233
42.100000 -2.853286
42.150000 -2.945786
42.200000 -3.014303
42.250000 -3.069117
42.300000 -3.089673
42.350000 -3.058840
42.400000 -2.973193
42.450000 -2.825880
42.500000 -2.640882
42.550000 -2.445605
42.600000 -2.250330
42.650000 -2.061906
42.700000 -1.931722
42.750000 -1.880334
42.800000 -1.866630
42.850000 -1.890612
42.900000 -1.979684
42.950000 -2.130424
43.000000 -2.291441
43.050000 -2.455884
43.100000 -2.603197
43.150000 -2.716251
43.200000 -2.784769
43.250000 -2.812176
43.300000 -2.781342
43.350000 -2.709399
43.400000 -2.620326
43.450000 -2.500420
43.500000 -2.325700
43.550000 -2.150978
43.600000 -2.010517
43.650000 -1.887186
43.700000 -1.794687
43.750000 -1.780982
43.800000 -1.822093
43.850000 -1.873482
43.900000 -1.959129
43.950000 -2.085887
44.000000 -2.216071
44.050000 -2.349681
44.100000 -2.514124
44.150000 -2.658011
44.200000 -2.719676
44.250000 -2.736807
44.300000 -2.747084
44.350000 -2.702547
44.400000 -2.606622
44.450000 -2.500419
44.500000 -2.377087
44.550000 -2.219497
44.600000 -2.096164
44.650000 -2.027647
44.700000 -1.976258
44.750000 -1.948852
44.800000 -1.996814
44.850000 -2.096165
44.900000 -2.212645
44.950000 -2.373662
45.000000 -2.572364
45.050000 -2.743658
45.100000 -2.887545
45.150000 -3.014303
45.200000 -3.099950
45.250000 -3.120506
45.300000 -3.103377
45.350000 -3.031433
45.400000 -2.894397
45.450000 -2.736807
45.500000 -2.562085
45.550000 -2.353106
45.600000 -2.147553
45.650000 -1.969407
45.700000 -1.818668
45.750000 -1.709039
45.800000 -1.671354
45.850000 -1.688484
45.900000 -1.739872
45.950000 -1.815241
46.000000 -1.897463
46.050000 -1.993388
46.100000 -2.116720
46.150000 -2.226348
46.200000 -2.294866
46.250000 -2.332551
46.300000 -2.363384
46.350000 -2.387365
46.400000 -2.401068
46.450000 -2.387365
46.500000 -2.346255
46.550000 -2.301718
46.600000 -2.277737
46.650000 -2.222923
46.700000 -2.147553
46.750000 -2.106443
46.800000 -2.082461
46.850000 -2.034499
46.900000 -1.993388
46.950000 -1.962555
47.000000 -1.931722
47.050000 -1.914592
47.100000 -1.969406
47.150000 -2.058480
47.200000 -2.161257
47.250000 -2.298292
47.300000 -2.442179
47.350000 -2.558660
47.400000 -2.681992
47.450000 -2.819027
47.500000 -2.935508
47.550000 -3.024581
47.600000 -3.086247
47.650000 -3.099950
47.700000 -3.072544
47.750000 -3.045137
47.800000 -3.014303
47.850000 -2.956064
47.900000 -2.904674
47.950000 -2.843008
48.000000 -2.747083
48.050000 -2.658011
48.100000 -2.575789
48.150000 -2.459309
48.200000 -2.332551
48.250000 -2.219497
48.300000 -2.106442
48.350000 -2.003666
48.400000 -1.935148
48.450000 -1.873481
48.500000 -1.808390
48.550000 -1.780983
48.600000 -1.791261
48.650000 -1.818668
48.700000 -1.894037
48.750000 -2.003666
48.800000 -2.099590
48.850000 -2.188664
48.900000 -2.318848
48.950000 -2.442180
49.000000 -2.524401
49.050000 -2.568938
49.100000 -2.579215
49.150000 -2.562086
49.200000 -2.551808
49.250000 -2.531253
49.300000 -2.496994
49.350000 -2.510697
49.400000 -2.572363
49.450000 -2.613474
49.500000 -2.640881
49.550000 -2.712825
49.600000 -2.777917
49.650000 -2.801898
49.700000 -2.822453
49.750000 -2.829305
49.800000 -2.791620
49.850000 -2.719677
49.900000 -2.620326
49.950000 -2.500420
50.000000 -2.401068
50.050000 -2.308570
50.100000 -2.195515
50.150000 -2.096165
50.200000 -2.044776
50.250000 -2.003666
50.300000 -1.955703
50.350000 -1.938573
50.400000 -1.938574
50.450000 -1.914592
50.500000 -1.904315
50.550000 -1.914593
50.600000 -1.921444
50.650000 -1.959129
50.700000 -2.037925
50.750000 -2.123572
50.800000 -2.205794
50.850000 -2.325699
50.900000 -2.425050
50.950000 -2.459309
51.000000 -2.455884
51.050000 -2.431902
51.100000 -2.380513
51.150000 -2.305144
51.200000 -2.209219
51.250000 -2.106442
51.300000 -2.044776
51.350000 -2.048202
51.400000 -2.099591
51.450000 -2.181812
51.500000 -2.301718
51.550000 -2.459309
51.600000 -2.647733
51.650000 -2.853286
51.700000 -3.045136
51.750000 -3.175320
51.800000 -3.216431
51.850000 -3.185598
51.900000 -3.106802
51.950000 -2.976619
52.000000 -2.781343
52.050000 -2.551809
52.100000 -2.346255
52.150000 -2.154405
52.200000 -1.962555
52.250000 -1.818668
52.300000 -1.736446
52.350000 -1.661077
52.400000 -1.595984
52.450000 -1.606262
52.500000 -1.661076
52.550000 -1.698762
52.600000 -1.757002
52.650000 -1.863204
52.700000 -1.931722
52.750000 -1.969407
52.800000 -2.044776
52.850000 -2.144128
52.900000 -2.205793
52.950000 -2.253755
53.000000 -2.332552
53.050000 -2.411347
53.100000 -2.493568
53.150000 -2.606623
53.200000 -2.712825
53.250000 -2.795047
53.300000 -2.894397
53.350000 -2.983470
53.400000 -3.024581
53.450000 -3.062266
53.500000 -3.120506
53.550000 -3.127358
53.600000 -3.072544
53.650000 -3.038284
53.700000 -2.990322
53.750000 -2.849860
53.800000 -2.664863
53.850000 -2.493568
53.900000 -2.318848
53.950000 -2.137276
54.000000 -1.979685
54.050000 -1.856353
54.100000 -1.763853
54.150000 -1.712465
54.200000 -1.691910
54.250000 -1.729595
54.300000 -1.815242
54.350000 -1.911166
54.400000 -2.034499
54.450000 -2.198942
54.500000 -2.359958
54.550000 -2.493568
54.600000 -2.640881
54.650000 -2.771065
54.700000 -2.829305
54.750000 -2.843009
54.800000 -2.860138
54.850000 -2.836157
54.900000 -2.764213
54.950000 -2.675140
55.000000 -2.579215
55.050000 -2.459310
55.100000 -2.353106
55.150000 -2.240052
55.200000 -2.120146
55.250000 -2.072183
55.300000 -2.113294
55.350000 -2.174961
55.400000 -2.233201
55.450000 -2.335977
55.500000 -2.469587
55.550000 -2.596345
55.600000 -2.719677
55.650000 -2.832731
55.700000 -2.935508
55.750000 -3.028007
55.800000 -3.099951
55.850000 -3.137635
55.900000 -3.168469
55.950000 -3.165043
56.000000 -3.120506
56.050000 -3.065691
56.100000 -3.021155
56.150000 -2.962915
56.200000 -2.894397
56.250000 -2.849861
56.300000 -2.795046
56.350000 -2.709399
56.400000 -2.640881
56.450000 -2.610048
56.500000 -2.589493
56.550000 -2.555234
56.600000 -2.524401
56.650000 -2.510698
56.700000 -2.510697
56.750000 -2.514123
56.800000 -2.500419
56.850000 -2.486717
56.900000 -2.510697
56.950000 -2.541531
57.000000 -2.538105
57.050000 -2.544957
57.100000 -2.582641
57.150000 -2.572364
57.200000 -2.514123
57.250000 -2.486716
57.300000 -2.466161
57.350000 -2.404495
57.400000 -2.335977
57.450000 -2.298292
57.500000 -2.253756
57.550000 -2.205793
57.600000 -2.188664
57.650000 -2.171534
57.700000 -2.185237
57.750000 -2.270886
57.800000 -2.373662
57.850000 -2.462735
57.900000 -2.575789
57.950000 -2.705973
58.000000 -2.791620
58.050000 -2.863564
58.100000 -2.908100
58.150000 -2.856712
58.200000 -2.767639
58.250000 -2.712825
58.300000 -2.616900
58.350000 -2.459309
58.400000 -2.342829
58.450000 -2.264033
58.500000 -2.126998
58.550000 -1.989962
58.600000 -1.928297
58.650000 -1.890611
58.700000 -1.835797
58.750000 -1.798113
58.800000 -1.791261
58.850000 -1.791260
58.900000 -1.794687
58.950000 -1.801538
59.000000 -1.811816
59.050000 -1.832371
59.100000 -1.859779
59.150000 -1.876908
59.200000 -1.900889
59.250000 -1.948851
59.300000 -1.993388
59.350000 -2.017369
59.400000 -2.037925
59.450000 -2.058480
59.500000 -2.096165
59.550000 -2.130424
59.600000 -2.154405
59.650000 -2.192089
59.700000 -2.257181
59.750000 -2.322273
59.800000 -2.370236
59.850000 -2.418198
59.900000 -2.462735
59.950000 -2.510698
60.000000 -2.579215
60.050000 -2.647733
60.100000 -2.681992
60.150000 -2.712825
60.200000 -2.743658
60.250000 -2.740232
60.300000 -2.726528
60.350000 -2.736806
60.400000 -2.733381
60.450000 -2.699121
60.500000 -2.678566
60.550000 -2.647733
60.600000 -2.579215
60.650000 -2.527827
60.700000 -2.507271
60.750000 -2.455883
60.800000 -2.407921
60.850000 -2.404495
60.900000 -2.414773
60.950000 -2.418198
61.000000 -2.466160
61.050000 -2.541530
61.100000 -2.582641
61.150000 -2.623752
61.200000 -2.705973
61.250000 -2.753935
61.300000 -2.740232
61.350000 -2.685417
61.400000 -2.610049
61.450000 -2.531253
61.500000 -2.483291
61.550000 -2.449032
61.600000 -2.407921
61.650000 -2.390792
61.700000 -2.418198
61.750000 -2.469587
61.800000 -2.531253
61.850000 -2.616900
61.900000 -2.699121
61.950000 -2.733380
62.000000 -2.736807
62.050000 -2.729954
62.100000 -2.723102
62.150000 -2.702547
62.200000 -2.654585
62.250000 -2.589493
62.300000 -2.565512
62.350000 -2.599771
62.400000 -2.630604
62.450000 -2.651159
62.500000 -2.723103
62.550000 -2.825879
62.600000 -2.897823
62.650000 -2.935508
62.700000 -2.938934
62.750000 -2.880693
62.800000 -2.774491
62.850000 -2.651159
62.900000 -2.503846
62.950000 -2.329125
63.000000 -2.181812
63.050000 -2.075609
63.100000 -1.993388
63.150000 -1.955703
63.200000 -1.965981
63.250000 -2.013943
63.300000 -2.099591
63.350000 -2.212645
63.400000 -2.329125
63.450000 -2.438754
63.500000 -2.524401
63.550000 -2.586067
63.600000 -2.637455
63.650000 -2.688843
63.700000 -2.733380
63.750000 -2.750510
63.800000 -2.760788
63.850000 -2.795046
63.900000 -2.846435
63.950000 -2.877268
64.000000 -2.880694
64.050000 -2.887545
64.100000 -2.894397
64.150000 -2.860138
64.200000 -2.774491
64.250000 -2.675140
64.300000 -2.582642
64.350000 -2.507272
64.400000 -2.431902
64.450000 -2.370236
64.500000 -2.335977
64.550000 -2.329126
64.600000 -2.339403
64.650000 -2.356532
64.700000 -2.401069
64.750000 -2.449032
64.800000 -2.452457
64.850000 -2.414773
64.900000 -2.383940
64.950000 -2.356532
65.000000 -2.315421
65.050000 -2.277737
65.100000 -2.250330
65.150000 -2.226348
65.200000 -2.219497
65.250000 -2.246904
65.300000 -2.288015
65.350000 -2.325699
65.400000 -2.377088
65.450000 -2.418198
65.500000 -2.445605
65.550000 -2.459309
65.600000 -2.462735
65.650000 -2.466161
65.700000 -2.476439
65.750000 -2.520975
65.800000 -2.596344
65.850000 -2.664863
65.900000 -2.712825
65.950000 -2.791621
66.000000 -2.901249
66.050000 -2.969767
66.100000 -3.000599
66.150000 -3.028007
66.200000 -3.021155
66.250000 -2.986897
66.300000 -2.980045
66.350000 -3.007451
66.400000 -3.017729
66.450000 -3.017730
66.500000 -3.055414
66.550000 -3.103376
66.600000 -3.127358
66.650000 -3.144487
66.700000 -3.154765
66.750000 -3.110228
66.800000 -3.017729
66.850000 -2.921805
66.900000 -2.822453
66.950000 -2.685418
67.000000 -2.538105
67.050000 -2.401068
67.100000 -2.267459
67.150000 -2.150979
67.200000 -2.061906
67.250000 -1.986536
67.300000 -1.921445
67.350000 -1.859778
67.400000 -1.791260
67.450000 -1.715891
67.500000 -1.664503
67.550000 -1.630244
67.600000 -1.585707
67.650000 -1.541170
67.700000 -1.544597
67.750000 -1.599410
67.800000 -1.661077
67.850000 -1.746724
67.900000 -1.887185
67.950000 -2.055055
68.000000 -2.198942
68.050000 -2.339403
68.100000 -2.510697
68.150000 -2.658011
68.200000 -2.757362
68.250000 -2.849861
68.300000 -2.921804
68.350000 -2.901249
68.400000 -2.801898
68.450000 -2.709399
68.500000 -2.606623
68.550000 -2.449032
68.600000 -2.298292
68.650000 -2.205793
68.700000 -2.150979
68.750000 -2.133849
68.800000 -2.171535
68.850000 -2.257182
68.900000 -2.383939
68.950000 -2.534678
69.000000 -2.685418
69.050000 -2.829305
69.100000 -2.966341
69.150000 -3.024581
69.200000 -2.983470
69.250000 -2.928656
69.300000 -2.849860
69.350000 -2.699121
69.400000 -2.538105
69.450000 -2.431902
69.500000 -2.329125
69.550000 -2.209220
69.600000 -2.144127
69.650000 -2.133850
69.700000 -2.109869
69.750000 -2.079035
69.800000 -2.061905
69.850000 -2.041351
69.900000 -2.003665
69.950000 -1.969407
70.000000 -1.938573
70.050000 -1.918019
70.100000 -1.914593
70.150000 -1.938574
70.200000 -2.013944
70.250000 -2.137275
70.300000 -2.291440
70.350000 -2.449031
70.400000 -2.623752
70.450000 -2.832731
70.500000 -3.010878
70.550000 -3.130784
70.600000 -3.192450
70.650000 -3.202727
70.700000 -3.141061
70.750000 -3.034859
70.800000 -2.911526
70.850000 -2.771065
70.900000 -2.610048
70.950000 -2.473013
71.000000 -2.377088
71.050000 -2.318848
71.100000 -2.301719
71.150000 -2.311996
71.200000 -2.325700
71.250000 -2.335977
71.300000 -2.329126
71.350000 -2.281163
71.400000 -2.219497
71.450000 -2.164683
71.500000 -2.106442
71.550000 -2.044776
71.600000 -2.013944
71.650000 -2.017370
71.700000 -2.034498
71.750000 -2.103016
71.800000 -2.222923
71.850000 -2.349681
71.900000 -2.466160
71.950000 -2.555234
72.000000 -2.582641
72.050000 -2.575790
72.100000 -2.541531
72.150000 -2.455883
72.200000 -2.332551
72.250000 -2.209219
72.300000 -2.079035
72.350000 -1.931722
72.400000 -1.804964
72.450000 -1.736446
72.500000 -1.705613
72.550000 -1.705613
72.600000 -1.760427
72.650000 -1.880334
72.700000 -2.017369
72.750000 -2.161256
72.800000 -2.315421
72.850000 -2.486717
72.900000 -2.640881
72.950000 -2.753936
73.000000 -2.832731
73.050000 -2.890972
73.100000 -2.938933
73.150000 -2.966341
73.200000 -2.962915
73.250000 -2.935508
73.300000 -2.904675
73.350000 -2.846435
73.400000 -2.760787
73.450000 -2.685418
73.500000 -2.627178
73.550000 -2.565511
73.600000 -2.514123
73.650000 -2.462735
73.700000 -2.394217
73.750000 -2.308570
73.800000 -2.233201
73.850000 -2.157831
73.900000 -2.075609
73.950000 -1.976259
74.000000 -1.863204
74.050000 -1.763853
74.100000 -1.733020
74.150000 -1.722742
74.200000 -1.709039
74.250000 -1.739872
74.300000 -1.815241
74.350000 -1.883760
74.400000 -1.972832
74.450000 -2.096165
74.500000 -2.205793
74.550000 -2.281163
74.600000 -2.342829
74.650000 -2.370236
74.700000 -2.342829
74.750000 -2.298292
74.800000 -2.257182
74.850000 -2.205794
74.900000 -2.157830
74.950000 -2.140701
75.000000 -2.137275
75.050000 -2.147553
75.100000 -2.192090
75.150000 -2.260608
75.200000 -2.353106
75.250000 -2.428476
75.300000 -2.455883
75.350000 -2.445606
75.400000 -2.435328
75.450000 -2.380514
75.500000 -2.270886
75.550000 -2.174961
75.600000 -2.092739
75.650000 -1.983111
75.700000 -1.870056
75.750000 -1.801538
75.800000 -1.780983
75.850000 -1.787834
75.900000 -1.828945
75.950000 -1.890612
76.000000 -1.976259
76.050000 -2.103016
76.100000 -2.219496
76.150000 -2.301718
76.200000 -2.397643
76.250000 -2.496994
76.300000 -2.544956
76.350000 -2.527827
76.400000 -2.490142
76.450000 -2.431902
76.500000 -2.346255
76.550000 -2.277737
76.600000 -2.233201
76.650000 -2.171535
76.700000 -2.109868
76.750000 -2.082461
76.800000 -2.058480
76.850000 -2.031073
76.900000 -2.041350
76.950000 -2.061906
77.000000 -2.058480
77.050000 -2.065332
77.100000 -2.120146
77.150000 -2.185238
77.200000 -2.233200
77.250000 -2.281163
77.300000 -2.315421
77.350000 -2.329125
77.400000 -2.335977
77.450000 -2.346254
77.500000 -2.339403
77.550000 -2.318848
77.600000 -2.308570
77.650000 -2.288014
77.700000 -2.257181
77.750000 -2.243478
77.800000 -2.257181
77.850000 -2.284589
77.900000 -2.311996
77.950000 -2.349680
78.000000 -2.383939
78.050000 -2.383940
78.100000 -2.349681
78.150000 -2.305144
78.200000 -2.246904
78.250000 -2.164683
78.300000 -2.065332
78.350000 -1.983110
78.400000 -1.931722
78.450000 -1.890611
78.500000 -1.863204
78.550000 -1.883759
78.600000 -1.979684
78.650000 -2.085887
78.700000 -2.154405
78.750000 -2.212645
78.800000 -2.311996
78.850000 -2.390791
78.900000 -2.390792
78.950000 -2.322274
79.000000 -2.236627
79.050000 -2.144128
79.100000 -1.996814
79.150000 -1.822093
79.200000 -1.695336
79.250000 -1.606263
79.300000 -1.527467
79.350000 -1.489782
79.400000 -1.493209
79.450000 -1.486356
79.500000 -1.482930
79.550000 -1.520616
79.600000 -1.585707
79.650000 -1.626818
79.700000 -1.678206
79.750000 -1.757001
79.800000 -1.822094
79.850000 -1.870056
79.900000 -1.897463
79.950000 -1.897464
80.000000 -1.911166
80.050000 -1.938574
80.100000 -1.931722
80.150000 -1.911167
80.200000 -1.921444
80.250000 -1.942000
80.300000 -1.948851
80.350000 -1.983110
80.400000 -2.031073
80.450000 -2.061906
80.500000 -2.106442
80.550000 -2.171534
80.600000 -2.195516
80.650000 -2.216070
80.700000 -2.291441
80.750000 -2.353106
80.800000 -2.370236
80.850000 -2.394217
80.900000 -2.404494
80.950000 -2.377087
81.000000 -2.380513
81.050000 -2.442180
81.100000 -2.503846
81.150000 -2.575789
81.200000 -2.695696
81.250000 -2.781343
81.300000 -2.801898
81.350000 -2.815601
81.400000 -2.795046
81.450000 -2.685418
81.500000 -2.524401
81.550000 -2.363384
81.600000 -2.157831
81.650000 -1.918018
81.700000 -1.715890
81.750000 -1.527467
81.800000 -1.342468
81.850000 -1.236267
81.900000 -1.246544
81.950000 -1.308210
82.000000 -1.414413
82.050000 -1.606263
82.100000 -1.839223
82.150000 -2.075610
82.200000 -2.308569
82.250000 -2.514123
82.300000 -2.678566
82.350000 -2.836157
82.400000 -2.959489
82.450000 -3.014303
82.500000 -3.031433
82.550000 -3.048562
82.600000 -3.014303
82.650000 -2.925230
82.700000 -2.853287
82.750000 -2.788195
82.800000 -2.699121
82.850000 -2.599771
82.900000 -2.514124
82.950000 -2.418199
83.000000 -2.315422
83.050000 -2.226348
83.100000 -2.116720
83.150000 -2.000240
83.200000 -1.907741
83.250000 -1.832371
83.300000 -1.757002
83.350000 -1.733020
83.400000 -1.760427
83.450000 -1.798112
83.500000 -1.870056
83.550000 -1.976258
83.600000 -2.044776
83.650000 -2.065332
83.700000 -2.065332
83.750000 -2.055054
83.800000 -2.003666
83.850000 -1.911167
83.900000 -1.801539
83.950000 -1.685058
84.000000 -1.572003
84.050000 -1.482930
84.100000 -1.455523
84.150000 -1.472652
84.200000 -1.520616
84.250000 -1.592559
84.300000 -1.681632
84.350000 -1.767279
84.400000 -1.846074
84.450000 -1.894037
84.500000 -1.890612
84.550000 -1.835797
84.600000 -1.750149
84.650000 -1.643947
84.700000 -1.527467
84.750000 -1.434968
84.800000 -1.369876
84.850000 -1.359598
84.900000 -1.424691
84.950000 -1.530893
85.000000 -1.650799
85.050000 -1.801538
85.100000 -1.996814
85.150000 -2.171534
85.200000 -2.267459
85.250000 -2.301719
85.300000 -2.318847
85.350000 -2.284589
85.400000 -2.178387
85.450000 -2.037925
85.500000 -1.900889
85.550000 -1.753576
85.600000 -1.592559
85.650000 -1.469227
85.700000 -1.407561
85.750000 -1.390431
85.800000 -1.393858
85.850000 -1.438393
85.900000 -1.524041
85.950000 -1.619966
86.000000 -1.698761
86.050000 -1.760428
86.100000 -1.804964
86.150000 -1.808390
86.200000 -1.780983
86.250000 -1.736447
86.300000 -1.674780
86.350000 -1.568578
86.400000 -1.452097
86.450000 -1.363024
86.500000 -1.328766
86.550000 -1.335617
86.600000 -1.390432
86.650000 -1.493208
86.700000 -1.647373
86.750000 -1.825520
86.800000 -2.010518
86.850000 -2.168108
86.900000 -2.301718
86.950000 -2.404495
87.000000 -2.445605
87.050000 -2.449031
87.100000 -2.411347
87.150000 -2.315421
87.200000 -2.185238
87.250000 -2.079035
87.300000 -1.962555
87.350000 -1.811816
87.400000 -1.726168
87.450000 -1.726168
87.500000 -1.736446
87.550000 -1.750150
87.600000 -1.791260
87.650000 -1.842649
87.700000 -1.866630
87.750000 -1.890611
87.800000 -1.918019
87.850000 -1.931722
87.900000 -1.931722
87.950000 -1.924870
88.000000 -1.918019
88.050000 -1.928297
88.100000 -1.959129
88.150000 -1.986537
88.200000 -2.013943
88.250000 -2.089313
88.300000 -2.181812
88.350000 -2.233201
88.400000 -2.264033
88.450000 -2.291441
88.500000 -2.277737
88.550000 -2.219497
88.600000 -2.164683
88.650000 -2.092739
88.700000 -1.969407
88.750000 -1.839223
88.800000 -1.746724
88.850000 -1.661077
88.900000 -1.602836
88.950000 -1.599411
89.000000 -1.626818
89.050000 -1.671355
89.100000 -1.757002
89.150000 -1.873482
89.200000 -2.000240
89.250000 -2.120146
89.300000 -2.185238
89.350000 -2.209219
89.400000 -2.229774
89.450000 -2.219496
89.500000 -2.157830
89.550000 -2.092739
89.600000 -2.031073
89.650000 -1.935148
89.700000 -1.828946
89.750000 -1.760428
89.800000 -1.698761
89.850000 -1.630243
89.900000 -1.606262
89.950000 -1.633669
90.000000 -1.674780
90.050000 -1.750150
90.100000 -1.870056
90.150000 -1.979685
90.200000 -2.096164
90.250000 -2.243478
90.300000 -2.377088
90.350000 -2.466161
90.400000 -2.555234
90.450000 -2.630604
90.500000 -2.640881
90.550000 -2.616900
90.600000 -2.596345
90.650000 -2.527827
90.700000 -2.377088
90.750000 -2.219497
90.800000 -2.079036
90.850000 -1.938574
90.900000 -1.822093
90.950000 -1.746724
91.000000 -1.681632
91.050000 -1.637096
91.100000 -1.647373
91.150000 -1.685058
91.200000 -1.715891
91.250000 -1.774131
91.300000 -1.873482
91.350000 -1.972833
91.400000 -2.075610
91.450000 -2.188663
91.500000 -2.284589
91.550000 -2.380514
91.600000 -2.490143
91.650000 -2.589493
91.700000 -2.678566
91.750000 -2.788194
91.800000 -2.880694
91.850000 -2.945785
91.900000 -3.010878
91.950000 -3.062266
92.000000 -3.065691
92.050000 -3.048562
92.100000 -3.010878
92.150000 -2.914953
92.200000 -2.795046
92.250000 -2.705973
92.300000 -2.630603
92.350000 -2.531253
92.400000 -2.452458
92.450000 -2.404495
92.500000 -2.370236
92.550000 -2.311996
92.600000 -2.246904
92.650000 -2.188664
92.700000 -2.144127
92.750000 -2.089313
92.800000 -2.013944
92.850000 -1.945426
92.900000 -1.876908
92.950000 -1.804964
93.000000 -1.760428
93.050000 -1.746724
93.100000 -1.743298
93.150000 -1.777557
93.200000 -1.866630
93.250000 -1.989962
93.300000 -2.137276
93.350000 -2.308570
93.400000 -2.479864
93.450000 -2.620325
93.500000 -2.760788
93.550000 -2.901248
93.600000 -2.983470
93.650000 -2.997174
93.700000 -3.000600
93.750000 -2.990322
93.800000 -2.935508
93.850000 -2.866990
93.900000 -2.836157
93.950000 -2.791621
94.000000 -2.719677
94.050000 -2.688844
94.100000 -2.695695
94.150000 -2.681992
94.200000 -2.637455
94.250000 -2.606622
94.300000 -2.575790
94.350000 -2.496994
94.400000 -2.383940
94.450000 -2.277737
94.500000 -2.168108
94.550000 -2.065331
94.600000 -1.979684
94.650000 -1.918018
94.700000 -1.880334
94.750000 -1.866630
94.800000 -1.870056
94.850000 -1.887186
94.900000 -1.904315
94.950000 -1.918019
95.000000 -1.914593
95.050000 -1.883759
95.100000 -1.839223
95.150000 -1.787835
95.200000 -1.719317
95.250000 -1.616540
95.300000 -1.520615
95.350000 -1.482930
95.400000 -1.479504
95.450000 -1.486356
95.500000 -1.541170
95.550000 -1.630244
95.600000 -1.705613
95.650000 -1.787835
95.700000 -1.911167
95.750000 -2.041351
95.800000 -2.140702
95.850000 -2.216071
95.900000 -2.264034
95.950000 -2.274311
96.000000 -2.236626
96.050000 -2.144128
96.100000 -2.034498
96.150000 -1.935148
96.200000 -1.846075
96.250000 -1.760428
96.300000 -1.681632
96.350000 -1.619966
96.400000 -1.585707
96.450000 -1.565152
96.500000 -1.558300
96.550000 -1.585707
96.600000 -1.643947
96.650000 -1.664502
96.700000 -1.647373
96.750000 -1.661077
96.800000 -1.719317
96.850000 -1.743298
96.900000 -1.743298
96.950000 -1.770705
97.000000 -1.808390
97.050000 -1.846075
97.100000 -1.904315
97.150000 -1.989962
97.200000 -2.089313
97.250000 -2.205793
97.300000 -2.322274
97.350000 -2.431902
97.400000 -2.558660
97.450000 -2.681992
97.500000 -2.764213
97.550000 -2.805324
97.600000 -2.808750
97.650000 -2.760788
97.700000 -2.664863
97.750000 -2.527827
97.800000 -2.353107
97.850000 -2.181812
97.900000 -2.031072
97.950000 -1.894037
98.000000 -1.791261
98.050000 -1.763854
98.100000 -1.787834
98.150000 -1.842649
98.200000 -1.942000
98.250000 -2.061906
98.300000 -2.185238
98.350000 -2.294866
98.400000 -2.359959
98.450000 -2.383939
98.500000 -2.377088
98.550000 -2.322273
98.600000 -2.198941
98.650000 -2.034498
98.700000 -1.856353
98.750000 -1.650799
98.800000 -1.455523
98.850000 -1.325340
98.900000 -1.246544
98.950000 -1.212285
99.000000 -1.249970
99.050000 -1.376727
99.100000 -1.554874
99.150000 -1.736446
99.200000 -1.938574
99.250000 -2.185238
99.300000 -2.435327
99.350000 -2.630603
99.400000 -2.760787
99.450000 -2.829305
99.500000 -2.829305
99.550000 -2.777917
99.600000 -2.695696
99.650000 -2.599770
99.700000 -2.486717
99.750000 -2.366810
99.800000 -2.253756
99.850000 -2.178386
99.900000 -2.137275
99.950000 -2.106442
100.000000 -2.068757
100.050000 -2.037924
100.100000 -2.003666
100.150000 -1.965981
100.200000 -1.921444
100.250000 -1.856352
100.300000 -1.798112
100.350000 -1.767279
100.400000 -1.763853
100.450000 -1.763854
100.500000 -1.767279
100.550000 -1.808390
100.600000 -1.880334
100.650000 -1.962555
100.700000 -2.048203
100.750000 -2.116720
100.800000 -2.171535
100.850000 -2.219497
100.900000 -2.246904
100.950000 -2.243478
101.000000 -2.250330
101.050000 -2.264033
101.100000 -2.243478
101.150000 -2.198942
101.200000 -2.150979
101.250000 -2.061905
101.300000 -1.948852
101.350000 -1.859779
101.400000 -1.784409
101.450000 -1.678206
101.500000 -1.578856
101.550000 -1.520615
101.600000 -1.455523
101.650000 -1.397283
101.700000 -1.376728
101.750000 -1.387006
101.800000 -1.407560
101.850000 -1.441820
101.900000 -1.510338
101.950000 -1.578855
102.000000 -1.609688
102.050000 -1.619966
102.100000 -1.626818
102.150000 -1.609689
102.200000 -1.548023
102.250000 -1.482930
102.300000 -1.448671
102.350000 -1.407561
102.400000 -1.373302
102.450000 -1.390432
102.500000 -1.455523
102.550000 -1.548022
102.600000 -1.678206
102.650000 -1.863204
102.700000 -2.044776
102.750000 -2.198942
102.800000 -2.322274
102.850000 -2.383940
102.900000 -2.390792
102.950000 -2.387365
103.000000 -2.329125
103.050000 -2.171534
103.100000 -2.000240
103.150000 -1.876907
103.200000 -1.763854
103.250000 -1.647374
103.300000 -1.565151
103.350000 -1.524041
103.400000 -1.493208
103.450000 -1.489782
103.500000 -1.510338
103.550000 -1.544596
103.600000 -1.595984
103.650000 -1.650799
103.700000 -1.695336
103.750000 -1.743298
103.800000 -1.794687
103.850000 -1.808390
103.900000 -1.794686
103.950000 -1.777557
104.000000 -1.750150
104.050000 -1.712465
104.100000 -1.691910
104.150000 -1.698762
104.200000 -1.719317
104.250000 -1.733020
104.300000 -1.733021
104.350000 -1.722743
104.400000 -1.705613
104.450000 -1.664503
104.500000 -1.616540
104.550000 -1.568577
104.600000 -1.506912
104.650000 -1.452097
104.700000 -1.441820
104.750000 -1.472653
104.800000 -1.517190
104.850000 -1.589133
104.900000 -1.709039
104.950000 -1.866630
105.000000 -2.020795
105.050000 -2.161257
105.100000 -2.291440
105.150000 -2.387365
105.200000 -2.466161
105.250000 -2.544956
105.300000 -2.596344
105.350000 -2.596345
105.400000 -2.572363
105.450000 -2.541531
105.500000 -2.483290
105.550000 -2.390791
105.600000 -2.291441
105.650000 -2.188663
105.700000 -2.103017
105.750000 -2.020795
105.800000 -1.941999
105.850000 -1.856353
105.900000 -1.798113
105.950000 -1.774131
106.000000 -1.798113
106.050000 -1.866630
106.100000 -1.952278
106.150000 -2.017369
106.200000 -2.034499
106.250000 -2.041351
106.300000 -2.031073
106.350000 -1.959129
106.400000 -1.808390
106.450000 -1.640521
106.500000 -1.493208
106.550000 -1.332191
106.600000 -1.160896
106.650000 -1.044417
106.700000 -1.027287
106.750000 -1.099230
106.800000 -1.212285
106.850000 -1.369876
106.900000 -1.575429
106.950000 -1.808390
107.000000 -2.010517
107.050000 -2.178386
107.100000 -2.329125
107.150000 -2.445606
107.200000 -2.500420
107.250000 -2.500419
107.300000 -2.476438
107.350000 -2.425050
107.400000 -2.335977
107.450000 -2.250330
107.500000 -2.185238
107.550000 -2.126998
107.600000 -2.058480
107.650000 -2.007092
107.700000 -1.969407
107.750000 -1.952278
107.800000 -1.962555
107.850000 -2.000240
107.900000 -2.058480
107.950000 -2.147553
108.000000 -2.246904
108.050000 -2.322274
108.100000 -2.366810
108.150000 -2.411347
108.200000 -2.445606
108.250000 -2.428476
108.300000 -2.339403
108.350000 -2.185238
108.400000 -1.989963
108.450000 -1.787834
108.500000 -1.595985
108.550000 -1.400709
108.600000 -1.232840
108.650000 -1.119786
108.700000 -1.078676
108.750000 -1.126638
108.800000 -1.243118
108.850000 -1.404135
108.900000 -1.595985
108.950000 -1.804965
109.000000 -2.000240
109.050000 -2.157831
109.100000 -2.270885
109.150000 -2.329125
109.200000 -2.346255
109.250000 -2.325699
109.300000 -2.264033
109.350000 -2.157830
109.400000 -2.058480
109.450000 -1.986537
109.500000 -1.935148
109.550000 -1.904315
109.600000 -1.914592
109.650000 -1.931722
109.700000 -1.952278
109.750000 -1.993388
109.800000 -2.055054
109.850000 -2.089313
109.900000 -2.092739
109.950000 -2.085887
110.000000 -2.065331
110.050000 -2.031072
110.100000 -1.996814
110.150000 -1.959129
110.200000 -1.924871
110.250000 -1.897463
110.300000 -1.846075
110.350000 -1.757001
110.400000 -1.671354
110.450000 -1.609689
110.500000 -1.561726
110.550000 -1.520615
110.600000 -1.520615
110.650000 -1.554874
110.700000 -1.606263
110.750000 -1.678206
110.800000 -1.774131
110.850000 -1.866631
110.900000 -1.942000
110.950000 -1.983111
111.000000 -1.993388
111.050000 -1.989962
111.100000 -1.955704
111.150000 -1.870056
111.200000 -1.760428
111.250000 -1.661077
111.300000 -1.558300
111.350000 -1.486356
111.400000 -1.506911
111.450000 -1.578856
111.500000 -1.671355
111.550000 -1.808390
111.600000 -1.979685
111.650000 -2.130423
111.700000 -2.284589
111.750000 -2.428476
111.800000 -2.490142
111.850000 -2.490142
111.900000 -2.514123
111.950000 -2.517549
112.000000 -2.431902
112.050000 -2.298292
112.100000 -2.192090
112.150000 -2.075609
112.200000 -1.931722
112.250000 -1.784409
112.300000 -1.664503
112.350000 -1.582281
112.400000 -1.537745
112.450000 -1.513763
112.500000 -1.527467
112.550000 -1.599411
112.600000 -1.688484
112.650000 -1.784409
112.700000 -1.931722
112.750000 -2.092738
112.800000 -2.202368
112.850000 -2.308570
112.900000 -2.469587
112.950000 -2.623751
113.000000 -2.699122
113.050000 -2.740232
113.100000 -2.777917
113.150000 -2.795046
113.200000 -2.777916
113.250000 -2.719677
113.300000 -2.620326
113.350000 -2.520975
113.400000 -2.411347
113.450000 -2.257182
113.500000 -2.085887
113.550000 -1.941999
113.600000 -1.818668
113.650000 -1.712465
113.700000 -1.678206
113.750000 -1.712465
113.800000 -1.780983
113.850000 -1.876908
113.900000 -1.993388
113.950000 -2.109868
114.000000 -2.212645
114.050000 -2.318848
114.100000 -2.390791
114.150000 -2.387365
114.200000 -2.325699
114.250000 -2.264033
114.300000 -2.174960
114.350000 -2.048202
114.400000 -1.928296
114.450000 -1.863205
114.500000 -1.839223
114.550000 -1.811816
114.600000 -1.787835
114.650000 -1.794687
114.700000 -1.832371
114.750000 -1.873481
114.800000 -1.911167
114.850000 -1.938574
114.900000 -1.942000
114.950000 -1.945426
115.000000 -1.938574
115.050000 -1.894037
115.100000 -1.849500
115.150000 -1.828945
115.200000 -1.791261
115.250000 -1.739872
115.300000 -1.750150
115.350000 -1.798112
115.400000 -1.822094
115.450000 -1.846075
115.500000 -1.918018
115.550000 -1.979685
115.600000 -2.003666
115.650000 -2.010517
115.700000 -2.010517
115.750000 -1.983110
115.800000 -1.931722
115.850000 -1.849501
115.900000 -1.750150
115.950000 -1.654225
116.000000 -1.565151
116.050000 -1.496634
116.100000 -1.472652
116.150000 -1.510338
116.200000 -1.568577
116.250000 -1.654225
116.300000 -1.804965
116.350000 -1.989963
116.400000 -2.154404
116.450000 -2.301718
116.500000 -2.445605
116.550000 -2.541531
116.600000 -2.558660
116.650000 -2.538104
116.700000 -2.500420
116.750000 -2.438754
116.800000 -2.363384
116.850000 -2.260607
116.900000 -2.126997
116.950000 -1.996814
117.000000 -1.894038
117.050000 -1.780983
117.100000 -1.674781
117.150000 -1.613115
117.200000 -1.585707
117.250000 -1.568578
117.300000 -1.558300
117.350000 -1.558300
117.400000 -1.578855
117.450000 -1.640521
117.500000 -1.691910
117.550000 -1.691910
117.600000 -1.688484
117.650000 -1.709039
117.700000 -1.695335
117.750000 -1.650799
117.800000 -1.613114
117.850000 -1.599411
117.900000 -1.582281
117.950000 -1.572004
118.000000 -1.589133
118.050000 -1.637096
118.100000 -1.709039
118.150000 -1.787834
118.200000 -1.849501
118.250000 -1.904315
118.300000 -1.948851
118.350000 -1.972833
118.400000 -1.976258
118.450000 -1.952277
118.500000 -1.897463
118.550000 -1.828945
118.600000 -1.780983
118.650000 -1.753576
118.700000 -1.763853
118.750000 -1.825520
118.800000 -1.911167
118.850000 -2.058480
118.900000 -2.264033
118.950000 -2.469587
119.000000 -2.640881
119.050000 -2.819028
119.100000 -2.962915
119.150000 -2.993748
119.200000 -2.949212
119.250000 -2.877267
119.300000 -2.743658
119.350000 -2.517549
119.400000 -2.281163
119.450000 -2.079035
119.500000 -1.873481
119.550000 -1.674780
119.600000 -1.537745
119.650000 -1.482931
119.700000 -1.476078
119.750000 -1.527466
119.800000 -1.640521
119.850000 -1.767280
119.900000 -1.856352
119.950000 -1.938573
120.000000 -2.027647
120.050000 -2.068757
120.100000 -2.072184
120.150000 -2.103017
120.200000 -2.154405
120.250000 -2.154405
120.300000 -2.144127
120.350000 -2.181812
120.400000 -2.229775
120.450000 -2.260607
120.500000 -2.318848
120.550000 -2.404495
120.600000 -2.452457
120.650000 -2.452458
120.700000 -2.442179
120.750000 -2.411347
120.800000 -2.353106
120.850000 -2.284589
120.900000 -2.198942
120.950000 -2.089313
121.000000 -1.969407
121.050000 -1.863204
121.100000 -1.770705
121.150000 -1.715891
121.200000 -1.695336
121.250000 -1.685058
121.300000 -1.688484
121.350000 -1.719317
121.400000 -1.736447
121.450000 -1.729595
121.500000 -1.729594
121.550000 -1.736446
121.600000 -1.739872
121.650000 -1.726168
121.700000 -1.685058
121.750000 -1.613114
121.800000 -1.541170
121.850000 -1.513763
121.900000 -1.510338
121.950000 -1.500060
122.000000 -1.496634
122.050000 -1.520615
122.100000 -1.541171
122.150000 -1.537744
122.200000 -1.517189
122.250000 -1.513763
122.300000 -1.520615
122.350000 -1.534319
122.400000 -1.530893
122.450000 -1.541171
122.500000 -1.572003
122.550000 -1.609689
122.600000 -1.640521
122.650000 -1.678206
122.700000 -1.722743
122.750000 -1.767279
122.800000 -1.798112
122.850000 -1.842649
122.900000 -1.873481
122.950000 -1.894037
123.000000 -1.911166
123.050000 -1.924870
123.100000 -1.948852
123.150000 -1.983111
123.200000 -1.996814
123.250000 -2.000240
123.300000 -2.037925
123.350000 -2.082461
123.400000 -2.092739
123.450000 -2.092739
123.500000 -2.096165
123.550000 -2.055054
123.600000 -1.962555
123.650000 -1.890612
123.700000 -1.825519
123.750000 -1.739873
123.800000 -1.667928
123.850000 -1.650799
123.900000 -1.657651
123.950000 -1.664502
124.000000 -1.709039
124.050000 -1.780983
124.100000 -1.859778
124.150000 -1.924870
124.200000 -1.979685
124.250000 -2.024221
124.300000 -2.044776
124.350000 -2.013944
124.400000 -1.955703
124.450000 -1.938574
124.500000 -1.945426
124.550000 -1.911167
124.600000 -1.883759
124.650000 -1.904315
124.700000 -1.945425
124.750000 -1.986536
124.800000 -2.041351
124.850000 -2.109868
124.900000 -2.168108
124.950000 -2.205793
125.000000 -2.219497
125.050000 -2.222923
125.100000 -2.212645
125.150000 -2.188663
125.200000 -2.120146
125.250000 -2.034499
125.300000 -1.972833
125.350000 -1.935148
125.400000 -1.880334
125.450000 -1.846075
125.500000 -1.863205
125.550000 -1.894037
125.600000 -1.883760
125.650000 -1.870056
125.700000 -1.897463
125.750000 -1.921445
125.800000 -1.904315
125.850000 -1.870056
125.900000 -1.839223
125.950000 -1.784408
126.000000 -1.709039
126.050000 -1.650799
126.100000 -1.599410
126.150000 -1.506911
126.200000 -1.397283
126.250000 -1.339043
126.300000 -1.352746
126.350000 -1.380153
126.400000 -1.431542
126.450000 -1.527467
126.500000 -1.647374
126.550000 -1.787834
126.600000 -1.959129
126.650000 -2.126998
126.700000 -2.274311
126.750000 -2.425051
126.800000 -2.565511
126.850000 -2.644307
126.900000 -2.661436
126.950000 -2.658011
127.000000 -2.616900
127.050000 -2.538105
127.100000 -2.455883
127.150000 -2.366810
127.200000 -2.250330
127.250000 -2.144127
127.300000 -2.068757
127.350000 -2.010518
127.400000 -1.972833
127.450000 -1.962555
127.500000 -1.986536
127.550000 -2.013943
127.600000 -2.027647
127.650000 -2.044777
127.700000 -2.075610
127.750000 -2.109868
127.800000 -2.123571
127.850000 -2.130423
127.900000 -2.161256
127.950000 -2.202367
128.000000 -2.226349
128.050000 -2.240052
128.100000 -2.277737
128.150000 -2.332551
128.200000 -2.366810
128.250000 -2.356533
128.300000 -2.332551
128.350000 -2.305144
128.400000 -2.240052
128.450000 -2.109868
128.500000 -1.942000
128.550000 -1.787834
128.600000 -1.661077
128.650000 -1.551449
128.700000 -1.465801
128.750000 -1.428116
128.800000 -1.452097
128.850000 -1.548022
128.900000 -1.688484
128.950000 -1.863205
129.000000 -2.061906
129.050000 -2.253756
129.100000 -2.411347
129.150000 -2.520975
129.200000 -2.582641
129.250000 -2.565512
129.300000 -2.469587
129.350000 -2.342829
129.400000 -2.205793
129.450000 -2.020795
129.500000 -1.808390
129.550000 -1.640521
129.600000 -1.524041
129.650000 -1.438393
129.700000 -1.404135
129.750000 -1.438394
129.800000 -1.500060
129.850000 -1.595985
129.900000 -1.729595
129.950000 -1.859778
130.000000 -1.965981
130.050000 -2.068757
130.100000 -2.144128
130.150000 -2.150979
130.200000 -2.144127
130.250000 -2.171534
130.300000 -2.181812
130.350000 -2.154405
130.400000 -2.133850
130.450000 -2.130423
130.500000 -2.113294
130.550000 -2.089312
130.600000 -2.065331
130.650000 -2.017369
130.700000 -1.959129
130.750000 -1.918018
130.800000 -1.880334
130.850000 -1.832371
130.900000 -1.760427
130.950000 -1.654225
131.000000 -1.534319
131.050000 -1.465801
131.100000 -1.431542
131.150000 -1.376728
131.200000 -1.342469
131.250000 -1.380154
131.300000 -1.445245
131.350000 -1.510338
131.400000 -1.613114
131.450000 -1.760427
131.500000 -1.911167
131.550000 -2.061906
131.600000 -2.209219
131.650000 -2.332551
131.700000 -2.452457
131.750000 -2.548382
131.800000 -2.562086
131.850000 -2.527826
131.900000 -2.479864
131.950000 -2.370236
132.000000 -2.198942
132.050000 -2.037925
132.100000 -1.876908
132.150000 -1.681633
132.200000 -1.510337
132.250000 -1.414413
132.300000 -1.339043
132.350000 -1.280802
132.400000 -1.273951
132.450000 -1.311636
132.500000 -1.383579
132.550000 -1.493208
132.600000 -1.599411
132.650000 -1.702187
132.700000 -1.822094
132.750000 -1.918018
132.800000 -1.972832
132.850000 -2.041350
132.900000 -2.116720
132.950000 -2.140701
133.000000 -2.137275
133.050000 -2.126998
133.100000 -2.079035
133.150000 -2.027647
133.200000 -2.024221
133.250000 -2.027647
133.300000 -2.031073
133.350000 -2.072183
133.400000 -2.147553
133.450000 -2.264033
133.500000 -2.425050
133.550000 -2.596344
133.600000 -2.726528
133.650000 -2.839583
133.700000 -2.938933
133.750000 -2.969767
133.800000 -2.945786
133.850000 -2.932082
133.900000 -2.877268
133.950000 -2.757362
134.000000 -2.637456
134.050000 -2.531253
134.100000 -2.407921
134.150000 -2.325699
134.200000 -2.329125
134.250000 -2.353107
134.300000 -2.356532
134.350000 -2.397643
134.400000 -2.455883
134.450000 -2.469587
134.500000 -2.452458
134.550000 -2.418199
134.600000 -2.335977
134.650000 -2.229774
134.700000 -2.123572
134.750000 -2.013943
134.800000 -1.904315
134.850000 -1.832371
134.900000 -1.780983
134.950000 -1.729595
135.000000 -1.719317
135.050000 -1.763853
135.100000 -1.846074
135.150000 -1.948851
135.200000 -2.068758
135.250000 -2.185237
135.300000 -2.298292
135.350000 -2.401069
135.400000 -2.462735
135.450000 -2.466161
135.500000 -2.455883
135.550000 -2.435328
135.600000 -2.390791
135.650000 -2.359959
135.700000 -2.339403
135.750000 -2.311996
135.800000 -2.277737
135.850000 -2.288015
135.900000 -2.325699
135.950000 -2.359958
136.000000 -2.401069
136.050000 -2.445606
136.100000 -2.462735
136.150000 -2.442180
136.200000 -2.380514
136.250000 -2.294866
136.300000 -2.209219
136.350000 -2.133850
136.400000 -2.034499
136.450000 -1.897463
136.500000 -1.798112
136.550000 -1.739873
136.600000 -1.691909
136.650000 -1.650799
136.700000 -1.633670
136.750000 -1.619966
136.800000 -1.609688
136.850000 -1.630244
136.900000 -1.678206
136.950000 -1.733020
137.000000 -1.787834
137.050000 -1.842649
137.100000 -1.883759
137.150000 -1.942000
137.200000 -2.037925
137.250000 -2.130423
137.300000 -2.171534
137.350000 -2.195516
137.400000 -2.226349
137.450000 -2.246904
137.500000 -2.219496
137.550000 -2.133850
137.600000 -2.034499
137.650000 -1.962555
137.700000 -1.931722
137.750000 -1.904315
137.800000 -1.856353
137.850000 -1.825519
137.900000 -1.852926
137.950000 -1.921444
138.000000 -1.976259
138.050000 -2.017369
138.100000 -2.082461
138.150000 -2.154405
138.200000 -2.198941
138.250000 -2.219497
138.300000 -2.246904
138.350000 -2.264034
138.400000 -2.240052
138.450000 -2.185238
138.500000 -2.120146
138.550000 -2.061906
138.600000 -1.986536
138.650000 -1.883760
138.700000 -1.811816
138.750000 -1.770705
138.800000 -1.736446
138.850000 -1.688484
138.900000 -1.633669
138.950000 -1.585707
139.000000 -1.541170
139.050000 -1.520615
139.100000 -1.503486
139.150000 -1.462375
139.200000 -1.417838
139.250000 -1.383580
139.300000 -1.356173
139.350000 -1.345894
139.400000 -1.349320
139.450000 -1.359598
139.500000 -1.407561
139.550000 -1.479505
139.600000 -1.520615
139.650000 -1.524041
139.700000 -1.551448
139.750000 -1.592559
139.800000 -1.592559
139.850000 -1.568578
139.900000 -1.575429
139.950000 -1.585707
140.000000 -1.578856
140.050000 -1.606263
140.100000 -1.678207
140.150000 -1.743298
140.200000 -1.804964
140.250000 -1.880334
140.300000 -1.965981
140.350000 -2.048203
140.400000 -2.116720
140.450000 -2.174960
140.500000 -2.226349
140.550000 -2.243478
140.600000 -2.205793
140.650000 -2.171534
140.700000 -2.157831
140.750000 -2.116720
140.800000 -2.044777
140.850000 -2.000240
140.900000 -1.993388
140.950000 -1.979685
141.000000 -1.945426
141.050000 -1.924870
141.100000 -1.904315
141.150000 -1.866630
141.200000 -1.822093
141.250000 -1.767280
141.300000 -1.705614
141.350000 -1.667928
141.400000 -1.637096
141.450000 -1.582281
141.500000 -1.544596
141.550000 -1.554874
141.600000 -1.585707
141.650000 -1.630244
141.700000 -1.733021
141.750000 -1.828945
141.800000 -1.894037
141.850000 -1.952277
141.900000 -2.010518
141.950000 -2.024221
142.000000 -2.020795
142.050000 -2.003666
142.100000 -1.945425
142.150000 -1.856353
142.200000 -1.743298
142.250000 -1.609689
142.300000 -1.469227
142.350000 -1.356173
142.400000 -1.260247
142.450000 -1.188304
142.500000 -1.171174
142.550000 -1.202007
142.600000 -1.249970
142.650000 -1.318488
142.700000 -1.421264
142.750000 -1.524041
142.800000 -1.623392
142.850000 -1.722742
142.900000 -1.822093
142.950000 -1.911167
143.000000 -1.993388
143.050000 -2.089313
143.100000 -2.188664
143.150000 -2.274311
143.200000 -2.356533
143.250000 -2.431902
143.300000 -2.476438
143.350000 -2.483290
143.400000 -2.473012
143.450000 -2.483291
143.500000 -2.479864
143.550000 -2.438753
143.600000 -2.346255
143.650000 -2.236626
143.700000 -2.116720
143.750000 -1.983110
143.800000 -1.852927
143.850000 -1.746724
143.900000 -1.681632
143.950000 -1.637095
144.000000 -1.626818
144.050000 -1.661077
144.100000 -1.739872
144.150000 -1.842649
144.200000 -1.945426
144.250000 -2.031072
144.300000 -2.106442
144.350000 -2.178386
144.400000 -2.233201
144.450000 -2.243478
144.500000 -2.198942
144.550000 -2.092738
144.600000 -1.935148
144.650000 -1.770705
144.700000 -1.643947
144.750000 -1.517189
144.800000 -1.400709
144.850000 -1.342469
144.900000 -1.366450
144.950000 -1.428116
145.000000 -1.517189
145.050000 -1.626818
145.100000 -1.719317
145.150000 -1.804964
145.200000 -1.894038
145.250000 -1.965981
145.300000 -1.996814
145.350000 -2.017369
145.400000 -2.055054
145.450000 -2.092739
145.500000 -2.130424
145.550000 -2.205793
145.600000 -2.298292
145.650000 -2.394217
145.700000 -2.500420
145.750000 -2.599770
145.800000 -2.661437
145.850000 -2.699121
145.900000 -2.699122
145.950000 -2.613474
146.000000 -2.486717
146.050000 -2.363384
146.100000 -2.216071
146.150000 -2.048202
146.200000 -1.935148
146.250000 -1.849501
146.300000 -1.780983
146.350000 -1.774131
146.400000 -1.815241
146.450000 -1.811815
146.500000 -1.818668
146.550000 -1.894037
146.600000 -1.959129
146.650000 -1.952277
146.700000 -1.955703
146.750000 -1.952277
146.800000 -1.890611
146.850000 -1.804964
146.900000 -1.736447
146.950000 -1.657650
147.000000 -1.578855
147.050000 -1.524041
147.100000 -1.482930
147.150000 -1.448672
147.200000 -1.438394
147.250000 -1.434968
147.300000 -1.438394
147.350000 -1.469227
147.400000 -1.510337
147.450000 -1.554874
147.500000 -1.630244
147.550000 -1.671354
147.600000 -1.650799
147.650000 -1.657651
147.700000 -1.722743
147.750000 -1.746724
147.800000 -1.739872
147.850000 -1.804964
147.900000 -1.897463
147.950000 -1.948851
148.000000 -2.000239
148.050000 -2.082461
148.100000 -2.157830
148.150000 -2.229774
148.200000 -2.301719
148.250000 -2.329125
148.300000 -2.305144
148.350000 -2.264034
148.400000 -2.185237
148.450000 -2.041350
148.500000 -1.880333
148.550000 -1.719317
148.600000 -1.524041
148.650000 -1.291081
148.700000 -1.068398
148.750000 -0.873122
148.800000 -0.712105
148.850000 -0.612754
148.900000 -0.575069
148.950000 -0.588773
149.000000 -0.684698
149.050000 -0.852566
149.100000 -1.058120
149.150000 -1.280803
149.200000 -1.517189
149.250000 -1.736446
149.300000 -1.942000
149.350000 -2.133849
149.400000 -2.250330
149.450000 -2.308570
149.500000 -2.353106
149.550000 -2.349681
149.600000 -2.264033
149.650000 -2.192089
149.700000 -2.147553
149.750000 -2.061906
149.800000 -1.955704
149.850000 -1.900889
149.900000 -1.876907
149.950000 -1.842649
150.000000 -1.828945
150.050000 -1.828946
150.100000 -1.822093
150.150000 -1.842649
150.200000 -1.897463
150.250000 -1.962555
150.300000 -2.024221
150.350000 -2.106443
150.400000 -2.202367
150.450000 -2.305144
150.500000 -2.397643
150.550000 -2.466161
150.600000 -2.503846
150.650000 -2.514123
150.700000 -2.503845
150.750000 -2.466161
150.800000 -2.394217
150.850000 -2.325700
150.900000 -2.264033
150.950000 -2.202367
151.000000 -2.157831
151.050000 -2.161257
151.100000 -2.195515
151.150000 -2.250330
151.200000 -2.346255
151.250000 -2.479865
151.300000 -2.603197
151.350000 -2.695695
151.400000 -2.771065
151.450000 -2.801898
151.500000 -2.781343
151.550000 -2.709399
151.600000 -2.592918
151.650000 -2.442180
151.700000 -2.274311
151.750000 -2.092739
151.800000 -1.914593
151.850000 -1.760428
151.900000 -1.647373
151.950000 -1.565152
152.000000 -1.520615
152.050000 -1.534319
152.100000 -1.599411
152.150000 -1.681632
152.200000 -1.777557
152.250000 -1.897463
152.300000 -2.027647
152.350000 -2.140702
152.400000 -2.219497
152.450000 -2.291440
152.500000 -2.373662
152.550000 -2.428476
152.600000 -2.462735
152.650000 -2.510698
152.700000 -2.572363
152.750000 -2.610048
152.800000 -2.620326
152.850000 -2.637455
152.900000 -2.668288
152.950000 -2.675140
153.000000 -2.658011
153.050000 -2.658010
153.100000 -2.675141
153.150000 -2.651159
153.200000 -2.589493
153.250000 -2.544956
153.300000 -2.517549
153.350000 -2.469586
153.400000 -2.414772
153.450000 -2.370236
153.500000 -2.305144
153.550000 -2.236627
153.600000 -2.181812
153.650000 -2.126998
153.700000 -2.075610
153.750000 -2.048203
153.800000 -2.037925
153.850000 -2.003666
153.900000 -1.979685
153.950000 -1.976258
154.000000 -1.979685
154.050000 -1.955704
154.100000 -1.914592
154.150000 -1.887186
154.200000 -1.897463
154.250000 -1.918018
154.300000 -1.900889
154.350000 -1.880333
154.400000 -1.900889
154.450000 -1.931722
154.500000 -1.938574
154.550000 -1.931722
154.600000 -1.921445
154.650000 -1.921444
154.700000 -1.921445
154.750000 -1.918018
154.800000 -1.911166
154.850000 -1.928296
154.900000 -1.976258
154.950000 -2.044777
155.000000 -2.147553
155.050000 -2.301718
155.100000 -2.476439
155.150000 -2.640881
155.200000 -2.825879
155.250000 -3.007451
155.300000 -3.123932
155.350000 -3.185598
155.400000 -3.185597
155.450000 -3.086246
155.500000 -2.894397
155.550000 -2.678566
155.600000 -2.428476
155.650000 -2.130424
155.700000 -1.856353
155.750000 -1.637096
155.800000 -1.469227
155.850000 -1.359599
155.900000 -1.332191
155.950000 -1.356172
156.000000 -1.424690
156.050000 -1.537745
156.100000 -1.678206
156.150000 -1.818667
156.200000 -1.959129
156.250000 -2.058480
156.300000 -2.109868
156.350000 -2.147553
156.400000 -2.150979
156.450000 -2.079035
156.500000 -1.965981
156.550000 -1.876908
156.600000 -1.770705
156.650000 -1.633669
156.700000 -1.537745
156.750000 -1.510338
156.800000 -1.503485
156.850000 -1.500060
156.900000 -1.517189
156.950000 -1.548022
157.000000 -1.595985
157.050000 -1.685057
157.100000 -1.784409
157.150000 -1.859778
157.200000 -1.883760
157.250000 -1.866630
157.300000 -1.846075
157.350000 -1.842649
157.400000 -1.808390
157.450000 -1.770705
157.500000 -1.811816
157.550000 -1.907741
157.600000 -1.979684
157.650000 -2.079036
157.700000 -2.233201
157.750000 -2.380514
157.800000 -2.486717
157.850000 -2.579216
157.900000 -2.658011
157.950000 -2.685418
158.000000 -2.647733
158.050000 -2.565512
158.100000 -2.462735
158.150000 -2.373662
158.200000 -2.291440
158.250000 -2.219497
158.300000 -2.181812
158.350000 -2.185238
158.400000 -2.181812
158.450000 -2.188664
158.500000 -2.260607
158.550000 -2.318848
158.600000 -2.291441
158.650000 -2.229774
158.700000 -2.164683
158.750000 -2.055054
158.800000 -1.894037
158.850000 -1.739872
158.900000 -1.606262
158.950000 -1.482930
159.000000 -1.373302
159.050000 -1.325339
159.100000 -1.335617
159.150000 -1.366450
159.200000 -1.393858
159.250000 -1.452097
159.300000 -1.541170
159.350000 -1.606262
159.400000 -1.633670
159.450000 -1.657651
159.500000 -1.678206
159.550000 -1.671355
159.600000 -1.664502
159.650000 -1.671354
159.700000 -1.650799
159.750000 -1.592559
159.800000 -1.548022
159.850000 -1.530893
159.900000 -1.500059
159.950000 -1.448672
160.000000 -1.421265
160.050000 -1.448672
160.100000 -1.496634
160.150000 -1.537744
160.200000 -1.578855
160.250000 -1.647373
160.300000 -1.739872
160.350000 -1.832372
160.400000 -1.907741
160.450000 -1.952277
160.500000 -1.962555
160.550000 -1.945426
160.600000 -1.911166
160.650000 -1.846074
160.700000 -1.760428
160.750000 -1.681632
160.800000 -1.606262
160.850000 -1.524041
160.900000 -1.462375
160.950000 -1.455524
161.000000 -1.486356
161.050000 -1.554874
161.100000 -1.657651
161.150000 -1.760428
161.200000 -1.846075
161.250000 -1.924870
161.300000 -1.986537
161.350000 -2.024221
161.400000 -2.027647
161.450000 -1.996814
161.500000 -1.900889
161.550000 -1.780983
161.600000 -1.681632
161.650000 -1.613115
161.700000 -1.558300
161.750000 -1.517189
161.800000 -1.524041
161.850000 -1.592559
161.900000 -1.691910
161.950000 -1.770705
162.000000 -1.842649
162.050000 -1.928297
162.100000 -1.996814
162.150000 -1.993388
162.200000 -1.941999
162.250000 -1.883760
162.300000 -1.832372
162.350000 -1.746724
162.400000 -1.599411
162.450000 -1.441819
162.500000 -1.328766
162.550000 -1.256821
162.600000 -1.205434
162.650000 -1.215711
162.700000 -1.304784
162.750000 -1.448671
162.800000 -1.616540
162.850000 -1.808390
162.900000 -2.027647
162.950000 -2.250330
163.000000 -2.442179
163.050000 -2.572363
163.100000 -2.651159
163.150000 -2.671714
163.200000 -2.610048
163.250000 -2.462735
163.300000 -2.257182
163.350000 -2.020795
163.400000 -1.760428
163.450000 -1.500060
163.500000 -1.263674
163.550000 -1.051268
163.600000 -0.886826
163.650000 -0.811456
163.700000 -0.825160
163.750000 -0.893678
163.800000 -1.017009
163.850000 -1.188304
163.900000 -1.366451
163.950000 -1.541171
164.000000 -1.715891
164.050000 -1.866630
164.100000 -1.965981
164.150000 -2.024221
164.200000 -2.044776
164.250000 -1.989962
164.300000 -1.887186
164.350000 -1.784409
164.400000 -1.685057
164.450000 -1.585708
164.500000 -1.520615
164.550000 -1.496634
164.600000 -1.500060
164.650000 -1.541171
164.700000 -1.664502
164.750000 -1.832371
164.800000 -2.010518
164.850000 -2.188663
164.900000 -2.370236
164.950000 -2.541530
165.000000 -2.671715
165.050000 -2.757362
165.100000 -2.808750
165.150000 -2.832731
165.200000 -2.812176
165.250000 -2.747083
165.300000 -2.688844
165.350000 -2.654585
165.400000 -2.623752
165.450000 -2.606623
165.500000 -2.610048
165.550000 -2.627178
165.600000 -2.664863
165.650000 -2.747084
165.700000 -2.825879
165.750000 -2.853286
165.800000 -2.853286
165.850000 -2.836157
165.900000 -2.798473
165.950000 -2.719676
166.000000 -2.610048
166.050000 -2.483290
166.100000 -2.349681
166.150000 -2.212645
166.200000 -2.085887
166.250000 -1.983110
166.300000 -1.904315
166.350000 -1.842649
166.400000 -1.815242
166.450000 -1.822094
166.500000 -1.839223
166.550000 -1.859778
166.600000 -1.894037
166.650000 -1.931722
166.700000 -1.955703
166.750000 -1.969407
166.800000 -1.965981
166.850000 -1.941999
166.900000 -1.911167
166.950000 -1.880334
167.000000 -1.852927
167.050000 -1.828945
167.100000 -1.825520
167.150000 -1.859779
167.200000 -1.904315
167.250000 -1.931722
167.300000 -1.962555
167.350000 -2.020795
167.400000 -2.072183
167.450000 -2.075609
167.500000 -2.065331
167.550000 -2.061906
167.600000 -2.044777
167.650000 -1.996813
167.700000 -1.948851
167.750000 -1.897463
167.800000 -1.818667
167.850000 -1.753576
167.900000 -1.726169
167.950000 -1.722742
168.000000 -1.767279
168.050000 -1.863204
168.100000 -1.989962
168.150000 -2.120146
168.200000 -2.284589
168.250000 -2.490142
168.300000 -2.688843
168.350000 -2.866990
168.400000 -3.024581
168.450000 -3.137636
168.500000 -3.175320
168.550000 -3.171894
168.600000 -3.130783
168.650000 -3.021155
168.700000 -2.856712
168.750000 -2.678566
168.800000 -2.500419
168.850000 -2.322273
168.900000 -2.168108
168.950000 -2.034499
169.000000 -1.911166
169.050000 -1.804964
169.100000 -1.736447
169.150000 -1.681632
169.200000 -1.623392
169.250000 -1.572003
169.300000 -1.544597
169.350000 -1.513763
169.400000 -1.476079
169.450000 -1.465801
169.500000 -1.500060
169.550000 -1.541171
169.600000 -1.578855
169.650000 -1.643947
169.700000 -1.726168
169.750000 -1.780983
169.800000 -1.794686
169.850000 -1.787835
169.900000 -1.804964
169.950000 -1.825520
170.000000 -1.794687
170.050000 -1.729595
170.100000 -1.671355
170.150000 -1.643947
170.200000 -1.616540
170.250000 -1.599411
170.300000 -1.613114
170.350000 -1.643947
170.400000 -1.698761
170.450000 -1.760428
170.500000 -1.818668
170.550000 -1.866630
170.600000 -1.907741
170.650000 -1.931722
170.700000 -1.948852
170.750000 -1.959129
170.800000 -1.962555
170.850000 -1.955703
170.900000 -1.948851
170.950000 -1.928296
171.000000 -1.870056
171.050000 -1.798112
171.100000 -1.746724
171.150000 -1.685058
171.200000 -1.592559
171.250000 -1.496634
171.300000 -1.424690
171.350000 -1.342469
171.400000 -1.239692
171.450000 -1.150619
171.500000 -1.112934
171.550000 -1.112934
171.600000 -1.133490
171.650000 -1.167749
171.700000 -1.239692
171.750000 -1.359598
171.800000 -1.506911
171.850000 -1.637096
171.900000 -1.753576
171.950000 -1.863205
172.000000 -1.935148
172.050000 -1.942000
172.100000 -1.904315
172.150000 -1.828945
172.200000 -1.715891
172.250000 -1.592559
172.300000 -1.500060
172.350000 -1.410987
172.400000 -1.328766
172.450000 -1.304784
172.500000 -1.352747
172.550000 -1.434967
172.600000 -1.565152
172.650000 -1.746724
172.700000 -1.945425
172.750000 -2.123572
172.800000 -2.291440
172.850000 -2.438753
172.900000 -2.541530
172.950000 -2.596344
173.000000 -2.616900
173.050000 -2.575790
173.100000 -2.476438
173.150000 -2.373662
173.200000 -2.274311
173.250000 -2.161257
173.300000 -2.051628
173.350000 -1.969407
173.400000 -1.907741
173.450000 -1.856353
173.500000 -1.835797
173.550000 -1.839223
173.600000 -1.842649
173.650000 -1.866630
173.700000 -1.911167
173.750000 -1.928296
173.800000 -1.914592
173.850000 -1.918018
173.900000 -1.904315
173.950000 -1.828946
174.000000 -1.739872
174.050000 -1.674781
174.100000 -1.582281
174.150000 -1.469227
174.200000 -1.390431
174.250000 -1.359598
174.300000 -1.349320
174.350000 -1.366450
174.400000 -1.428116
174.450000 -1.496633
174.500000 -1.578856
174.550000 -1.705613
174.600000 -1.863204
174.650000 -2.003666
174.700000 -2.106442
174.750000 -2.205794
174.800000 -2.284589
174.850000 -2.325699
174.900000 -2.325700
174.950000 -2.298292
175.000000 -2.229775
175.050000 -2.133849
175.100000 -2.034499
175.150000 -1.938574
175.200000 -1.863204
175.250000 -1.808390
175.300000 -1.760428
175.350000 -1.729595
175.400000 -1.763853
175.450000 -1.828946
175.500000 -1.880334
175.550000 -1.969407
175.600000 -2.123572
175.650000 -2.281163
175.700000 -2.445606
175.750000 -2.647733
175.800000 -2.839583
175.850000 -2.980045
175.900000 -3.117080
175.950000 -3.230134
176.000000 -3.260968
176.050000 -3.223283
176.100000 -3.137636
176.150000 -2.966341
176.200000 -2.712825
176.250000 -2.462735
176.300000 -2.205793
176.350000 -1.900889
176.400000 -1.585707
176.450000 -1.349320
176.500000 -1.205434
176.550000 -1.123212
176.600000 -1.092379
176.650000 -1.130064
176.700000 -1.219137
176.750000 -1.339043
176.800000 -1.486356
176.850000 -1.654225
176.900000 -1.791261
176.950000 -1.894037
177.000000 -1.989962
177.050000 -2.079035
177.100000 -2.126998
177.150000 -2.157831
177.200000 -2.222923
177.250000 -2.291441
177.300000 -2.325699
177.350000 -2.349680
177.400000 -2.404495
177.450000 -2.469587
177.500000 -2.517549
177.550000 -2.555234
177.600000 -2.562086
177.650000 -2.534679
177.700000 -2.524401
177.750000 -2.527827
177.800000 -2.510697
177.850000 -2.483290
177.900000 -2.479865
177.950000 -2.496994
178.000000 -2.517549
178.050000 -2.541530
178.100000 -2.558660
178.150000 -2.579216
178.200000 -2.606622
178.250000 -2.623752
178.300000 -2.589493
178.350000 -2.507271
178.400000 -2.414773
178.450000 -2.329125
178.500000 -2.243478
178.550000 -2.171534
178.600000 -2.130424
178.650000 -2.103016
178.700000 -2.072183
178.750000 -2.027647
178.800000 -1.979684
178.850000 -1.928296
178.900000 -1.866630
178.950000 -1.794686
179.000000 -1.719317
179.050000 -1.667928
179.100000 -1.643947
179.150000 -1.616540
179.200000 -1.595985
179.250000 -1.606263
179.300000 -1.647373
179.350000 -1.715891
179.400000 -1.808390
179.450000 -1.924870
179.500000 -2.031072
179.550000 -2.099591
179.600000 -2.137275
179.650000 -2.140701
179.700000 -2.109868
179.750000 -2.048202
179.800000 -1.989962
179.850000 -1.921444
179.900000 -1.808390
179.950000 -1.681632
180.000000 -1.595985
180.050000 -1.575430
180.100000 -1.589133
180.150000 -1.633670
180.200000 -1.722743
180.250000 -1.849501
180.300000 -1.983110
180.350000 -2.109868
180.400000 -2.236626
180.450000 -2.359958
180.500000 -2.469586
180.550000 -2.538104
180.600000 -2.551808
180.650000 -2.524401
180.700000 -2.476439
180.750000 -2.397643
180.800000 -2.315422
180.850000 -2.229775
180.900000 -2.140702
180.950000 -2.072184
181.000000 -2.058480
181.050000 -2.082461
181.100000 -2.147554
181.150000 -2.250330
181.200000 -2.380514
181.250000 -2.496994
181.300000 -2.589492
181.350000 -2.647733
181.400000 -2.671714
181.450000 -2.668288
181.500000 -2.623752
181.550000 -2.544956
181.600000 -2.466161
181.650000 -2.377088
181.700000 -2.246904
181.750000 -2.116720
181.800000 -2.010518
181.850000 -1.900889
181.900000 -1.780982
181.950000 -1.705613
182.000000 -1.667928
182.050000 -1.626818
182.100000 -1.613114
182.150000 -1.664503
182.200000 -1.746724
182.250000 -1.815241
182.300000 -1.894037
182.350000 -1.996814
182.400000 -2.092739
182.450000 -2.154404
182.500000 -2.185238
182.550000 -2.174961
182.600000 -2.113295
182.650000 -2.020795
182.700000 -1.959129
182.750000 -1.904315
182.800000 -1.856353
182.850000 -1.887185
182.900000 -1.996814
182.950000 -2.126998
183.000000 -2.277737
183.050000 -2.473012
183.100000 -2.675140
183.150000 -2.839583
183.200000 -2.956063
183.250000 -2.990322
183.300000 -2.928656
183.350000 -2.791621
183.400000 -2.610048
183.450000 -2.373662
183.500000 -2.106443
183.550000 -1.849500
183.600000 -1.633670
183.650000 -1.452098
183.700000 -1.304784
183.750000 -1.195156
183.800000 -1.126638
183.850000 -1.102657
183.900000 -1.116360
183.950000 -1.143768
184.000000 -1.178026
184.050000 -1.236266
184.100000 -1.304784
184.150000 -1.376728
184.200000 -1.500060
184.250000 -1.681632
184.300000 -1.873482
184.350000 -2.058480
184.400000 -2.260607
184.450000 -2.455883
184.500000 -2.582641
184.550000 -2.637456
184.600000 -2.661437
184.650000 -2.613474
184.700000 -2.462735
184.750000 -2.277736
184.800000 -2.079035
184.850000 -1.849501
184.900000 -1.626818
184.950000 -1.455524
185.000000 -1.328766
185.050000 -1.232841
185.100000 -1.191730
185.150000 -1.212285
185.200000 -1.294506
185.250000 -1.431542
185.300000 -1.592558
185.350000 -1.739872
185.400000 -1.859778
185.450000 -1.965981
185.500000 -2.024221
185.550000 -1.979685
185.600000 -1.880334
185.650000 -1.784409
185.700000 -1.657651
185.750000 -1.452098
185.800000 -1.260247
185.850000 -1.116360
185.900000 -0.993028
185.950000 -0.900529
186.000000 -0.883399
186.050000 -0.914232
186.100000 -0.982751
186.150000 -1.126638
186.200000 -1.321914
186.250000 -1.506911
186.300000 -1.705614
186.350000 -1.907741
186.400000 -2.024221
186.450000 -2.068757
186.500000 -2.096164
186.550000 -2.092739
186.600000 -2.020795
186.650000 -1.904314
186.700000 -1.774131
186.750000 -1.647374
186.800000 -1.517189
186.850000 -1.393858
186.900000 -1.297932
186.950000 -1.232841
187.000000 -1.212285
187.050000 -1.225988
187.100000 -1.256821
187.150000 -1.304784
187.200000 -1.359599
187.250000 -1.438394
187.300000 -1.524041
187.350000 -1.599411
187.400000 -1.654225
187.450000 -1.705613
187.500000 -1.767279
187.550000 -1.859779
187.600000 -1.979685
187.650000 -2.109868
187.700000 -2.250329
187.750000 -2.390791
187.800000 -2.510698
187.850000 -2.627178
187.900000 -2.733380
187.950000 -2.805324
188.000000 -2.832731
188.050000 -2.846434
188.100000 -2.853286
188.150000 -2.805324
188.200000 -2.688844
188.250000 -2.582641
188.300000 -2.500420
188.350000 -2.394218
188.400000 -2.260607
188.450000 -2.168108
188.500000 -2.113294
188.550000 -2.068758
188.600000 -2.051628
188.650000 -2.065332
188.700000 -2.085887
188.750000 -2.103017
188.800000 -2.116720
188.850000 -2.109868
188.900000 -2.113294
