time[ns] Raw_signal[mV]
-11.200000 0.284281
-11.150000 0.174652
-11.100000 0.061597
-11.050000 -0.027476
-11.000000 -0.106271
-10.950000 -0.167937
-10.900000 -0.188493
-10.850000 -0.174789
-10.800000 -0.109697
-10.750000 -0.020624
-10.700000 0.082153
-10.650000 0.181503
-10.600000 0.270577
-10.550000 0.311687
-10.500000 0.304835
-10.450000 0.270576
-10.400000 0.195208
-10.350000 0.089005
-10.300000 -0.024050
-10.250000 -0.126826
-10.200000 -0.209048
-10.150000 -0.277565
-10.100000 -0.335805
-10.050000 -0.380342
-10.000000 -0.390620
-9.950000 -0.370064
-9.900000 -0.346084
-9.850000 -0.339232
-9.800000 -0.356361
-9.750000 -0.359787
-9.700000 -0.356361
-9.650000 -0.373491
-9.600000 -0.373490
-9.550000 -0.339231
-9.500000 -0.291269
-9.450000 -0.267287
-9.400000 -0.236455
-9.350000 -0.154234
-9.300000 -0.051457
-9.250000 0.023912
-9.200000 0.109560
-9.150000 0.226040
-9.100000 0.345947
-9.050000 0.438446
-9.000000 0.524093
-8.950000 0.592611
-8.900000 0.609740
-8.850000 0.589184
-8.800000 0.558351
-8.750000 0.510389
-8.700000 0.452149
-8.650000 0.390483
-8.600000 0.315114
-8.550000 0.219189
-8.500000 0.102709
-8.450000 -0.006920
-8.400000 -0.102845
-8.350000 -0.161085
-8.300000 -0.191918
-8.250000 -0.202196
-8.200000 -0.178214
-8.150000 -0.092568
-8.100000 0.020487
-8.050000 0.112986
-8.000000 0.212337
-7.950000 0.345947
-7.900000 0.445297
-7.850000 0.472704
-7.800000 0.482982
-7.750000 0.506963
-7.700000 0.482982
-7.650000 0.393909
-7.600000 0.308261
-7.550000 0.232892
-7.500000 0.123263
-7.450000 -0.000068
-7.400000 -0.072013
-7.350000 -0.075438
-7.300000 -0.051457
-7.250000 0.006783
-7.200000 0.102708
-7.150000 0.232892
-7.100000 0.387057
-7.050000 0.537796
-7.000000 0.630296
-6.950000 0.671406
-6.900000 0.702239
-6.850000 0.709091
-6.800000 0.616592
-6.750000 0.441871
-6.700000 0.253447
-6.650000 0.065024
-6.600000 -0.140530
-6.550000 -0.325528
-6.500000 -0.459138
-6.450000 -0.565340
-6.400000 -0.650987
-6.350000 -0.674968
-6.300000 -0.627006
-6.250000 -0.551637
-6.200000 -0.476267
-6.150000 -0.400898
-6.100000 -0.322102
-6.050000 -0.274140
-6.000000 -0.239880
-5.950000 -0.205622
-5.900000 -0.181640
-5.850000 -0.209048
-5.800000 -0.267288
-5.750000 -0.298121
-5.700000 -0.298121
-5.650000 -0.294695
-5.600000 -0.280991
-5.550000 -0.253584
-5.500000 -0.215899
-5.450000 -0.188493
-5.400000 -0.185067
-5.350000 -0.198770
-5.300000 -0.209048
-5.250000 -0.236455
-5.200000 -0.294695
-5.150000 -0.370065
-5.100000 -0.428304
-5.050000 -0.465990
-5.000000 -0.479693
-4.950000 -0.448860
-4.900000 -0.407749
-4.850000 -0.387194
-4.800000 -0.349509
-4.750000 -0.280992
-4.700000 -0.219325
-4.650000 -0.191918
-4.600000 -0.195344
-4.550000 -0.222752
-4.500000 -0.270714
-4.450000 -0.349509
-4.400000 -0.452286
-4.350000 -0.568766
-4.300000 -0.681820
-4.250000 -0.777745
-4.200000 -0.832559
-4.150000 -0.829134
-4.100000 -0.774320
-4.050000 -0.709228
-4.000000 -0.627006
-3.950000 -0.489970
-3.900000 -0.298121
-3.850000 -0.092568
-3.800000 0.116412
-3.750000 0.328817
-3.700000 0.520667
-3.650000 0.671406
-3.600000 0.787886
-3.550000 0.890663
-3.500000 0.942051
-3.450000 0.948903
-3.400000 0.928347
-3.350000 0.822145
-3.300000 0.613166
-3.250000 0.459001
-3.200000 0.411039
-3.150000 0.294558
-3.100000 0.092431
-3.050000 0.023913
-3.000000 0.075301
-2.950000 0.051320
-2.900000 0.003357
-2.850000 0.017061
-2.800000 -0.041179
-2.750000 -0.102845
-2.700000 0.030765
-2.650000 0.119838
-2.600000 -0.054883
-2.550000 -0.161085
-2.500000 -0.065160
-2.450000 -0.150807
-2.400000 -0.383768
-2.350000 -0.366639
-2.300000 -0.294695
-2.250000 -0.452286
-2.200000 -0.507100
-2.150000 -0.280991
-2.100000 -0.212474
-2.050000 -0.380342
-2.000000 -0.435157
-1.950000 -0.339231
-1.900000 -0.260436
-1.850000 -0.178214
-1.800000 -0.157659
-1.750000 -0.284417
-1.700000 -0.356361
-1.650000 -0.304973
-1.600000 -0.390620
-1.550000 -0.527655
-1.500000 -0.414601
-1.450000 -0.229603
-1.400000 -0.226177
-1.350000 -0.215899
-1.300000 -0.147382
-1.250000 -0.202196
-1.200000 -0.202196
-1.150000 -0.003495
-1.100000 0.003357
-1.050000 -0.277566
-1.000000 -0.339232
-0.950000 -0.150808
-0.900000 -0.119975
-0.850000 -0.157660
-0.800000 -0.003495
-0.750000 0.133542
-0.700000 0.106134
-0.650000 0.171226
-0.600000 0.339095
-0.550000 0.359650
-0.500000 0.291132
-0.450000 0.308261
-0.400000 0.311687
-0.350000 0.208910
-0.300000 0.075301
-0.250000 -0.044605
-0.200000 -0.171363
-0.150000 -0.257010
-0.100000 -0.287844
-0.050000 -0.280992
0.000000 -0.226178
0.050000 -0.209048
0.100000 -0.274139
0.150000 -0.253585
0.200000 -0.126827
0.250000 -0.150808
0.300000 -0.322102
0.350000 -0.352935
0.400000 -0.270714
0.450000 -0.318676
0.500000 -0.414601
0.550000 -0.421453
0.600000 -0.462564
0.650000 -0.589321
0.700000 -0.616729
0.750000 -0.513952
0.800000 -0.404323
0.850000 -0.274140
0.900000 -0.003495
0.950000 0.397335
1.000000 0.935200
1.050000 1.675192
1.100000 2.651570
1.150000 3.874614
1.200000 5.399135
1.250000 7.228559
1.300000 9.294367
1.350000 11.490371
1.400000 13.768582
1.450000 16.200965
1.500000 18.825201
1.550000 21.476833
1.600000 24.018843
1.650000 26.543726
1.700000 29.065190
1.750000 31.422190
1.800000 33.535970
1.850000 35.516130
1.900000 37.359270
1.950000 38.921470
2.000000 40.123960
2.050000 41.000990
2.100000 41.603940
2.150000 41.884870
2.200000 41.758110
2.250000 41.240800
2.300000 40.445990
2.350000 39.438780
2.400000 38.202030
2.450000 36.756310
2.500000 35.159840
2.550000 33.402360
2.600000 31.487290
2.650000 29.541382
2.700000 27.592050
2.750000 25.567354
2.800000 23.504965
2.850000 21.548777
2.900000 19.695376
2.950000 17.903630
3.000000 16.286613
3.050000 14.964220
3.100000 13.905619
3.150000 13.083406
3.200000 12.579800
3.250000 12.401653
3.300000 12.463320
3.350000 12.730539
3.400000 13.193034
3.450000 13.816547
3.500000 14.508576
3.550000 15.173197
3.600000 15.789855
3.650000 16.348280
3.700000 16.797068
3.750000 17.105396
3.800000 17.293825
3.850000 17.362345
3.900000 17.293827
3.950000 17.146511
4.000000 16.916977
4.050000 16.570962
4.100000 16.156430
4.150000 15.717916
4.200000 15.190328
4.250000 14.535984
4.300000 13.799417
4.350000 13.004610
4.400000 12.141286
4.450000 11.233425
4.500000 10.291305
4.550000 9.366315
4.600000 8.513268
4.650000 7.725313
4.700000 6.992173
4.750000 6.382365
4.800000 5.954129
4.850000 5.662928
4.900000 5.460800
4.950000 5.354598
5.000000 5.313487
5.050000 5.313487
5.100000 5.371727
5.150000 5.474503
5.200000 5.590984
5.250000 5.717742
5.300000 5.844499
5.350000 5.967833
5.400000 6.115145
5.450000 6.286440
5.500000 6.461160
5.550000 6.629029
5.600000 6.800323
5.650000 6.937359
5.700000 7.005877
5.750000 7.023006
5.800000 6.999025
5.850000 6.920229
5.900000 6.772917
5.950000 6.557085
6.000000 6.272736
6.050000 5.940425
6.100000 5.604687
6.150000 5.255247
6.200000 4.885251
6.250000 4.532384
6.300000 4.234332
6.350000 3.956835
6.400000 3.665634
6.450000 3.388137
6.500000 3.148324
6.550000 2.929067
6.600000 2.723514
6.650000 2.535090
6.700000 2.391202
6.750000 2.278149
6.800000 2.161669
6.850000 2.034910
6.900000 1.949263
6.950000 1.921856
7.000000 1.921856
7.050000 1.949263
7.100000 2.024632
7.150000 2.120557
7.200000 2.233612
7.250000 2.384351
7.300000 2.565923
7.350000 2.720088
7.400000 2.846847
7.450000 2.997585
7.500000 3.165454
7.550000 3.295637
7.600000 3.391562
7.650000 3.466932
7.700000 3.494340
7.750000 3.442951
7.800000 3.329897
7.850000 3.199713
7.900000 3.042122
7.950000 2.822864
8.000000 2.572775
8.050000 2.319259
8.100000 2.062318
8.150000 1.815653
8.200000 1.606674
8.250000 1.452509
8.300000 1.346306
8.350000 1.274363
8.400000 1.219549
8.450000 1.171586
8.500000 1.140753
8.550000 1.085938
8.600000 0.976311
8.650000 0.856404
8.700000 0.746776
8.750000 0.592611
8.800000 0.380205
8.850000 0.191781
8.900000 0.044469
8.950000 -0.102846
9.000000 -0.229603
9.050000 -0.270714
9.100000 -0.233029
9.150000 -0.157659
9.200000 -0.068587
9.250000 0.041042
9.300000 0.171226
9.350000 0.284281
9.400000 0.366501
9.450000 0.438445
9.500000 0.493259
9.550000 0.500111
9.600000 0.476130
9.650000 0.459001
9.700000 0.459001
9.750000 0.445297
9.800000 0.431594
9.850000 0.424741
9.900000 0.448724
9.950000 0.476130
10.000000 0.479557
10.050000 0.441872
10.100000 0.359650
10.150000 0.246596
10.200000 0.106134
10.250000 -0.075438
10.300000 -0.301547
10.350000 -0.537933
10.400000 -0.757190
10.450000 -0.949040
10.500000 -1.082650
10.550000 -1.158019
10.600000 -1.175149
10.650000 -1.127186
10.700000 -1.014132
10.750000 -0.866819
10.800000 -0.702376
10.850000 -0.531082
10.900000 -0.394046
10.950000 -0.280991
11.000000 -0.198770
11.050000 -0.164511
11.100000 -0.181641
11.150000 -0.195344
11.200000 -0.178215
11.250000 -0.181640
11.300000 -0.226177
11.350000 -0.267288
11.400000 -0.257011
11.450000 -0.215899
11.500000 -0.174789
11.550000 -0.164511
11.600000 -0.161085
11.650000 -0.161085
11.700000 -0.171363
11.750000 -0.212473
11.800000 -0.287843
11.850000 -0.380342
11.900000 -0.476267
11.950000 -0.558489
12.000000 -0.644136
12.050000 -0.743487
12.100000 -0.842837
12.150000 -0.925058
12.200000 -1.027836
12.250000 -1.134038
12.300000 -1.216259
12.350000 -1.295055
12.400000 -1.411535
12.450000 -1.507460
12.500000 -1.538293
12.550000 -1.531441
12.600000 -1.514311
12.650000 -1.459498
12.700000 -1.319036
12.750000 -1.134038
12.800000 -0.959318
12.850000 -0.815430
12.900000 -0.671543
12.950000 -0.548211
13.000000 -0.469415
13.050000 -0.421453
13.100000 -0.390620
13.150000 -0.411175
13.200000 -0.459138
13.250000 -0.503674
13.300000 -0.551637
13.350000 -0.616729
13.400000 -0.654414
13.450000 -0.664691
13.500000 -0.685246
13.550000 -0.733209
13.600000 -0.767467
13.650000 -0.801726
13.700000 -0.849689
13.750000 -0.914781
13.800000 -0.976447
13.850000 -1.044965
13.900000 -1.110057
13.950000 -1.178575
14.000000 -1.250518
14.050000 -1.298481
14.100000 -1.281352
14.150000 -1.236814
14.200000 -1.212834
14.250000 -1.205981
14.300000 -1.182000
14.350000 -1.161445
14.400000 -1.161445
14.450000 -1.151168
14.500000 -1.134039
14.550000 -1.130612
14.600000 -1.134038
14.650000 -1.140890
14.700000 -1.168297
14.750000 -1.188852
14.800000 -1.161445
14.850000 -1.123760
14.900000 -1.113483
14.950000 -1.096353
15.000000 -1.048391
15.050000 -1.000428
15.100000 -0.979873
15.150000 -0.955891
15.200000 -0.945615
15.250000 -0.928485
15.300000 -0.897652
15.350000 -0.856541
15.400000 -0.853115
15.450000 -0.883949
15.500000 -0.921633
15.550000 -0.969595
15.600000 -1.041539
15.650000 -1.123761
15.700000 -1.223111
15.750000 -1.349870
15.800000 -1.476627
15.850000 -1.572552
15.900000 -1.644496
15.950000 -1.675329
16.000000 -1.661625
16.050000 -1.610237
16.100000 -1.531441
16.150000 -1.401257
16.200000 -1.240240
16.250000 -1.082650
16.300000 -0.935336
16.350000 -0.805153
16.400000 -0.709228
16.450000 -0.640710
16.500000 -0.603026
16.550000 -0.603026
16.600000 -0.627007
16.650000 -0.644136
16.700000 -0.685247
16.750000 -0.750338
16.800000 -0.798301
16.850000 -0.822282
16.900000 -0.842837
16.950000 -0.877097
17.000000 -0.938762
17.050000 -1.027836
17.100000 -1.092927
17.150000 -1.130612
17.200000 -1.182001
17.250000 -1.229963
17.300000 -1.240241
17.350000 -1.216260
17.400000 -1.182000
17.450000 -1.120334
17.500000 -1.038114
17.550000 -0.955891
17.600000 -0.883948
17.650000 -0.822282
17.700000 -0.801727
17.750000 -0.818856
17.800000 -0.842838
17.850000 -0.873670
17.900000 -0.931910
17.950000 -1.000429
18.000000 -1.027836
18.050000 -1.017557
18.100000 -0.990151
18.150000 -0.955891
18.200000 -0.901077
18.250000 -0.825708
18.300000 -0.729783
18.350000 -0.644136
18.400000 -0.603026
18.450000 -0.599599
18.500000 -0.596173
18.550000 -0.596173
18.600000 -0.630432
18.650000 -0.685247
18.700000 -0.719506
18.750000 -0.760616
18.800000 -0.812004
18.850000 -0.822282
18.900000 -0.801726
18.950000 -0.822282
19.000000 -0.880523
19.050000 -0.928485
19.100000 -0.979873
19.150000 -1.068946
19.200000 -1.168297
19.250000 -1.257370
19.300000 -1.325888
19.350000 -1.366999
19.400000 -1.377276
19.450000 -1.349869
19.500000 -1.284778
19.550000 -1.192278
19.600000 -1.106631
19.650000 -1.048391
19.700000 -1.014132
19.750000 -0.990151
19.800000 -0.973021
19.850000 -0.962744
19.900000 -0.976448
19.950000 -1.017558
20.000000 -1.058668
20.050000 -1.068947
20.100000 -1.041539
20.150000 -0.990150
20.200000 -0.914781
20.250000 -0.818856
20.300000 -0.729783
20.350000 -0.650988
20.400000 -0.572192
20.450000 -0.510526
20.500000 -0.496823
20.550000 -0.537934
20.600000 -0.613302
20.650000 -0.702376
20.700000 -0.770894
20.750000 -0.825708
20.800000 -0.880522
20.850000 -0.897652
20.900000 -0.866819
20.950000 -0.835985
21.000000 -0.812005
21.050000 -0.743487
21.100000 -0.640710
21.150000 -0.575618
21.200000 -0.534507
21.250000 -0.479693
21.300000 -0.445434
21.350000 -0.472841
21.400000 -0.510526
21.450000 -0.534507
21.500000 -0.582470
21.550000 -0.668117
21.600000 -0.750338
21.650000 -0.818856
21.700000 -0.873671
21.750000 -0.911355
21.800000 -0.955892
21.850000 -0.993577
21.900000 -0.986725
21.950000 -0.949041
22.000000 -0.914781
22.050000 -0.897652
22.100000 -0.866819
22.150000 -0.842837
22.200000 -0.842837
22.250000 -0.839412
22.300000 -0.812004
22.350000 -0.798301
22.400000 -0.808579
22.450000 -0.822282
22.500000 -0.822282
22.550000 -0.818856
22.600000 -0.805153
22.650000 -0.770894
22.700000 -0.722931
22.750000 -0.674969
22.800000 -0.616729
22.850000 -0.544785
22.900000 -0.472841
22.950000 -0.435157
23.000000 -0.445434
23.050000 -0.472841
23.100000 -0.524230
23.150000 -0.620154
23.200000 -0.750338
23.250000 -0.894226
23.300000 -1.055243
23.350000 -1.233389
23.400000 -1.380703
23.450000 -1.480053
23.500000 -1.545145
23.550000 -1.582830
23.600000 -1.572552
23.650000 -1.510886
23.700000 -1.390980
23.750000 -1.240241
23.800000 -1.068946
23.850000 -0.890800
23.900000 -0.729783
23.950000 -0.609877
24.000000 -0.524229
24.050000 -0.462564
24.100000 -0.452285
24.150000 -0.500249
24.200000 -0.579044
24.250000 -0.698950
24.300000 -0.853115
24.350000 -0.993576
24.400000 -1.086076
24.450000 -1.168297
24.500000 -1.247093
24.550000 -1.305333
24.600000 -1.332739
24.650000 -1.322462
24.700000 -1.308759
24.750000 -1.312185
24.800000 -1.319036
24.850000 -1.319036
24.900000 -1.339592
24.950000 -1.394406
25.000000 -1.425239
25.050000 -1.401258
25.100000 -1.349869
25.150000 -1.298481
25.200000 -1.219685
25.250000 -1.106631
25.300000 -0.983299
25.350000 -0.870244
25.400000 -0.767468
25.450000 -0.681821
25.500000 -0.606451
25.550000 -0.520804
25.600000 -0.438582
25.650000 -0.373491
25.700000 -0.332379
25.750000 -0.332380
25.800000 -0.342658
25.850000 -0.332380
25.900000 -0.328954
25.950000 -0.380343
26.000000 -0.424879
26.050000 -0.418027
26.100000 -0.428305
26.150000 -0.496822
26.200000 -0.568766
26.250000 -0.616728
26.300000 -0.674969
26.350000 -0.757191
26.400000 -0.839412
26.450000 -0.928485
26.500000 -1.003854
26.550000 -1.075798
26.600000 -1.175149
26.650000 -1.264222
26.700000 -1.305332
26.750000 -1.339592
26.800000 -1.408109
26.850000 -1.438942
26.900000 -1.394405
26.950000 -1.349869
27.000000 -1.298481
27.050000 -1.199130
27.100000 -1.089501
27.150000 -1.010706
27.200000 -0.928484
27.250000 -0.859967
27.300000 -0.849690
27.350000 -0.887374
27.400000 -0.925058
27.450000 -0.990151
27.500000 -1.106631
27.550000 -1.240241
27.600000 -1.356721
27.650000 -1.442368
27.700000 -1.483479
27.750000 -1.500609
27.800000 -1.490331
27.850000 -1.421813
27.900000 -1.295055
27.950000 -1.151168
28.000000 -1.014132
28.050000 -0.842838
28.100000 -0.674969
28.150000 -0.589322
28.200000 -0.558489
28.250000 -0.524230
28.300000 -0.537933
28.350000 -0.633858
28.400000 -0.764042
28.450000 -0.877097
28.500000 -0.997002
28.550000 -1.113482
28.600000 -1.195704
28.650000 -1.233389
28.700000 -1.226537
28.750000 -1.182001
28.800000 -1.110057
28.850000 -1.020983
28.900000 -0.907929
28.950000 -0.777745
29.000000 -0.657839
29.050000 -0.561914
29.100000 -0.493397
29.150000 -0.462564
29.200000 -0.465989
29.250000 -0.500249
29.300000 -0.579044
29.350000 -0.695525
29.400000 -0.815430
29.450000 -0.931910
29.500000 -1.055242
29.550000 -1.182001
29.600000 -1.277925
29.650000 -1.319037
29.700000 -1.322462
29.750000 -1.305332
29.800000 -1.260796
29.850000 -1.185426
29.900000 -1.116908
29.950000 -1.068946
30.000000 -1.044965
30.050000 -1.038113
30.100000 -1.038113
30.150000 -1.055243
30.200000 -1.106631
30.250000 -1.188852
30.300000 -1.277926
30.350000 -1.373851
30.400000 -1.493756
30.450000 -1.569126
30.500000 -1.596534
30.550000 -1.623940
30.600000 -1.637644
30.650000 -1.606811
30.700000 -1.538294
30.750000 -1.438942
30.800000 -1.298481
30.850000 -1.154594
30.900000 -1.024410
30.950000 -0.870244
31.000000 -0.719506
31.050000 -0.609877
31.100000 -0.541359
31.150000 -0.500248
31.200000 -0.524230
31.250000 -0.609877
31.300000 -0.702376
31.350000 -0.794875
31.400000 -0.938762
31.450000 -1.113483
31.500000 -1.226537
31.550000 -1.291629
31.600000 -1.346443
31.650000 -1.339592
31.700000 -1.233388
31.750000 -1.116909
31.800000 -1.024409
31.850000 -0.890800
31.900000 -0.740060
31.950000 -0.657839
32.000000 -0.630432
32.050000 -0.630433
32.100000 -0.678395
32.150000 -0.774319
32.200000 -0.887374
32.250000 -1.034688
32.300000 -1.185427
32.350000 -1.295055
32.400000 -1.370425
32.450000 -1.445794
32.500000 -1.476627
32.550000 -1.469775
32.600000 -1.456072
32.650000 -1.432091
32.700000 -1.366998
32.750000 -1.288203
32.800000 -1.226537
32.850000 -1.147742
32.900000 -1.065521
32.950000 -1.020984
33.000000 -0.983299
33.050000 -0.942188
33.100000 -0.949040
33.150000 -0.983299
33.200000 -1.010706
33.250000 -1.041539
33.300000 -1.082649
33.350000 -1.116909
33.400000 -1.140890
33.450000 -1.168297
33.500000 -1.185426
33.550000 -1.202556
33.600000 -1.243666
33.650000 -1.260796
33.700000 -1.243666
33.750000 -1.257370
33.800000 -1.315610
33.850000 -1.370424
33.900000 -1.390979
33.950000 -1.418387
34.000000 -1.435516
34.050000 -1.411535
34.100000 -1.370424
34.150000 -1.325888
34.200000 -1.253944
34.250000 -1.147742
34.300000 -1.034687
34.350000 -0.931911
34.400000 -0.863393
34.450000 -0.846263
34.500000 -0.853115
34.550000 -0.883948
34.600000 -0.945614
34.650000 -1.024409
34.700000 -1.092928
34.750000 -1.140890
34.800000 -1.168297
34.850000 -1.185427
34.900000 -1.192278
34.950000 -1.219685
35.000000 -1.253944
35.050000 -1.291629
35.100000 -1.360147
35.150000 -1.469775
35.200000 -1.603385
35.250000 -1.750698
35.300000 -1.915141
35.350000 -2.045324
35.400000 -2.127546
35.450000 -2.178935
35.500000 -2.154954
35.550000 -2.028196
35.600000 -1.860327
35.650000 -1.671903
35.700000 -1.421813
35.750000 -1.164871
35.800000 -0.979873
35.850000 -0.812005
35.900000 -0.671543
35.950000 -0.661265
36.000000 -0.753765
36.050000 -0.839412
36.100000 -0.952466
36.150000 -1.140890
36.200000 -1.329314
36.250000 -1.445794
36.300000 -1.517738
36.350000 -1.531442
36.400000 -1.462924
36.450000 -1.349870
36.500000 -1.219685
36.550000 -1.065520
36.600000 -0.904503
36.650000 -0.770893
36.700000 -0.671543
36.750000 -0.620154
36.800000 -0.620155
36.850000 -0.647562
36.900000 -0.702376
36.950000 -0.801726
37.000000 -0.938762
37.050000 -1.055242
37.100000 -1.151167
37.150000 -1.240240
37.200000 -1.325888
37.250000 -1.360147
37.300000 -1.349870
37.350000 -1.329314
37.400000 -1.301907
37.450000 -1.253944
37.500000 -1.216260
37.550000 -1.195704
37.600000 -1.178575
37.650000 -1.154593
37.700000 -1.151168
37.750000 -1.168297
37.800000 -1.188853
37.850000 -1.205982
37.900000 -1.226537
37.950000 -1.253944
38.000000 -1.260796
38.050000 -1.229963
38.100000 -1.178574
38.150000 -1.127186
38.200000 -1.055243
38.250000 -0.973022
38.300000 -0.918207
38.350000 -0.907930
38.400000 -0.911356
38.450000 -0.911355
38.500000 -0.921633
38.550000 -0.952466
38.600000 -0.990151
38.650000 -1.017558
38.700000 -1.027836
38.750000 -1.038113
38.800000 -1.041539
38.850000 -1.000428
38.900000 -0.928485
38.950000 -0.880522
39.000000 -0.870245
39.050000 -0.859966
39.100000 -0.866818
39.150000 -0.901077
39.200000 -0.945614
39.250000 -0.990151
39.300000 -1.034687
39.350000 -1.065520
39.400000 -1.075798
39.450000 -1.055243
39.500000 -1.003854
39.550000 -0.935336
39.600000 -0.877096
39.650000 -0.815431
39.700000 -0.736635
39.750000 -0.692098
39.800000 -0.695524
39.850000 -0.702376
39.900000 -0.712654
39.950000 -0.774320
40.000000 -0.873671
40.050000 -0.942188
40.100000 -0.976447
40.150000 -1.034687
40.200000 -1.082650
40.250000 -1.082649
40.300000 -1.041539
40.350000 -1.024410
40.400000 -1.027836
40.450000 -1.027835
40.500000 -1.044965
40.550000 -1.089502
40.600000 -1.144316
40.650000 -1.185426
40.700000 -1.236815
40.750000 -1.298481
40.800000 -1.353295
40.850000 -1.360147
40.900000 -1.329314
40.950000 -1.281351
41.000000 -1.216259
41.050000 -1.137464
41.100000 -1.055242
41.150000 -0.997003
41.200000 -0.942189
41.250000 -0.877096
41.300000 -0.822282
41.350000 -0.791449
41.400000 -0.753764
41.450000 -0.719505
41.500000 -0.729783
41.550000 -0.764042
41.600000 -0.781171
41.650000 -0.822282
41.700000 -0.883949
41.750000 -0.921633
41.800000 -0.938762
41.850000 -0.986725
41.900000 -1.034687
41.950000 -1.062094
42.000000 -1.092927
42.050000 -1.134038
42.100000 -1.154594
42.150000 -1.171723
42.200000 -1.185427
42.250000 -1.168297
42.300000 -1.134038
42.350000 -1.123761
42.400000 -1.106631
42.450000 -1.058669
42.500000 -1.010706
42.550000 -0.979873
42.600000 -0.945614
42.650000 -0.921633
42.700000 -0.935336
42.750000 -0.962743
42.800000 -1.000428
42.850000 -1.055242
42.900000 -1.116908
42.950000 -1.164871
43.000000 -1.202556
43.050000 -1.219685
43.100000 -1.205982
43.150000 -1.202556
43.200000 -1.219686
43.250000 -1.216259
43.300000 -1.212833
43.350000 -1.236814
43.400000 -1.253944
43.450000 -1.250519
43.500000 -1.260796
43.550000 -1.288204
43.600000 -1.291629
43.650000 -1.264221
43.700000 -1.226537
43.750000 -1.164871
43.800000 -1.075798
43.850000 -0.979873
43.900000 -0.904503
43.950000 -0.842837
44.000000 -0.798301
44.050000 -0.781171
44.100000 -0.794875
44.150000 -0.839412
44.200000 -0.901077
44.250000 -0.976447
44.300000 -1.044965
44.350000 -1.116908
44.400000 -1.182000
44.450000 -1.233389
44.500000 -1.240240
44.550000 -1.223112
44.600000 -1.226537
44.650000 -1.250518
44.700000 -1.267648
44.750000 -1.274500
44.800000 -1.284777
44.850000 -1.288203
44.900000 -1.264222
44.950000 -1.243667
45.000000 -1.209407
45.050000 -1.120335
45.100000 -1.010706
45.150000 -0.914781
45.200000 -0.812005
45.250000 -0.705801
45.300000 -0.613303
45.350000 -0.548210
45.400000 -0.524229
45.450000 -0.544785
45.500000 -0.592748
45.550000 -0.668117
45.600000 -0.767468
45.650000 -0.883948
45.700000 -1.000428
45.750000 -1.113483
45.800000 -1.195704
45.850000 -1.229963
45.900000 -1.212833
45.950000 -1.168297
46.000000 -1.099779
46.050000 -0.993576
46.100000 -0.853115
46.150000 -0.705802
46.200000 -0.585895
46.250000 -0.500249
46.300000 -0.442008
46.350000 -0.435157
46.400000 -0.489970
46.450000 -0.582470
46.500000 -0.698950
46.550000 -0.859967
46.600000 -1.068946
46.650000 -1.260796
46.700000 -1.401258
46.750000 -1.521164
46.800000 -1.627366
46.850000 -1.675329
46.900000 -1.651348
46.950000 -1.623940
47.000000 -1.593107
47.050000 -1.521164
47.100000 -1.408110
47.150000 -1.319036
47.200000 -1.253944
47.250000 -1.154593
47.300000 -1.027835
47.350000 -0.945614
47.400000 -0.897652
47.450000 -0.835986
47.500000 -0.777746
47.550000 -0.746912
47.600000 -0.716080
47.650000 -0.695524
47.700000 -0.695524
47.750000 -0.709228
47.800000 -0.722932
47.850000 -0.740060
47.900000 -0.781171
47.950000 -0.849689
48.000000 -0.925058
48.050000 -0.993576
48.100000 -1.068946
48.150000 -1.144315
48.200000 -1.195704
48.250000 -1.240241
48.300000 -1.291629
48.350000 -1.329314
48.400000 -1.339591
48.450000 -1.332740
48.500000 -1.312184
48.550000 -1.288203
48.600000 -1.295055
48.650000 -1.312185
48.700000 -1.329314
48.750000 -1.363573
48.800000 -1.390980
48.850000 -1.390980
48.900000 -1.366998
48.950000 -1.325888
49.000000 -1.247092
49.050000 -1.127186
49.100000 -1.003854
49.150000 -0.877096
49.200000 -0.757190
49.250000 -0.674969
49.300000 -0.613303
49.350000 -0.572192
49.400000 -0.603025
49.450000 -0.709228
49.500000 -0.835986
49.550000 -0.973021
49.600000 -1.127186
49.650000 -1.236815
49.700000 -1.308759
49.750000 -1.353295
49.800000 -1.332740
49.850000 -1.223112
49.900000 -1.092927
49.950000 -0.983299
50.000000 -0.870244
50.050000 -0.774319
50.100000 -0.750338
50.150000 -0.801726
50.200000 -0.901078
50.250000 -1.014132
50.300000 -1.144316
50.350000 -1.291629
50.400000 -1.425239
50.450000 -1.490331
50.500000 -1.490330
50.550000 -1.473201
50.600000 -1.425239
50.650000 -1.281352
50.700000 -1.086076
50.750000 -0.904503
50.800000 -0.753764
50.850000 -0.599600
50.900000 -0.476267
50.950000 -0.421453
51.000000 -0.424879
51.050000 -0.448860
51.100000 -0.503675
51.150000 -0.596173
51.200000 -0.716079
51.250000 -0.818856
51.300000 -0.866819
51.350000 -0.873671
51.400000 -0.880522
51.450000 -0.880522
51.500000 -0.856541
51.550000 -0.829134
51.600000 -0.815430
51.650000 -0.801727
51.700000 -0.801727
51.750000 -0.825708
51.800000 -0.842837
51.850000 -0.853115
51.900000 -0.894226
51.950000 -0.955892
52.000000 -1.014132
52.050000 -1.058669
52.100000 -1.110057
52.150000 -1.151168
52.200000 -1.188852
52.250000 -1.219685
52.300000 -1.243667
52.350000 -1.274499
52.400000 -1.315610
52.450000 -1.322462
52.500000 -1.291629
52.550000 -1.264221
52.600000 -1.229963
52.650000 -1.137464
52.700000 -1.017558
52.750000 -0.911356
52.800000 -0.818856
52.850000 -0.722931
52.900000 -0.664691
52.950000 -0.654413
53.000000 -0.685246
53.050000 -0.743487
53.100000 -0.842837
53.150000 -0.973021
53.200000 -1.103205
53.250000 -1.188852
53.300000 -1.243667
53.350000 -1.315611
53.400000 -1.366999
53.450000 -1.336165
53.500000 -1.250518
53.550000 -1.171723
53.600000 -1.110057
53.650000 -1.038113
53.700000 -0.976447
53.750000 -0.938762
53.800000 -0.921633
53.850000 -0.935336
53.900000 -0.986725
53.950000 -1.051817
54.000000 -1.110057
54.050000 -1.164871
54.100000 -1.223111
54.150000 -1.257370
54.200000 -1.264222
54.250000 -1.260796
54.300000 -1.253944
54.350000 -1.226537
54.400000 -1.182000
54.450000 -1.147741
54.500000 -1.130612
54.550000 -1.110057
54.600000 -1.072372
54.650000 -1.017558
54.700000 -0.966170
54.750000 -0.918207
54.800000 -0.894226
54.850000 -0.890800
54.900000 -0.870245
54.950000 -0.839411
55.000000 -0.832559
55.050000 -0.835986
55.100000 -0.818856
55.150000 -0.839412
55.200000 -0.887374
55.250000 -0.887374
55.300000 -0.863393
55.350000 -0.894226
55.400000 -0.952466
55.450000 -0.983299
55.500000 -1.007280
55.550000 -1.017558
55.600000 -1.007280
55.650000 -1.007280
55.700000 -1.020984
55.750000 -1.020984
55.800000 -1.031261
55.850000 -1.082650
55.900000 -1.127186
55.950000 -1.168297
56.000000 -1.247092
56.050000 -1.346443
56.100000 -1.408109
56.150000 -1.473201
56.200000 -1.562275
56.250000 -1.586256
56.300000 -1.558848
56.350000 -1.545145
56.400000 -1.531441
56.450000 -1.459497
56.500000 -1.373850
56.550000 -1.308758
56.600000 -1.253944
56.650000 -1.195704
56.700000 -1.137464
56.750000 -1.099779
56.800000 -1.079224
56.850000 -1.068947
56.900000 -1.027835
56.950000 -0.979873
57.000000 -0.962744
57.050000 -0.959318
57.100000 -0.949040
57.150000 -0.952466
57.200000 -0.983299
57.250000 -1.010706
57.300000 -1.027836
57.350000 -1.065521
57.400000 -1.099779
57.450000 -1.110057
57.500000 -1.120334
57.550000 -1.120335
57.600000 -1.072372
57.650000 -1.020984
57.700000 -0.983299
57.750000 -0.928485
57.800000 -0.883948
57.850000 -0.883948
57.900000 -0.880522
57.950000 -0.853115
58.000000 -0.859967
58.050000 -0.894226
58.100000 -0.901078
58.150000 -0.904504
58.200000 -0.928485
58.250000 -0.918207
58.300000 -0.877096
58.350000 -0.829134
58.400000 -0.777746
58.450000 -0.719505
58.500000 -0.695524
58.550000 -0.698950
58.600000 -0.716079
58.650000 -0.757190
58.700000 -0.812005
58.750000 -0.859966
58.800000 -0.907929
58.850000 -0.976447
58.900000 -1.058669
58.950000 -1.103205
59.000000 -1.092927
59.050000 -1.055242
59.100000 -0.997003
59.150000 -0.931911
59.200000 -0.894226
59.250000 -0.883949
59.300000 -0.894226
59.350000 -0.918207
59.400000 -0.973021
59.450000 -1.031262
59.500000 -1.082649
59.550000 -1.127186
59.600000 -1.147742
59.650000 -1.147741
59.700000 -1.123761
59.750000 -1.072372
59.800000 -1.007280
59.850000 -0.928485
59.900000 -0.832560
59.950000 -0.764041
60.000000 -0.757190
60.050000 -0.767468
60.100000 -0.794875
60.150000 -0.887374
60.200000 -1.020984
60.250000 -1.106631
60.300000 -1.164871
60.350000 -1.240240
60.400000 -1.288203
60.450000 -1.271074
60.500000 -1.240241
60.550000 -1.212833
60.600000 -1.151168
60.650000 -1.055243
60.700000 -0.966169
60.750000 -0.904503
60.800000 -0.877097
60.850000 -0.846263
60.900000 -0.801726
60.950000 -0.794875
61.000000 -0.835985
61.050000 -0.880522
61.100000 -0.925059
61.150000 -1.007280
61.200000 -1.086075
61.250000 -1.140890
61.300000 -1.216260
61.350000 -1.298480
61.400000 -1.332740
61.450000 -1.339592
61.500000 -1.346443
61.550000 -1.325888
61.600000 -1.267648
61.650000 -1.195704
61.700000 -1.116908
61.750000 -1.038113
61.800000 -0.986725
61.850000 -0.955892
61.900000 -0.918207
61.950000 -0.901078
62.000000 -0.952465
62.050000 -1.031261
62.100000 -1.072372
62.150000 -1.106631
62.200000 -1.178575
62.250000 -1.253945
62.300000 -1.305332
62.350000 -1.349869
62.400000 -1.397832
62.450000 -1.421813
62.500000 -1.418387
62.550000 -1.408109
62.600000 -1.418387
62.650000 -1.414961
62.700000 -1.397832
62.750000 -1.384128
62.800000 -1.363573
62.850000 -1.322462
62.900000 -1.271074
62.950000 -1.233389
63.000000 -1.188852
63.050000 -1.116908
63.100000 -1.031262
63.150000 -0.959318
63.200000 -0.897652
63.250000 -0.835985
63.300000 -0.781171
63.350000 -0.753764
63.400000 -0.750338
63.450000 -0.750339
63.500000 -0.764042
63.550000 -0.808578
63.600000 -0.890800
63.650000 -0.966169
63.700000 -1.000429
63.750000 -1.031262
63.800000 -1.096354
63.850000 -1.140890
63.900000 -1.116909
63.950000 -1.082650
64.000000 -1.079224
64.050000 -1.024409
64.100000 -0.918207
64.150000 -0.829134
64.200000 -0.753764
64.250000 -0.620155
64.300000 -0.469415
64.350000 -0.366639
64.400000 -0.294695
64.450000 -0.212474
64.500000 -0.161086
64.550000 -0.174789
64.600000 -0.229603
64.650000 -0.294695
64.700000 -0.383768
64.750000 -0.493396
64.800000 -0.603025
64.850000 -0.729783
64.900000 -0.880522
64.950000 -1.000428
65.000000 -1.075798
65.050000 -1.113482
65.100000 -1.116908
65.150000 -1.072372
65.200000 -1.000428
65.250000 -0.921633
65.300000 -0.835985
65.350000 -0.767468
65.400000 -0.740061
65.450000 -0.736634
65.500000 -0.764042
65.550000 -0.853115
65.600000 -0.993577
65.650000 -1.137464
65.700000 -1.274500
65.750000 -1.397832
65.800000 -1.466349
65.850000 -1.476627
65.900000 -1.435517
65.950000 -1.315611
66.000000 -1.134038
66.050000 -0.935336
66.100000 -0.729783
66.150000 -0.537933
66.200000 -0.414601
66.250000 -0.356361
66.300000 -0.311825
66.350000 -0.325528
66.400000 -0.448861
66.450000 -0.603025
66.500000 -0.722932
66.550000 -0.870244
66.600000 -1.038113
66.650000 -1.134038
66.700000 -1.158019
66.750000 -1.175149
66.800000 -1.140890
66.850000 -1.055243
66.900000 -0.986725
66.950000 -0.955891
67.000000 -0.911356
67.050000 -0.887374
67.100000 -0.904504
67.150000 -0.942188
67.200000 -0.959318
67.250000 -0.959318
67.300000 -0.942188
67.350000 -0.914782
67.400000 -0.890800
67.450000 -0.832560
67.500000 -0.746912
67.550000 -0.678394
67.600000 -0.585896
67.650000 -0.462564
67.700000 -0.407749
67.750000 -0.472841
67.800000 -0.555062
67.850000 -0.613303
67.900000 -0.716079
67.950000 -0.863393
68.000000 -0.997003
68.050000 -1.079224
68.100000 -1.110057
68.150000 -1.092927
68.200000 -1.055243
68.250000 -1.003854
68.300000 -0.918207
68.350000 -0.839411
68.400000 -0.788023
68.450000 -0.760616
68.500000 -0.764042
68.550000 -0.835986
68.600000 -0.959318
68.650000 -1.103205
68.700000 -1.257370
68.750000 -1.397831
68.800000 -1.514312
68.850000 -1.610237
68.900000 -1.671903
68.950000 -1.665051
69.000000 -1.617089
69.050000 -1.528016
69.100000 -1.394406
69.150000 -1.267648
69.200000 -1.182001
69.250000 -1.110057
69.300000 -1.058669
69.350000 -1.062095
69.400000 -1.086076
69.450000 -1.106631
69.500000 -1.147742
69.550000 -1.195704
69.600000 -1.202556
69.650000 -1.212834
69.700000 -1.236815
69.750000 -1.209408
69.800000 -1.137464
69.850000 -1.075798
69.900000 -0.993576
69.950000 -0.870244
70.000000 -0.791449
70.050000 -0.746913
70.100000 -0.664691
70.150000 -0.609877
70.200000 -0.657840
70.250000 -0.743487
70.300000 -0.798301
70.350000 -0.894226
70.400000 -1.024409
70.450000 -1.116909
70.500000 -1.168297
70.550000 -1.216259
70.600000 -1.236814
70.650000 -1.226537
70.700000 -1.202556
70.750000 -1.171722
70.800000 -1.130613
70.850000 -1.079224
70.900000 -1.010706
70.950000 -0.973021
71.000000 -0.993577
71.050000 -1.038113
71.100000 -1.079224
71.150000 -1.144315
71.200000 -1.226537
71.250000 -1.277925
71.300000 -1.288203
71.350000 -1.277925
71.400000 -1.267648
71.450000 -1.243667
71.500000 -1.192278
71.550000 -1.116909
71.600000 -1.041539
71.650000 -0.976447
71.700000 -0.887374
71.750000 -0.794875
71.800000 -0.733209
71.850000 -0.678395
71.900000 -0.620155
71.950000 -0.579044
72.000000 -0.534507
72.050000 -0.462563
72.100000 -0.407749
72.150000 -0.387194
72.200000 -0.370064
72.250000 -0.335806
72.300000 -0.335806
72.350000 -0.376916
72.400000 -0.418027
72.450000 -0.465989
72.500000 -0.534508
72.550000 -0.620155
72.600000 -0.736635
72.650000 -0.866819
72.700000 -0.983299
72.750000 -1.079224
72.800000 -1.188852
72.850000 -1.288203
72.900000 -1.349870
72.950000 -1.387554
73.000000 -1.401258
73.050000 -1.363573
73.100000 -1.305332
73.150000 -1.247093
73.200000 -1.175149
73.250000 -1.065521
73.300000 -0.952466
73.350000 -0.846263
73.400000 -0.757190
73.450000 -0.709228
73.500000 -0.685246
73.550000 -0.668117
73.600000 -0.661265
73.650000 -0.668117
73.700000 -0.688672
73.750000 -0.729783
73.800000 -0.784597
73.850000 -0.815430
73.900000 -0.846264
73.950000 -0.873671
74.000000 -0.873671
74.050000 -0.859967
74.100000 -0.866819
74.150000 -0.890800
74.200000 -0.897652
74.250000 -0.897651
74.300000 -0.904504
74.350000 -0.918207
74.400000 -0.935336
74.450000 -0.935336
74.500000 -0.918207
74.550000 -0.925058
74.600000 -0.949040
74.650000 -0.949040
74.700000 -0.918207
74.750000 -0.866819
74.800000 -0.801727
74.850000 -0.722932
74.900000 -0.650988
74.950000 -0.575618
75.000000 -0.500249
75.050000 -0.418028
75.100000 -0.339232
75.150000 -0.267288
75.200000 -0.243307
75.250000 -0.274140
75.300000 -0.339232
75.350000 -0.442008
75.400000 -0.561914
75.450000 -0.671543
75.500000 -0.788023
75.550000 -0.925059
75.600000 -1.034687
75.650000 -1.103205
75.700000 -1.175149
75.750000 -1.253944
75.800000 -1.298481
75.850000 -1.315610
75.900000 -1.308758
75.950000 -1.288203
76.000000 -1.274500
76.050000 -1.288203
76.100000 -1.312184
76.150000 -1.332740
76.200000 -1.366999
76.250000 -1.401257
76.300000 -1.418387
76.350000 -1.397831
76.400000 -1.363573
76.450000 -1.312184
76.500000 -1.219685
76.550000 -1.086076
76.600000 -0.931910
76.650000 -0.777746
76.700000 -0.640710
76.750000 -0.531082
76.800000 -0.459138
76.850000 -0.421453
76.900000 -0.411175
76.950000 -0.448860
77.000000 -0.537933
77.050000 -0.657839
77.100000 -0.777745
77.150000 -0.880522
77.200000 -0.997002
77.250000 -1.103205
77.300000 -1.168297
77.350000 -1.192278
77.400000 -1.192278
77.450000 -1.151168
77.500000 -1.075798
77.550000 -0.983298
77.600000 -0.887374
77.650000 -0.794875
77.700000 -0.722932
77.750000 -0.685246
77.800000 -0.664691
77.850000 -0.647562
77.900000 -0.616728
77.950000 -0.596174
78.000000 -0.627007
78.050000 -0.668117
78.100000 -0.640710
78.150000 -0.606451
78.200000 -0.623580
78.250000 -0.640710
78.300000 -0.603025
78.350000 -0.589322
78.400000 -0.609877
78.450000 -0.606451
78.500000 -0.585896
78.550000 -0.609877
78.600000 -0.661265
78.650000 -0.705802
78.700000 -0.750339
78.750000 -0.801726
78.800000 -0.853115
78.850000 -0.887374
78.900000 -0.887374
78.950000 -0.859967
79.000000 -0.842837
79.050000 -0.829134
79.100000 -0.805152
79.150000 -0.750338
79.200000 -0.709228
79.250000 -0.692098
79.300000 -0.695524
79.350000 -0.712654
79.400000 -0.760616
79.450000 -0.842838
79.500000 -0.949040
79.550000 -1.075798
79.600000 -1.199130
79.650000 -1.295055
79.700000 -1.380702
79.750000 -1.456072
79.800000 -1.490330
79.850000 -1.456071
79.900000 -1.390980
79.950000 -1.339591
80.000000 -1.295055
80.050000 -1.250518
80.100000 -1.185427
80.150000 -1.130612
80.200000 -1.127187
80.250000 -1.154593
80.300000 -1.178575
80.350000 -1.205982
80.400000 -1.243667
80.450000 -1.281352
80.500000 -1.305333
80.550000 -1.349869
80.600000 -1.404683
80.650000 -1.435516
80.700000 -1.435516
80.750000 -1.428665
80.800000 -1.425238
80.850000 -1.418387
80.900000 -1.394406
80.950000 -1.353295
81.000000 -1.301907
81.050000 -1.226537
81.100000 -1.113483
81.150000 -1.000428
81.200000 -0.904503
81.250000 -0.818856
81.300000 -0.733209
81.350000 -0.678394
81.400000 -0.668117
81.450000 -0.692098
81.500000 -0.750339
81.550000 -0.829134
81.600000 -0.914781
81.650000 -0.990150
81.700000 -1.027836
81.750000 -1.062094
81.800000 -1.103205
81.850000 -1.096353
81.900000 -1.034687
81.950000 -0.979873
82.000000 -0.959318
82.050000 -0.931910
82.100000 -0.907929
82.150000 -0.928485
82.200000 -0.993577
82.250000 -1.062095
82.300000 -1.103205
82.350000 -1.134038
82.400000 -1.192279
82.450000 -1.223111
82.500000 -1.182001
82.550000 -1.113483
82.600000 -1.068946
82.650000 -1.007280
82.700000 -0.918207
82.750000 -0.866818
82.800000 -0.859967
82.850000 -0.863393
82.900000 -0.870245
82.950000 -0.907929
83.000000 -0.952466
83.050000 -0.973021
83.100000 -0.986725
83.150000 -1.000429
83.200000 -1.007280
83.250000 -0.976447
83.300000 -0.901077
83.350000 -0.822282
83.400000 -0.757191
83.450000 -0.695524
83.500000 -0.623580
83.550000 -0.582470
83.600000 -0.585896
83.650000 -0.606451
83.700000 -0.620155
83.750000 -0.654413
83.800000 -0.716079
83.850000 -0.774320
83.900000 -0.829134
83.950000 -0.894226
84.000000 -0.942188
84.050000 -0.955892
84.100000 -0.952466
84.150000 -0.942189
84.200000 -0.911355
84.250000 -0.856541
84.300000 -0.791449
84.350000 -0.726357
84.400000 -0.664691
84.450000 -0.623581
84.500000 -0.606451
84.550000 -0.627007
84.600000 -0.654413
84.650000 -0.692098
84.700000 -0.767468
84.750000 -0.863393
84.800000 -0.959318
84.850000 -1.055243
84.900000 -1.161446
84.950000 -1.247092
85.000000 -1.291629
85.050000 -1.284777
85.100000 -1.247093
85.150000 -1.192278
85.200000 -1.099779
85.250000 -0.993576
85.300000 -0.887374
85.350000 -0.788023
85.400000 -0.702376
85.450000 -0.644135
85.500000 -0.609877
85.550000 -0.585896
85.600000 -0.568766
85.650000 -0.561914
85.700000 -0.568767
85.750000 -0.582470
85.800000 -0.582470
85.850000 -0.558489
85.900000 -0.551636
85.950000 -0.555063
86.000000 -0.541359
86.050000 -0.527656
86.100000 -0.531082
86.150000 -0.534507
86.200000 -0.555063
86.250000 -0.603025
86.300000 -0.640710
86.350000 -0.657840
86.400000 -0.698950
86.450000 -0.746913
86.500000 -0.767468
86.550000 -0.794875
86.600000 -0.863393
86.650000 -0.894226
86.700000 -0.894226
86.750000 -0.935337
86.800000 -1.000428
86.850000 -1.020984
86.900000 -1.027835
86.950000 -1.062094
87.000000 -1.068946
87.050000 -1.038113
87.100000 -1.031261
87.150000 -1.024409
87.200000 -0.976447
87.250000 -0.914781
87.300000 -0.883948
87.350000 -0.846263
87.400000 -0.767468
87.450000 -0.716079
87.500000 -0.716080
87.550000 -0.726357
87.600000 -0.736635
87.650000 -0.781172
87.700000 -0.835985
87.750000 -0.870244
87.800000 -0.921633
87.850000 -1.014132
87.900000 -1.079224
87.950000 -1.075798
88.000000 -1.058668
88.050000 -1.044965
88.100000 -1.000428
88.150000 -0.942188
88.200000 -0.894226
88.250000 -0.839412
88.300000 -0.798301
88.350000 -0.801726
88.400000 -0.822282
88.450000 -0.835986
88.500000 -0.870244
88.550000 -0.931910
88.600000 -0.973021
88.650000 -1.010706
88.700000 -1.058669
88.750000 -1.106631
88.800000 -1.134038
88.850000 -1.154593
88.900000 -1.175148
88.950000 -1.192279
89.000000 -1.226537
89.050000 -1.281352
89.100000 -1.325888
89.150000 -1.353295
89.200000 -1.384128
89.250000 -1.394406
89.300000 -1.346443
89.350000 -1.284777
89.400000 -1.229963
89.450000 -1.134038
89.500000 -0.990151
89.550000 -0.856541
89.600000 -0.767468
89.650000 -0.702376
89.700000 -0.640710
89.750000 -0.613302
89.800000 -0.627007
89.850000 -0.668117
89.900000 -0.719506
89.950000 -0.774320
90.000000 -0.829134
90.050000 -0.863393
90.100000 -0.863392
90.150000 -0.835985
90.200000 -0.781171
90.250000 -0.692098
90.300000 -0.592747
90.350000 -0.524230
90.400000 -0.462563
90.450000 -0.394046
90.500000 -0.356361
90.550000 -0.383768
90.600000 -0.465990
90.650000 -0.572192
90.700000 -0.698951
90.750000 -0.849689
90.800000 -1.007280
90.850000 -1.130612
90.900000 -1.219685
90.950000 -1.301907
91.000000 -1.377276
91.050000 -1.380703
91.100000 -1.325888
91.150000 -1.291629
91.200000 -1.267648
91.250000 -1.205981
91.300000 -1.137464
91.350000 -1.096353
91.400000 -1.044965
91.450000 -0.976448
91.500000 -0.935337
91.550000 -0.894225
91.600000 -0.822282
91.650000 -0.764042
91.700000 -0.733209
91.750000 -0.681821
91.800000 -0.623581
91.850000 -0.585896
91.900000 -0.551637
91.950000 -0.531081
92.000000 -0.561914
92.050000 -0.589321
92.100000 -0.579044
92.150000 -0.582470
92.200000 -0.603025
92.250000 -0.599599
92.300000 -0.565341
92.350000 -0.551637
92.400000 -0.541360
92.450000 -0.503674
92.500000 -0.476267
92.550000 -0.476267
92.600000 -0.476267
92.650000 -0.476268
92.700000 -0.500248
92.750000 -0.565341
92.800000 -0.630433
92.850000 -0.678395
92.900000 -0.729783
92.950000 -0.808579
93.000000 -0.859966
93.050000 -0.859967
93.100000 -0.849689
93.150000 -0.839411
93.200000 -0.808579
93.250000 -0.788024
93.300000 -0.791449
93.350000 -0.767467
93.400000 -0.698951
93.450000 -0.637284
93.500000 -0.599600
93.550000 -0.565340
93.600000 -0.531082
93.650000 -0.524229
93.700000 -0.534507
93.750000 -0.575618
93.800000 -0.647562
93.850000 -0.719506
93.900000 -0.794875
93.950000 -0.904504
94.000000 -1.034687
94.050000 -1.130612
94.100000 -1.195704
94.150000 -1.240240
94.200000 -1.253944
94.250000 -1.229963
94.300000 -1.175149
94.350000 -1.106631
94.400000 -1.003854
94.450000 -0.877096
94.500000 -0.743487
94.550000 -0.630433
94.600000 -0.537934
94.650000 -0.459138
94.700000 -0.421453
94.750000 -0.414601
94.800000 -0.411175
94.850000 -0.414601
94.900000 -0.465989
94.950000 -0.520804
95.000000 -0.534507
95.050000 -0.541359
95.100000 -0.568766
95.150000 -0.596173
95.200000 -0.623581
95.250000 -0.633858
95.300000 -0.633859
95.350000 -0.637284
95.400000 -0.644135
95.450000 -0.644136
95.500000 -0.640710
95.550000 -0.637284
95.600000 -0.627006
95.650000 -0.606451
95.700000 -0.582470
95.750000 -0.565340
95.800000 -0.561914
95.850000 -0.572192
95.900000 -0.603025
95.950000 -0.661265
96.000000 -0.753764
96.050000 -0.877096
96.100000 -1.010706
96.150000 -1.158020
96.200000 -1.312185
96.250000 -1.452646
96.300000 -1.558849
96.350000 -1.651348
96.400000 -1.726718
96.450000 -1.730143
96.500000 -1.665051
96.550000 -1.603385
96.600000 -1.538293
96.650000 -1.404684
96.700000 -1.240240
96.750000 -1.134038
96.800000 -1.065520
96.850000 -1.007280
96.900000 -0.993577
96.950000 -1.014132
97.000000 -1.038113
97.050000 -1.086075
97.100000 -1.144316
97.150000 -1.144315
97.200000 -1.089501
97.250000 -1.038113
97.300000 -0.973021
97.350000 -0.863393
97.400000 -0.740061
97.450000 -0.627007
97.500000 -0.496823
97.550000 -0.373491
97.600000 -0.294695
97.650000 -0.243307
97.700000 -0.215900
97.750000 -0.229604
97.800000 -0.270713
97.850000 -0.294695
97.900000 -0.304973
97.950000 -0.315251
98.000000 -0.325528
98.050000 -0.308399
98.100000 -0.274140
98.150000 -0.298121
98.200000 -0.376917
98.250000 -0.448860
98.300000 -0.527655
98.350000 -0.668117
98.400000 -0.842838
98.450000 -0.997002
98.500000 -1.134038
98.550000 -1.267648
98.600000 -1.356720
98.650000 -1.390980
98.700000 -1.373850
98.750000 -1.288203
98.800000 -1.147742
98.850000 -0.976448
98.900000 -0.788023
98.950000 -0.603025
99.000000 -0.442008
99.050000 -0.328954
99.100000 -0.274139
99.150000 -0.291269
99.200000 -0.352935
99.250000 -0.435156
99.300000 -0.534507
99.350000 -0.627006
99.400000 -0.705802
99.450000 -0.746912
99.500000 -0.740060
99.550000 -0.709227
99.600000 -0.654414
99.650000 -0.565340
99.700000 -0.445434
99.750000 -0.335806
99.800000 -0.246733
99.850000 -0.161086
99.900000 -0.113123
99.950000 -0.133678
100.000000 -0.202196
100.050000 -0.270714
100.100000 -0.356361
100.150000 -0.483119
100.200000 -0.609876
100.250000 -0.698950
100.300000 -0.777746
100.350000 -0.853116
100.400000 -0.870245
100.450000 -0.839412
100.500000 -0.815431
100.550000 -0.784597
100.600000 -0.705802
100.650000 -0.616729
100.700000 -0.572192
100.750000 -0.544785
100.800000 -0.524230
100.850000 -0.531082
100.900000 -0.558489
100.950000 -0.565340
101.000000 -0.579044
101.050000 -0.609876
101.100000 -0.616729
101.150000 -0.592747
101.200000 -0.565340
101.250000 -0.520804
101.300000 -0.435157
101.350000 -0.335806
101.400000 -0.257011
101.450000 -0.191919
101.500000 -0.137104
101.550000 -0.099419
101.600000 -0.089142
101.650000 -0.102845
101.700000 -0.133679
101.750000 -0.181641
101.800000 -0.250159
101.850000 -0.346083
101.900000 -0.452286
101.950000 -0.548211
102.000000 -0.650988
102.050000 -0.760616
102.100000 -0.839411
102.150000 -0.880523
102.200000 -0.928484
102.250000 -0.959318
102.300000 -0.925059
102.350000 -0.856541
102.400000 -0.808578
102.450000 -0.753764
102.500000 -0.668117
102.550000 -0.575618
102.600000 -0.493396
102.650000 -0.424878
102.700000 -0.383768
102.750000 -0.380342
102.800000 -0.390620
102.850000 -0.414601
102.900000 -0.465990
102.950000 -0.534508
103.000000 -0.596173
103.050000 -0.640710
103.100000 -0.678394
103.150000 -0.719506
103.200000 -0.760616
103.250000 -0.774319
103.300000 -0.770894
103.350000 -0.777745
103.400000 -0.808579
103.450000 -0.815430
103.500000 -0.805152
103.550000 -0.788023
103.600000 -0.774319
103.650000 -0.736635
103.700000 -0.695524
103.750000 -0.695524
103.800000 -0.716079
103.850000 -0.722932
103.900000 -0.726358
103.950000 -0.764042
104.000000 -0.825708
104.050000 -0.904503
104.100000 -1.000428
104.150000 -1.096353
104.200000 -1.168297
104.250000 -1.205981
104.300000 -1.226537
104.350000 -1.240240
104.400000 -1.233389
104.450000 -1.168297
104.500000 -1.079224
104.550000 -1.000429
104.600000 -0.921633
104.650000 -0.815430
104.700000 -0.712654
104.750000 -0.654413
104.800000 -0.620155
104.850000 -0.561914
104.900000 -0.483119
104.950000 -0.442009
105.000000 -0.438583
105.050000 -0.428304
105.100000 -0.411175
105.150000 -0.418027
105.200000 -0.465990
105.250000 -0.537933
105.300000 -0.613303
105.350000 -0.685247
105.400000 -0.767468
105.450000 -0.863393
105.500000 -0.938763
105.550000 -0.973021
105.600000 -0.997002
105.650000 -1.014132
105.700000 -0.979873
105.750000 -0.890800
105.800000 -0.812004
105.850000 -0.733209
105.900000 -0.630432
105.950000 -0.548211
106.000000 -0.513952
106.050000 -0.489970
106.100000 -0.486545
106.150000 -0.527656
106.200000 -0.582470
106.250000 -0.640709
106.300000 -0.719506
106.350000 -0.791449
106.400000 -0.829134
106.450000 -0.853115
106.500000 -0.877096
106.550000 -0.901077
106.600000 -0.904503
106.650000 -0.870244
106.700000 -0.829134
106.750000 -0.808578
106.800000 -0.805152
106.850000 -0.801727
106.900000 -0.808579
106.950000 -0.825708
107.000000 -0.835986
107.050000 -0.846264
107.100000 -0.856541
107.150000 -0.856541
107.200000 -0.863393
107.250000 -0.856541
107.300000 -0.815430
107.350000 -0.774320
107.400000 -0.760616
107.450000 -0.729783
107.500000 -0.668117
107.550000 -0.623581
107.600000 -0.599600
107.650000 -0.548211
107.700000 -0.472841
107.750000 -0.435157
107.800000 -0.421453
107.850000 -0.394046
107.900000 -0.390620
107.950000 -0.435157
108.000000 -0.496822
108.050000 -0.561914
108.100000 -0.650988
108.150000 -0.750338
108.200000 -0.825708
108.250000 -0.880522
108.300000 -0.911355
108.350000 -0.901077
108.400000 -0.859967
108.450000 -0.815430
108.500000 -0.757191
108.550000 -0.705802
108.600000 -0.657839
108.650000 -0.596173
108.700000 -0.544785
108.750000 -0.551637
108.800000 -0.582470
108.850000 -0.630432
108.900000 -0.698950
108.950000 -0.757190
109.000000 -0.777745
109.050000 -0.784597
109.100000 -0.801727
109.150000 -0.805153
109.200000 -0.781171
109.250000 -0.777746
109.300000 -0.770893
109.350000 -0.760616
109.400000 -0.777746
109.450000 -0.832559
109.500000 -0.873670
109.550000 -0.914781
109.600000 -0.979873
109.650000 -1.024410
109.700000 -1.038113
109.750000 -1.048391
109.800000 -1.055242
109.850000 -1.044965
109.900000 -1.010706
109.950000 -0.973021
110.000000 -0.952466
110.050000 -0.935337
110.100000 -0.904503
110.150000 -0.883948
110.200000 -0.887374
110.250000 -0.883948
110.300000 -0.849689
110.350000 -0.808578
110.400000 -0.757190
110.450000 -0.674969
110.500000 -0.568766
110.550000 -0.445435
110.600000 -0.308398
110.650000 -0.174789
110.700000 -0.058308
110.750000 0.037616
110.800000 0.109560
110.850000 0.147244
110.900000 0.126690
110.950000 0.044468
111.000000 -0.065160
111.050000 -0.164511
111.100000 -0.260436
111.150000 -0.359787
111.200000 -0.452286
111.250000 -0.513952
111.300000 -0.534508
111.350000 -0.527656
111.400000 -0.493397
111.450000 -0.411175
111.500000 -0.315251
111.550000 -0.246733
111.600000 -0.215899
111.650000 -0.191918
111.700000 -0.188492
111.750000 -0.243306
111.800000 -0.370064
111.850000 -0.524230
111.900000 -0.678394
111.950000 -0.853115
112.000000 -1.031261
112.050000 -1.161445
112.100000 -1.240241
112.150000 -1.274499
112.200000 -1.253944
112.250000 -1.137464
112.300000 -0.966170
112.350000 -0.777745
112.400000 -0.561914
112.450000 -0.322102
112.500000 -0.092568
112.550000 0.102708
112.600000 0.246596
112.650000 0.325391
112.700000 0.332243
112.750000 0.263725
112.800000 0.136967
112.850000 -0.020624
112.900000 -0.181641
112.950000 -0.373490
113.000000 -0.596174
113.050000 -0.801727
113.100000 -0.979873
113.150000 -1.130612
113.200000 -1.236814
113.250000 -1.284777
113.300000 -1.288204
113.350000 -1.243666
113.400000 -1.161445
113.450000 -1.055242
113.500000 -0.914782
113.550000 -0.729783
113.600000 -0.558488
113.650000 -0.448860
113.700000 -0.383768
113.750000 -0.335805
113.800000 -0.325528
113.850000 -0.366639
113.900000 -0.442009
113.950000 -0.520803
114.000000 -0.596173
114.050000 -0.678394
114.100000 -0.764042
114.150000 -0.856541
114.200000 -0.949040
114.250000 -0.990150
114.300000 -0.973021
114.350000 -0.938762
114.400000 -0.921633
114.450000 -0.873670
114.500000 -0.801727
114.550000 -0.757190
114.600000 -0.729783
114.650000 -0.698950
114.700000 -0.695525
114.750000 -0.736635
114.800000 -0.784598
114.850000 -0.842838
114.900000 -0.925059
114.950000 -0.979873
115.000000 -1.003854
115.050000 -1.027835
115.100000 -1.024410
115.150000 -0.962743
115.200000 -0.866818
115.250000 -0.743486
115.300000 -0.575618
115.350000 -0.400898
115.400000 -0.263862
115.450000 -0.147382
115.500000 -0.048031
115.550000 -0.003494
115.600000 -0.003494
115.650000 -0.054882
115.700000 -0.181641
115.750000 -0.346083
115.800000 -0.476268
115.850000 -0.606451
115.900000 -0.767468
115.950000 -0.911355
116.000000 -1.017558
116.050000 -1.116909
116.100000 -1.168297
116.150000 -1.151167
116.200000 -1.123760
116.250000 -1.103205
116.300000 -1.044965
116.350000 -0.993576
116.400000 -0.983298
116.450000 -0.962744
116.500000 -0.925058
116.550000 -0.931910
116.600000 -0.986725
116.650000 -1.020983
116.700000 -1.027836
116.750000 -1.027836
116.800000 -1.038113
116.850000 -1.041539
116.900000 -1.027835
116.950000 -1.017558
117.000000 -1.000429
117.050000 -0.973021
117.100000 -0.938763
117.150000 -0.938762
117.200000 -0.966169
117.250000 -0.990151
117.300000 -1.007280
117.350000 -1.027836
117.400000 -1.020984
117.450000 -0.973021
117.500000 -0.931910
117.550000 -0.894226
117.600000 -0.784597
117.650000 -0.633858
117.700000 -0.510526
117.750000 -0.418027
117.800000 -0.325528
117.850000 -0.270714
117.900000 -0.270714
117.950000 -0.322102
118.000000 -0.414601
118.050000 -0.544785
118.100000 -0.674969
118.150000 -0.798300
118.200000 -0.925058
118.250000 -1.020984
118.300000 -1.089501
118.350000 -1.137464
118.400000 -1.161445
118.450000 -1.140890
118.500000 -1.103205
118.550000 -1.055243
118.600000 -0.979873
118.650000 -0.907929
118.700000 -0.873670
118.750000 -0.866819
118.800000 -0.856541
118.850000 -0.842838
118.900000 -0.839412
118.950000 -0.839411
119.000000 -0.839412
119.050000 -0.829134
119.100000 -0.808579
119.150000 -0.777745
119.200000 -0.740061
119.250000 -0.685247
119.300000 -0.633858
119.350000 -0.592747
119.400000 -0.537933
119.450000 -0.472841
119.500000 -0.414601
119.550000 -0.387194
119.600000 -0.383768
119.650000 -0.404323
119.700000 -0.428305
119.750000 -0.459138
119.800000 -0.510526
119.850000 -0.555063
119.900000 -0.589321
119.950000 -0.627006
120.000000 -0.668117
120.050000 -0.695524
120.100000 -0.719505
120.150000 -0.750339
120.200000 -0.794875
120.250000 -0.859967
120.300000 -0.914781
120.350000 -0.955892
120.400000 -1.000428
120.450000 -1.034688
120.500000 -1.027836
120.550000 -1.038113
120.600000 -1.075797
120.650000 -1.082650
120.700000 -1.041539
120.750000 -0.993576
120.800000 -0.949040
120.850000 -0.914781
120.900000 -0.887374
120.950000 -0.832560
121.000000 -0.750338
121.050000 -0.688672
121.100000 -0.640710
121.150000 -0.592747
121.200000 -0.527655
121.250000 -0.438582
121.300000 -0.339232
121.350000 -0.257010
121.400000 -0.198770
121.450000 -0.126827
121.500000 -0.044605
121.550000 -0.003495
121.600000 -0.017198
121.650000 -0.030902
121.700000 -0.027476
121.750000 -0.058308
121.800000 -0.130252
121.850000 -0.178214
121.900000 -0.198770
121.950000 -0.257010
122.000000 -0.315251
122.050000 -0.332379
122.100000 -0.322103
122.150000 -0.328954
122.200000 -0.349509
122.250000 -0.352935
122.300000 -0.332380
122.350000 -0.322103
122.400000 -0.328954
122.450000 -0.325528
122.500000 -0.308399
122.550000 -0.301546
122.600000 -0.304972
122.650000 -0.311825
122.700000 -0.335806
122.750000 -0.359786
122.800000 -0.363213
122.850000 -0.356361
122.900000 -0.370064
122.950000 -0.400898
123.000000 -0.448860
123.050000 -0.513952
123.100000 -0.579044
123.150000 -0.661266
123.200000 -0.791449
123.250000 -0.918207
123.300000 -1.003854
123.350000 -1.092927
123.400000 -1.205982
123.450000 -1.271074
123.500000 -1.274500
123.550000 -1.271074
123.600000 -1.257371
123.650000 -1.192278
123.700000 -1.106631
123.750000 -1.031261
123.800000 -0.955892
123.850000 -0.883948
123.900000 -0.835986
123.950000 -0.794875
124.000000 -0.777745
124.050000 -0.812004
124.100000 -0.870244
124.150000 -0.911355
124.200000 -0.945615
124.250000 -0.990151
124.300000 -1.044965
124.350000 -1.103205
124.400000 -1.161445
124.450000 -1.202556
124.500000 -1.212834
124.550000 -1.229963
124.600000 -1.243667
124.650000 -1.219685
124.700000 -1.147741
124.750000 -1.086076
124.800000 -0.997003
124.850000 -0.839411
124.900000 -0.678394
124.950000 -0.558488
125.000000 -0.459138
125.050000 -0.335805
125.100000 -0.233029
125.150000 -0.164511
125.200000 -0.106271
125.250000 -0.044605
125.300000 -0.013772
125.350000 -0.024050
125.400000 -0.044605
125.450000 -0.075438
125.500000 -0.095994
125.550000 -0.106271
125.600000 -0.106271
125.650000 -0.106271
125.700000 -0.099419
125.750000 -0.133678
125.800000 -0.219325
125.850000 -0.311824
125.900000 -0.390620
125.950000 -0.489971
126.000000 -0.616729
126.050000 -0.712654
126.100000 -0.788023
126.150000 -0.883948
126.200000 -0.969596
126.250000 -1.000428
126.300000 -0.990151
126.350000 -0.973021
126.400000 -0.928485
126.450000 -0.873670
126.500000 -0.839412
126.550000 -0.822282
126.600000 -0.788024
126.650000 -0.757190
126.700000 -0.750339
126.750000 -0.767468
126.800000 -0.788024
126.850000 -0.801727
126.900000 -0.791449
126.950000 -0.770894
127.000000 -0.743487
127.050000 -0.698950
127.100000 -0.647562
127.150000 -0.609877
127.200000 -0.596173
127.250000 -0.565341
127.300000 -0.541359
127.350000 -0.548211
127.400000 -0.592747
127.450000 -0.627006
127.500000 -0.671543
127.550000 -0.743487
127.600000 -0.832559
127.650000 -0.887374
127.700000 -0.911355
127.750000 -0.911355
127.800000 -0.877096
127.850000 -0.808579
127.900000 -0.736635
127.950000 -0.650987
128.000000 -0.558488
128.050000 -0.472841
128.100000 -0.414601
128.150000 -0.373490
128.200000 -0.352935
128.250000 -0.366639
128.300000 -0.387194
128.350000 -0.407750
128.400000 -0.442008
128.450000 -0.455712
128.500000 -0.418027
128.550000 -0.363213
128.600000 -0.325528
128.650000 -0.267288
128.700000 -0.174789
128.750000 -0.109697
128.800000 -0.095994
128.850000 -0.095994
128.900000 -0.143956
128.950000 -0.274140
129.000000 -0.431731
129.050000 -0.568767
129.100000 -0.705802
129.150000 -0.856541
129.200000 -1.003854
129.250000 -1.086076
129.300000 -1.082650
129.350000 -1.051817
129.400000 -1.031262
129.450000 -0.976447
129.500000 -0.873671
129.550000 -0.818856
129.600000 -0.818856
129.650000 -0.798301
129.700000 -0.791449
129.750000 -0.866818
129.800000 -0.979873
129.850000 -1.051817
129.900000 -1.103205
129.950000 -1.123761
130.000000 -1.096353
130.050000 -1.044965
130.100000 -0.990151
130.150000 -0.925059
130.200000 -0.853115
130.250000 -0.788024
130.300000 -0.746913
130.350000 -0.726357
130.400000 -0.726357
130.450000 -0.729783
130.500000 -0.722931
130.550000 -0.719506
130.600000 -0.692098
130.650000 -0.654413
130.700000 -0.630433
130.750000 -0.592748
130.800000 -0.520804
130.850000 -0.445435
130.900000 -0.400897
130.950000 -0.352935
131.000000 -0.318677
131.050000 -0.335806
131.100000 -0.387194
131.150000 -0.448860
131.200000 -0.537933
131.250000 -0.627006
131.300000 -0.695524
131.350000 -0.774319
131.400000 -0.863393
131.450000 -0.914781
131.500000 -0.949040
131.550000 -1.010706
131.600000 -1.082650
131.650000 -1.113482
131.700000 -1.120334
131.750000 -1.123760
131.800000 -1.106631
131.850000 -1.068946
131.900000 -1.044965
131.950000 -1.038113
132.000000 -1.014132
132.050000 -0.976447
132.100000 -0.942189
132.150000 -0.921633
132.200000 -0.931911
132.250000 -0.949040
132.300000 -0.959317
132.350000 -0.979873
132.400000 -1.024410
132.450000 -1.072372
132.500000 -1.120335
132.550000 -1.164871
132.600000 -1.182000
132.650000 -1.175149
132.700000 -1.185426
132.750000 -1.188852
132.800000 -1.164871
132.850000 -1.140890
132.900000 -1.123760
132.950000 -1.082650
133.000000 -1.014132
133.050000 -0.911355
133.100000 -0.770894
133.150000 -0.633858
133.200000 -0.517377
133.250000 -0.363213
133.300000 -0.195344
133.350000 -0.095994
133.400000 -0.065160
133.450000 -0.075438
133.500000 -0.130252
133.550000 -0.233029
133.600000 -0.363212
133.650000 -0.507100
133.700000 -0.647561
133.750000 -0.767468
133.800000 -0.880522
133.850000 -0.983299
133.900000 -1.031261
133.950000 -1.048390
134.000000 -1.075798
134.050000 -1.055243
134.100000 -0.952466
134.150000 -0.873670
134.200000 -0.839412
134.250000 -0.781172
134.300000 -0.705802
134.350000 -0.678394
134.400000 -0.688672
134.450000 -0.692099
134.500000 -0.705802
134.550000 -0.750338
134.600000 -0.812005
134.650000 -0.870245
134.700000 -0.918207
134.750000 -0.942188
134.800000 -0.949040
134.850000 -0.938763
134.900000 -0.914781
134.950000 -0.883949
135.000000 -0.853115
135.050000 -0.798301
135.100000 -0.719506
135.150000 -0.671543
135.200000 -0.692098
135.250000 -0.726357
135.300000 -0.733209
135.350000 -0.750339
135.400000 -0.801727
135.450000 -0.842837
135.500000 -0.839411
135.550000 -0.815430
135.600000 -0.801727
135.650000 -0.774319
135.700000 -0.712654
135.750000 -0.616729
135.800000 -0.537933
135.850000 -0.489971
135.900000 -0.462563
135.950000 -0.455712
136.000000 -0.496822
136.050000 -0.551637
136.100000 -0.613303
136.150000 -0.722931
136.200000 -0.846263
136.250000 -0.931910
136.300000 -0.997003
136.350000 -1.068946
136.400000 -1.092927
136.450000 -1.048391
136.500000 -0.966170
136.550000 -0.883948
136.600000 -0.798301
136.650000 -0.712653
136.700000 -0.627006
136.750000 -0.568766
136.800000 -0.568766
136.850000 -0.579043
136.900000 -0.596173
136.950000 -0.654413
137.000000 -0.736635
137.050000 -0.808578
137.100000 -0.880523
137.150000 -0.935337
137.200000 -0.938763
137.250000 -0.890800
137.300000 -0.859967
137.350000 -0.832560
137.400000 -0.770894
137.450000 -0.668117
137.500000 -0.596173
137.550000 -0.579044
137.600000 -0.579044
137.650000 -0.575618
137.700000 -0.603025
137.750000 -0.671543
137.800000 -0.750339
137.850000 -0.818856
137.900000 -0.856541
137.950000 -0.877097
138.000000 -0.894226
138.050000 -0.873670
138.100000 -0.822282
138.150000 -0.777745
138.200000 -0.750338
138.250000 -0.709227
138.300000 -0.671543
138.350000 -0.644136
138.400000 -0.623581
138.450000 -0.627007
138.500000 -0.650988
138.550000 -0.674969
138.600000 -0.698950
138.650000 -0.722932
138.700000 -0.733209
138.750000 -0.733208
138.800000 -0.757191
138.850000 -0.777746
138.900000 -0.770894
138.950000 -0.767467
139.000000 -0.784597
139.050000 -0.770894
139.100000 -0.760616
139.150000 -0.791449
139.200000 -0.808578
139.250000 -0.781172
139.300000 -0.746912
139.350000 -0.712654
139.400000 -0.664691
139.450000 -0.592748
139.500000 -0.503674
139.550000 -0.411175
139.600000 -0.322102
139.650000 -0.222751
139.700000 -0.133678
139.750000 -0.089142
139.800000 -0.058309
139.850000 -0.006920
139.900000 0.010210
139.950000 -0.034327
140.000000 -0.095993
140.050000 -0.137104
140.100000 -0.185067
140.150000 -0.260436
140.200000 -0.332380
140.250000 -0.380343
140.300000 -0.421453
140.350000 -0.459137
140.400000 -0.489971
140.450000 -0.510526
140.500000 -0.510526
140.550000 -0.496822
140.600000 -0.493397
140.650000 -0.527656
140.700000 -0.565340
140.750000 -0.599599
140.800000 -0.664691
140.850000 -0.726357
140.900000 -0.757190
140.950000 -0.801727
141.000000 -0.870245
141.050000 -0.911355
141.100000 -0.921633
141.150000 -0.962744
141.200000 -1.007280
141.250000 -1.017557
141.300000 -1.034687
141.350000 -1.044965
141.400000 -1.000429
141.450000 -0.935337
141.500000 -0.877096
141.550000 -0.774319
141.600000 -0.613302
141.650000 -0.448860
141.700000 -0.287844
141.750000 -0.123401
141.800000 -0.003495
141.850000 0.078727
141.900000 0.140393
141.950000 0.147245
142.000000 0.068450
142.050000 -0.054883
142.100000 -0.202196
142.150000 -0.380343
142.200000 -0.558488
142.250000 -0.716080
142.300000 -0.863393
142.350000 -0.966170
142.400000 -1.010706
142.450000 -1.014132
142.500000 -1.007280
142.550000 -0.979873
142.600000 -0.925059
142.650000 -0.863393
142.700000 -0.822283
142.750000 -0.805152
142.800000 -0.791449
142.850000 -0.770894
142.900000 -0.753764
142.950000 -0.740061
143.000000 -0.705802
143.050000 -0.661265
143.100000 -0.609877
143.150000 -0.534507
143.200000 -0.469415
143.250000 -0.421453
143.300000 -0.366639
143.350000 -0.332380
143.400000 -0.352935
143.450000 -0.394046
143.500000 -0.424879
143.550000 -0.507100
143.600000 -0.657840
143.650000 -0.774320
143.700000 -0.829134
143.750000 -0.877097
143.800000 -0.894226
143.850000 -0.842837
143.900000 -0.767468
143.950000 -0.692098
144.000000 -0.572192
144.050000 -0.435156
144.100000 -0.342658
144.150000 -0.291269
144.200000 -0.270713
144.250000 -0.284417
144.300000 -0.311825
144.350000 -0.346083
144.400000 -0.414601
144.450000 -0.476267
144.500000 -0.513952
144.550000 -0.548211
144.600000 -0.582470
144.650000 -0.572192
144.700000 -0.510526
144.750000 -0.452286
144.800000 -0.404323
144.850000 -0.359787
144.900000 -0.339232
144.950000 -0.352935
145.000000 -0.418027
145.050000 -0.531081
145.100000 -0.657839
145.150000 -0.798301
145.200000 -0.962743
145.250000 -1.127186
145.300000 -1.226537
145.350000 -1.295055
145.400000 -1.360147
145.450000 -1.370424
145.500000 -1.315610
145.550000 -1.271074
145.600000 -1.236815
145.650000 -1.151168
145.700000 -1.072372
145.750000 -1.044964
145.800000 -1.014132
145.850000 -0.973021
145.900000 -0.962744
145.950000 -0.942189
146.000000 -0.883948
146.050000 -0.829134
146.100000 -0.760616
146.150000 -0.650987
146.200000 -0.534507
146.250000 -0.448860
146.300000 -0.366639
146.350000 -0.304973
146.400000 -0.291269
146.450000 -0.298121
146.500000 -0.304973
146.550000 -0.328954
146.600000 -0.380342
146.650000 -0.448860
146.700000 -0.496822
146.750000 -0.489971
146.800000 -0.472842
146.850000 -0.472842
146.900000 -0.452286
146.950000 -0.411176
147.000000 -0.380342
147.050000 -0.366639
147.100000 -0.349509
147.150000 -0.349509
147.200000 -0.376917
147.250000 -0.387194
147.300000 -0.404323
147.350000 -0.455712
147.400000 -0.496822
147.450000 -0.520804
147.500000 -0.558488
147.550000 -0.596173
147.600000 -0.579044
147.650000 -0.561915
147.700000 -0.565341
147.750000 -0.551637
147.800000 -0.531081
147.850000 -0.544785
147.900000 -0.558489
147.950000 -0.568766
148.000000 -0.616729
148.050000 -0.681821
148.100000 -0.726357
148.150000 -0.767468
148.200000 -0.805153
148.250000 -0.818856
148.300000 -0.825708
148.350000 -0.849689
148.400000 -0.853115
148.450000 -0.815430
148.500000 -0.757191
148.550000 -0.698950
148.600000 -0.633858
148.650000 -0.582470
148.700000 -0.548211
148.750000 -0.537933
148.800000 -0.555062
148.850000 -0.599599
148.900000 -0.668117
148.950000 -0.760616
149.000000 -0.887374
149.050000 -1.017557
149.100000 -1.120334
149.150000 -1.202556
149.200000 -1.274499
149.250000 -1.305333
149.300000 -1.281351
149.350000 -1.233389
149.400000 -1.175149
149.450000 -1.103205
149.500000 -1.020984
149.550000 -0.938763
149.600000 -0.849689
149.650000 -0.760616
149.700000 -0.688673
149.750000 -0.650987
149.800000 -0.616728
149.850000 -0.585896
149.900000 -0.582470
149.950000 -0.599599
150.000000 -0.609877
150.050000 -0.606451
150.100000 -0.627006
150.150000 -0.664691
150.200000 -0.722931
150.250000 -0.801727
150.300000 -0.901077
150.350000 -1.017558
150.400000 -1.168297
150.450000 -1.308758
150.500000 -1.408109
150.550000 -1.483478
150.600000 -1.534867
150.650000 -1.493757
150.700000 -1.366998
150.750000 -1.223111
150.800000 -1.041539
150.850000 -0.822282
150.900000 -0.623580
150.950000 -0.462564
151.000000 -0.284418
151.050000 -0.133679
151.100000 -0.078864
151.150000 -0.078864
151.200000 -0.109697
151.250000 -0.185066
151.300000 -0.257011
151.350000 -0.301547
151.400000 -0.363213
151.450000 -0.438583
151.500000 -0.452286
151.550000 -0.435157
151.600000 -0.411175
151.650000 -0.366639
151.700000 -0.318676
151.750000 -0.328954
151.800000 -0.370064
151.850000 -0.414601
151.900000 -0.483119
151.950000 -0.606451
152.000000 -0.757191
152.050000 -0.873671
152.100000 -0.969595
152.150000 -1.055242
152.200000 -1.130612
152.250000 -1.161445
152.300000 -1.158019
152.350000 -1.147741
152.400000 -1.099780
152.450000 -0.997002
152.500000 -0.907930
152.550000 -0.853115
152.600000 -0.794875
152.650000 -0.736635
152.700000 -0.716079
152.750000 -0.733209
152.800000 -0.757191
152.850000 -0.764042
152.900000 -0.767468
152.950000 -0.767468
153.000000 -0.760616
153.050000 -0.733209
153.100000 -0.698950
153.150000 -0.681821
153.200000 -0.681821
153.250000 -0.692098
153.300000 -0.695524
153.350000 -0.712654
153.400000 -0.770894
153.450000 -0.842837
153.500000 -0.880522
153.550000 -0.890800
153.600000 -0.890800
153.650000 -0.873670
153.700000 -0.801727
153.750000 -0.692098
153.800000 -0.565341
153.850000 -0.445434
153.900000 -0.325528
153.950000 -0.215900
154.000000 -0.137104
154.050000 -0.106271
154.100000 -0.126826
154.150000 -0.185067
154.200000 -0.291269
154.250000 -0.448860
154.300000 -0.620154
154.350000 -0.791449
154.400000 -0.966169
154.450000 -1.116909
154.500000 -1.216260
154.550000 -1.281352
154.600000 -1.322462
154.650000 -1.301907
154.700000 -1.250518
154.750000 -1.209408
154.800000 -1.164871
154.850000 -1.096353
154.900000 -1.044965
154.950000 -1.017558
155.000000 -1.000428
155.050000 -0.976448
155.100000 -0.952466
155.150000 -0.945614
155.200000 -0.955892
155.250000 -0.983299
155.300000 -0.990150
155.350000 -0.990150
155.400000 -0.986724
155.450000 -0.942189
155.500000 -0.846263
155.550000 -0.746912
155.600000 -0.657839
155.650000 -0.572192
155.700000 -0.513952
155.750000 -0.469416
155.800000 -0.414601
155.850000 -0.376916
155.900000 -0.387194
155.950000 -0.404323
156.000000 -0.373491
156.050000 -0.349509
156.100000 -0.342658
156.150000 -0.308398
156.200000 -0.257010
156.250000 -0.229604
156.300000 -0.209047
156.350000 -0.188493
156.400000 -0.212473
156.450000 -0.298121
156.500000 -0.380342
156.550000 -0.465990
156.600000 -0.592747
156.650000 -0.726357
156.700000 -0.805153
156.750000 -0.870244
156.800000 -0.928484
156.850000 -0.907930
156.900000 -0.812005
156.950000 -0.695524
157.000000 -0.582470
157.050000 -0.445434
157.100000 -0.311824
157.150000 -0.229604
157.200000 -0.209048
157.250000 -0.253584
157.300000 -0.356361
157.350000 -0.513952
157.400000 -0.726358
157.450000 -0.959318
157.500000 -1.154594
157.550000 -1.288203
157.600000 -1.380702
157.650000 -1.418387
157.700000 -1.373851
157.750000 -1.257370
157.800000 -1.099779
157.850000 -0.925058
157.900000 -0.722931
157.950000 -0.527656
158.000000 -0.407750
158.050000 -0.373490
158.100000 -0.390620
158.150000 -0.452286
158.200000 -0.551637
158.250000 -0.661265
158.300000 -0.774320
158.350000 -0.907929
158.400000 -1.031261
158.450000 -1.082650
158.500000 -1.072372
158.550000 -1.024410
158.600000 -0.949040
158.650000 -0.839411
158.700000 -0.709227
158.750000 -0.575618
158.800000 -0.476267
158.850000 -0.428305
158.900000 -0.404323
158.950000 -0.411176
159.000000 -0.483119
159.050000 -0.620155
159.100000 -0.781172
159.150000 -0.962744
159.200000 -1.171723
159.250000 -1.380702
159.300000 -1.534867
159.350000 -1.610237
159.400000 -1.634218
159.450000 -1.627366
159.500000 -1.565701
159.550000 -1.459498
159.600000 -1.322462
159.650000 -1.164871
159.700000 -1.010706
159.750000 -0.887374
159.800000 -0.788023
159.850000 -0.726357
159.900000 -0.722932
159.950000 -0.798300
160.000000 -0.911356
160.050000 -1.014132
160.100000 -1.110056
160.150000 -1.205982
160.200000 -1.267647
160.250000 -1.264222
160.300000 -1.223111
160.350000 -1.158019
160.400000 -1.038113
160.450000 -0.880522
160.500000 -0.722932
160.550000 -0.575618
160.600000 -0.445434
160.650000 -0.339232
160.700000 -0.277565
160.750000 -0.267288
160.800000 -0.308398
160.850000 -0.376916
160.900000 -0.442008
160.950000 -0.534507
161.000000 -0.668117
161.050000 -0.788023
161.100000 -0.870245
161.150000 -0.914781
161.200000 -0.935337
161.250000 -0.925059
161.300000 -0.877096
161.350000 -0.798301
161.400000 -0.698950
161.450000 -0.592748
161.500000 -0.486545
161.550000 -0.380342
161.600000 -0.280992
161.650000 -0.215900
161.700000 -0.198770
161.750000 -0.236455
161.800000 -0.325528
161.850000 -0.452286
161.900000 -0.609877
161.950000 -0.784598
162.000000 -0.931910
162.050000 -1.020984
162.100000 -1.086076
162.150000 -1.116908
162.200000 -1.055243
162.250000 -0.883948
162.300000 -0.674969
162.350000 -0.459138
162.400000 -0.246733
162.450000 -0.068586
162.500000 0.034190
162.550000 0.044468
162.600000 -0.020624
162.650000 -0.174789
162.700000 -0.400898
162.750000 -0.671543
162.800000 -0.945614
162.850000 -1.195704
162.900000 -1.380702
162.950000 -1.490331
163.000000 -1.521163
163.050000 -1.459498
163.100000 -1.332739
163.150000 -1.178575
163.200000 -1.003855
163.250000 -0.822282
163.300000 -0.674968
163.350000 -0.606451
163.400000 -0.606451
163.450000 -0.637284
163.500000 -0.692099
163.550000 -0.760616
163.600000 -0.842838
163.650000 -0.914781
163.700000 -0.966169
163.750000 -0.986724
163.800000 -0.962744
163.850000 -0.897652
163.900000 -0.798300
163.950000 -0.681821
164.000000 -0.585895
164.050000 -0.527656
164.100000 -0.483119
164.150000 -0.455711
164.200000 -0.486545
164.250000 -0.575618
164.300000 -0.698950
164.350000 -0.839412
164.400000 -0.969596
164.450000 -1.079224
164.500000 -1.175149
164.550000 -1.260796
164.600000 -1.305333
164.650000 -1.288203
164.700000 -1.236815
164.750000 -1.144316
164.800000 -1.038113
164.850000 -0.918207
164.900000 -0.798301
164.950000 -0.688672
165.000000 -0.609877
165.050000 -0.541359
165.100000 -0.479693
165.150000 -0.445434
165.200000 -0.469416
165.250000 -0.507100
165.300000 -0.534507
165.350000 -0.558489
165.400000 -0.599599
165.450000 -0.630432
165.500000 -0.620154
165.550000 -0.592747
165.600000 -0.561914
165.650000 -0.520803
165.700000 -0.448860
165.750000 -0.349509
165.800000 -0.274140
165.850000 -0.222751
165.900000 -0.181641
165.950000 -0.167937
166.000000 -0.181641
166.050000 -0.215899
166.100000 -0.274139
166.150000 -0.376916
166.200000 -0.493396
166.250000 -0.579044
166.300000 -0.623581
166.350000 -0.678395
166.400000 -0.750339
166.450000 -0.798301
166.500000 -0.777746
166.550000 -0.746912
166.600000 -0.719505
166.650000 -0.654414
166.700000 -0.555063
166.750000 -0.483119
166.800000 -0.431730
166.850000 -0.363213
166.900000 -0.304973
166.950000 -0.304973
167.000000 -0.335806
167.050000 -0.370065
167.100000 -0.404324
167.150000 -0.452286
167.200000 -0.483118
167.250000 -0.503674
167.300000 -0.544785
167.350000 -0.620154
167.400000 -0.678394
167.450000 -0.692098
167.500000 -0.709228
167.550000 -0.733209
167.600000 -0.743487
167.650000 -0.743487
167.700000 -0.736635
167.750000 -0.716079
167.800000 -0.661265
167.850000 -0.596173
167.900000 -0.555063
167.950000 -0.534508
168.000000 -0.503674
168.050000 -0.465990
168.100000 -0.465990
168.150000 -0.517378
168.200000 -0.579044
168.250000 -0.633858
168.300000 -0.722932
168.350000 -0.832560
168.400000 -0.921633
168.450000 -0.973021
168.500000 -1.014132
168.550000 -1.038113
168.600000 -1.024409
168.650000 -0.969595
168.700000 -0.907929
168.750000 -0.842837
168.800000 -0.753765
168.850000 -0.661265
168.900000 -0.606451
168.950000 -0.579044
169.000000 -0.561914
169.050000 -0.558488
169.100000 -0.585896
169.150000 -0.627006
169.200000 -0.674968
169.250000 -0.719505
169.300000 -0.757190
169.350000 -0.801726
169.400000 -0.839411
169.450000 -0.870245
169.500000 -0.914781
169.550000 -0.969595
169.600000 -1.000428
169.650000 -1.014132
169.700000 -1.031262
169.750000 -1.024410
169.800000 -0.962743
169.850000 -0.890800
169.900000 -0.825708
169.950000 -0.757190
170.000000 -0.685247
170.050000 -0.606451
170.100000 -0.513952
170.150000 -0.448860
170.200000 -0.428304
170.250000 -0.421452
170.300000 -0.411175
170.350000 -0.442008
170.400000 -0.500248
170.450000 -0.551636
170.500000 -0.603025
170.550000 -0.685247
170.600000 -0.764042
170.650000 -0.791449
170.700000 -0.798301
170.750000 -0.815430
170.800000 -0.818856
170.850000 -0.777745
170.900000 -0.716080
170.950000 -0.685247
171.000000 -0.664691
171.050000 -0.620155
171.100000 -0.575618
171.150000 -0.558488
171.200000 -0.565340
171.250000 -0.585896
171.300000 -0.627007
171.350000 -0.678395
171.400000 -0.743486
171.450000 -0.794874
171.500000 -0.822282
171.550000 -0.842838
171.600000 -0.866819
171.650000 -0.887374
171.700000 -0.873671
171.750000 -0.842837
171.800000 -0.832559
171.850000 -0.805152
171.900000 -0.736635
171.950000 -0.661266
172.000000 -0.599599
172.050000 -0.517378
172.100000 -0.428305
172.150000 -0.376916
172.200000 -0.359787
172.250000 -0.332380
172.300000 -0.301547
172.350000 -0.325528
172.400000 -0.376916
172.450000 -0.431730
172.500000 -0.476268
172.550000 -0.517378
172.600000 -0.555063
172.650000 -0.575618
172.700000 -0.599599
172.750000 -0.630433
172.800000 -0.674968
172.850000 -0.716080
172.900000 -0.743487
172.950000 -0.788023
173.000000 -0.880522
173.050000 -0.973021
173.100000 -1.041539
173.150000 -1.099779
173.200000 -1.140889
173.250000 -1.151167
173.300000 -1.137464
173.350000 -1.123760
173.400000 -1.082650
173.450000 -0.993577
173.500000 -0.894226
173.550000 -0.812005
173.600000 -0.736635
173.650000 -0.637284
173.700000 -0.551636
173.750000 -0.500249
173.800000 -0.486545
173.850000 -0.486545
173.900000 -0.510526
173.950000 -0.551637
174.000000 -0.603025
174.050000 -0.671543
174.100000 -0.743486
174.150000 -0.812004
174.200000 -0.894226
174.250000 -0.986725
174.300000 -1.048391
174.350000 -1.079223
174.400000 -1.110057
174.450000 -1.134038
174.500000 -1.113483
174.550000 -1.068947
174.600000 -1.003854
174.650000 -0.921633
174.700000 -0.846263
174.750000 -0.794875
174.800000 -0.750338
174.850000 -0.695524
174.900000 -0.640710
174.950000 -0.599599
175.000000 -0.589321
175.050000 -0.599599
175.100000 -0.606451
175.150000 -0.599600
175.200000 -0.613303
175.250000 -0.647562
175.300000 -0.661265
175.350000 -0.681821
175.400000 -0.746912
175.450000 -0.825708
175.500000 -0.873671
175.550000 -0.914781
175.600000 -0.973021
175.650000 -0.993576
175.700000 -0.976447
175.750000 -0.945614
175.800000 -0.904503
175.850000 -0.822282
175.900000 -0.719505
175.950000 -0.637284
176.000000 -0.579044
176.050000 -0.541359
176.100000 -0.534507
176.150000 -0.579044
176.200000 -0.654413
176.250000 -0.764042
176.300000 -0.928485
176.350000 -1.137464
176.400000 -1.325888
176.450000 -1.483479
176.500000 -1.627367
176.550000 -1.740420
176.600000 -1.805512
176.650000 -1.836346
176.700000 -1.802086
176.750000 -1.692458
176.800000 -1.555422
176.850000 -1.404683
176.900000 -1.223112
176.950000 -1.020984
177.000000 -0.829134
177.050000 -0.640710
177.100000 -0.462564
177.150000 -0.370064
177.200000 -0.356361
177.250000 -0.342658
177.300000 -0.339231
177.350000 -0.376917
177.400000 -0.445435
177.450000 -0.520804
177.500000 -0.603026
177.550000 -0.674968
177.600000 -0.726357
177.650000 -0.757190
177.700000 -0.774320
177.750000 -0.757190
177.800000 -0.709228
177.850000 -0.640710
177.900000 -0.551637
177.950000 -0.469416
178.000000 -0.400898
178.050000 -0.346084
178.100000 -0.335805
178.150000 -0.394046
178.200000 -0.479693
178.250000 -0.548211
178.300000 -0.630432
178.350000 -0.746912
178.400000 -0.839412
178.450000 -0.894226
178.500000 -0.942188
178.550000 -0.997003
178.600000 -0.976447
178.650000 -0.897652
178.700000 -0.846263
178.750000 -0.829134
178.800000 -0.812005
178.850000 -0.777746
178.900000 -0.746913
178.950000 -0.760616
179.000000 -0.825708
179.050000 -0.907929
179.100000 -0.966169
179.150000 -1.017557
179.200000 -1.082649
179.250000 -1.113483
179.300000 -1.079224
179.350000 -1.031262
179.400000 -0.986725
179.450000 -0.883949
179.500000 -0.736634
179.550000 -0.620155
179.600000 -0.541359
179.650000 -0.469415
179.700000 -0.400897
179.750000 -0.366639
179.800000 -0.373491
179.850000 -0.380342
179.900000 -0.380343
179.950000 -0.397472
180.000000 -0.442008
180.050000 -0.479693
180.100000 -0.486545
180.150000 -0.496823
180.200000 -0.534507
180.250000 -0.582470
180.300000 -0.633858
180.350000 -0.702376
180.400000 -0.767468
180.450000 -0.825708
180.500000 -0.901077
180.550000 -0.990151
180.600000 -1.048391
180.650000 -1.096353
180.700000 -1.137464
180.750000 -1.140890
180.800000 -1.116909
180.850000 -1.106631
180.900000 -1.072372
180.950000 -0.986725
181.000000 -0.880522
181.050000 -0.757190
181.100000 -0.623580
181.150000 -0.524230
181.200000 -0.455711
181.250000 -0.352935
181.300000 -0.233029
181.350000 -0.157659
181.400000 -0.106271
181.450000 -0.048031
181.500000 -0.024049
181.550000 -0.065160
181.600000 -0.113123
181.650000 -0.157660
181.700000 -0.222751
181.750000 -0.318676
181.800000 -0.404324
181.850000 -0.462564
181.900000 -0.513952
181.950000 -0.575618
182.000000 -0.650988
182.050000 -0.692099
182.100000 -0.719506
182.150000 -0.774320
182.200000 -0.829134
182.250000 -0.849689
182.300000 -0.866819
182.350000 -0.907929
182.400000 -0.918207
182.450000 -0.894226
182.500000 -0.856540
182.550000 -0.805152
182.600000 -0.729783
182.650000 -0.654413
182.700000 -0.572192
182.750000 -0.472841
182.800000 -0.404323
182.850000 -0.359786
182.900000 -0.298121
182.950000 -0.246733
183.000000 -0.236455
183.050000 -0.222752
183.100000 -0.202196
183.150000 -0.219326
183.200000 -0.239880
183.250000 -0.229603
183.300000 -0.212474
183.350000 -0.226178
183.400000 -0.260436
183.450000 -0.315250
183.500000 -0.373491
183.550000 -0.435157
183.600000 -0.524229
183.650000 -0.623580
183.700000 -0.688673
183.750000 -0.722931
183.800000 -0.757190
183.850000 -0.753765
183.900000 -0.698950
183.950000 -0.650988
184.000000 -0.620154
184.050000 -0.558488
184.100000 -0.479693
184.150000 -0.435157
184.200000 -0.428305
184.250000 -0.414602
184.300000 -0.411175
184.350000 -0.455712
184.400000 -0.524230
184.450000 -0.589321
184.500000 -0.640710
184.550000 -0.678395
184.600000 -0.705802
184.650000 -0.722931
184.700000 -0.726357
184.750000 -0.698950
184.800000 -0.664691
184.850000 -0.623581
184.900000 -0.561914
184.950000 -0.493397
185.000000 -0.465990
185.050000 -0.486545
185.100000 -0.524230
185.150000 -0.585895
185.200000 -0.678394
185.250000 -0.774320
185.300000 -0.859967
185.350000 -0.931911
185.400000 -0.986725
185.450000 -1.010706
185.500000 -1.007280
185.550000 -0.993577
185.600000 -0.973022
185.650000 -0.928484
185.700000 -0.880523
185.750000 -0.822282
185.800000 -0.757191
185.850000 -0.692098
185.900000 -0.647562
185.950000 -0.644135
186.000000 -0.640710
186.050000 -0.637284
186.100000 -0.637284
186.150000 -0.637284
186.200000 -0.630433
186.250000 -0.613303
186.300000 -0.596174
186.350000 -0.555063
186.400000 -0.507100
186.450000 -0.493397
186.500000 -0.503674
186.550000 -0.520804
186.600000 -0.534508
186.650000 -0.544785
186.700000 -0.544785
186.750000 -0.575618
186.800000 -0.640710
186.850000 -0.688672
186.900000 -0.712654
186.950000 -0.740060
187.000000 -0.750338
187.050000 -0.722931
187.100000 -0.702376
187.150000 -0.712653
187.200000 -0.726358
187.250000 -0.740060
187.300000 -0.770894
187.350000 -0.818856
187.400000 -0.863393
187.450000 -0.901077
187.500000 -0.907929
187.550000 -0.870244
187.600000 -0.846263
187.650000 -0.822283
187.700000 -0.770894
187.750000 -0.709228
187.800000 -0.685247
187.850000 -0.674969
187.900000 -0.661265
187.950000 -0.678395
188.000000 -0.702376
188.050000 -0.702376
188.100000 -0.702376
188.150000 -0.722931
188.200000 -0.726357
188.250000 -0.698950
188.300000 -0.647562
188.350000 -0.561914
188.400000 -0.431730
188.450000 -0.284418
188.500000 -0.123401
188.550000 0.023912
188.600000 0.119837
188.650000 0.174652
188.700000 0.208911
188.750000 0.191781
188.800000 0.116412
