time[ns] Raw_signal[mV]
-11.150000 0.402062
-11.100000 0.155398
-11.050000 -0.087840
-11.000000 -0.300246
-10.950000 -0.444132
-10.900000 -0.502373
-10.850000 -0.522928
-10.800000 -0.519502
-10.750000 -0.461261
-10.700000 -0.337930
-10.650000 -0.214598
-10.600000 -0.094692
-10.550000 0.045769
-10.500000 0.182805
-10.450000 0.282156
-10.400000 0.391784
-10.350000 0.491135
-10.300000 0.518543
-10.250000 0.504839
-10.200000 0.508265
-10.150000 0.474006
-10.100000 0.364377
-10.050000 0.223916
-10.000000 0.080028
-9.950000 -0.063859
-9.900000 -0.176913
-9.850000 -0.248857
-9.800000 -0.310523
-9.750000 -0.327653
-9.700000 -0.300246
-9.650000 -0.255708
-9.600000 -0.194043
-9.550000 -0.070711
-9.500000 0.038918
-9.450000 0.110861
-9.400000 0.182805
-9.350000 0.258175
-9.300000 0.265027
-9.250000 0.230768
-9.200000 0.179379
-9.150000 0.093732
-9.100000 -0.012470
-9.050000 -0.077563
-9.000000 -0.122099
-8.950000 -0.183766
-8.900000 -0.194043
-8.850000 -0.132377
-8.800000 -0.053581
-8.750000 0.035492
-8.700000 0.189657
-8.650000 0.354099
-8.600000 0.463728
-8.550000 0.542523
-8.500000 0.597338
-8.450000 0.587060
-8.400000 0.525395
-8.350000 0.456876
-8.300000 0.374655
-8.250000 0.282156
-8.200000 0.199935
-8.150000 0.131416
-8.100000 0.114287
-8.050000 0.162250
-8.000000 0.230768
-7.950000 0.306137
-7.900000 0.450024
-7.850000 0.631597
-7.800000 0.754929
-7.750000 0.796039
-7.700000 0.820021
-7.650000 0.799465
-7.600000 0.676134
-7.550000 0.474006
-7.500000 0.258175
-7.450000 0.035492
-7.400000 -0.197469
-7.350000 -0.413300
-7.300000 -0.577742
-7.250000 -0.683945
-7.200000 -0.728482
-7.150000 -0.714778
-7.100000 -0.625705
-7.050000 -0.485244
-7.000000 -0.331078
-6.950000 -0.156358
-6.900000 0.042344
-6.850000 0.210212
-6.800000 0.312989
-6.750000 0.357526
-6.700000 0.360952
-6.650000 0.326693
-6.600000 0.268452
-6.550000 0.203361
-6.500000 0.148546
-6.450000 0.114287
-6.400000 0.107436
-6.350000 0.141695
-6.300000 0.217064
-6.250000 0.285582
-6.200000 0.354099
-6.150000 0.432895
-6.100000 0.487709
-6.050000 0.501412
-6.000000 0.532246
-5.950000 0.563079
-5.900000 0.539097
-5.850000 0.487710
-5.800000 0.470580
-5.750000 0.463728
-5.700000 0.429470
-5.650000 0.412340
-5.600000 0.446599
-5.550000 0.518543
-5.500000 0.569930
-5.450000 0.587061
-5.400000 0.590486
-5.350000 0.600764
-5.300000 0.559654
-5.250000 0.453451
-5.200000 0.343821
-5.150000 0.261600
-5.100000 0.172528
-5.050000 0.090306
-5.000000 0.062899
-4.950000 0.049196
-4.900000 0.025214
-4.850000 0.032066
-4.800000 0.080028
-4.750000 0.141695
-4.700000 0.203361
-4.650000 0.230768
-4.600000 0.234193
-4.550000 0.217064
-4.500000 0.179379
-4.450000 0.107435
-4.400000 0.028641
-4.350000 -0.036452
-4.300000 -0.098118
-4.250000 -0.156358
-4.200000 -0.170062
-4.150000 -0.122099
-4.100000 -0.039877
-4.050000 0.073176
-4.000000 0.241045
-3.950000 0.432895
-3.900000 0.597338
-3.850000 0.748077
-3.800000 0.891964
-3.750000 0.991315
-3.700000 1.025574
-3.650000 1.018722
-3.600000 1.001593
-3.550000 0.963909
-3.500000 0.902242
-3.450000 0.823447
-3.400000 0.751503
-3.350000 0.713819
-3.300000 0.628171
-3.250000 0.450024
-3.200000 0.350674
-3.150000 0.395210
-3.100000 0.347248
-3.050000 0.169102
-3.000000 0.138269
-2.950000 0.227342
-2.900000 0.179379
-2.850000 0.083454
-2.800000 0.069751
-2.750000 -0.002192
-2.700000 -0.080988
-2.650000 0.035492
-2.600000 0.107436
-2.550000 -0.070710
-2.500000 -0.190617
-2.450000 -0.139229
-2.400000 -0.245431
-2.350000 -0.450985
-2.300000 -0.423577
-2.250000 -0.337930
-2.200000 -0.454410
-2.150000 -0.468114
-2.100000 -0.190617
-2.050000 0.008085
-2.000000 -0.029600
-1.950000 -0.019323
-1.900000 0.145120
-1.850000 0.336970
-1.800000 0.508265
-1.750000 0.559653
-1.700000 0.443173
-1.650000 0.395210
-1.600000 0.477431
-1.550000 0.422618
-1.500000 0.289008
-1.450000 0.371229
-1.400000 0.532245
-1.350000 0.521968
-1.300000 0.504839
-1.250000 0.549376
-1.200000 0.484283
-1.150000 0.474006
-1.100000 0.679559
-1.050000 0.717244
-1.000000 0.446598
-0.950000 0.384933
-0.900000 0.597338
-0.850000 0.621319
-0.800000 0.545949
-0.750000 0.689837
-0.700000 0.820021
-0.650000 0.727522
-0.600000 0.717244
-0.550000 0.830299
-0.500000 0.830299
-0.450000 0.792614
-0.400000 0.864557
-0.350000 0.933076
-0.300000 0.922797
-0.250000 0.909094
-0.200000 0.888538
-0.150000 0.826872
-0.100000 0.758355
-0.050000 0.676134
0.000000 0.604190
0.050000 0.576783
0.100000 0.474005
0.150000 0.282156
0.200000 0.227342
0.250000 0.306138
0.300000 0.227341
0.350000 0.021788
0.400000 0.028640
0.450000 0.206786
0.500000 0.271878
0.550000 0.292433
0.600000 0.429469
0.650000 0.563079
0.700000 0.628171
0.750000 0.816595
0.800000 1.186592
0.850000 1.673068
0.900000 2.389078
0.950000 3.502492
1.000000 5.109235
1.050000 7.322360
1.100000 10.289179
1.150000 14.078214
1.200000 18.668913
1.250000 24.054409
1.300000 30.200455
1.350000 36.939176
1.400000 44.006790
1.450000 51.214868
1.500000 58.481175
1.550000 65.682393
1.600000 72.588993
1.650000 79.053643
1.700000 85.076363
1.750000 90.595473
1.800000 95.470513
1.850000 99.680933
1.900000 103.322653
1.950000 106.375113
2.000000 108.728713
2.050000 110.373143
2.100000 111.335813
2.150000 111.620153
2.200000 111.171373
2.250000 109.910643
2.300000 107.844823
2.350000 105.093833
2.400000 101.695353
2.450000 97.663083
2.500000 93.127203
2.550000 88.252163
2.600000 83.075643
2.650000 77.686713
2.700000 72.311493
2.750000 67.032193
2.800000 61.807713
2.850000 56.768233
2.900000 52.105603
2.950000 47.860923
3.000000 44.051323
3.050000 40.783033
3.100000 38.151943
3.150000 36.123813
3.200000 34.667813
3.250000 33.835323
3.300000 33.622921
3.350000 33.900420
3.400000 34.558182
3.450000 35.609934
3.500000 37.011123
3.550000 38.569903
3.600000 40.156093
3.650000 41.735423
3.700000 43.246243
3.750000 44.551513
3.800000 45.592983
3.850000 46.374083
3.900000 46.829723
3.950000 46.922223
4.000000 46.706393
4.050000 46.168523
4.100000 45.250393
4.150000 43.951973
4.200000 42.355513
4.250000 40.491833
4.300000 38.367773
4.350000 36.045013
4.400000 33.616073
4.450000 31.159703
4.500000 28.696483
4.550000 26.267533
4.600000 23.972183
4.650000 21.865263
4.700000 19.967325
4.750000 18.302339
4.800000 16.928554
4.850000 15.859677
4.900000 15.088854
4.950000 14.595524
5.000000 14.335153
5.050000 14.287197
5.100000 14.455062
5.150000 14.811352
5.200000 15.342369
5.250000 15.996716
5.300000 16.716150
5.350000 17.476699
5.400000 18.271506
5.450000 19.056037
5.500000 19.772040
5.550000 20.412686
5.600000 20.964250
5.650000 21.361659
5.700000 21.574064
5.750000 21.618603
5.800000 21.464435
5.850000 21.094437
5.900000 20.553149
5.950000 19.857694
6.000000 18.994371
6.050000 18.000858
6.100000 16.955963
6.150000 15.880234
6.200000 14.773671
6.250000 13.694516
6.300000 12.707859
6.350000 11.796572
6.400000 10.950378
6.450000 10.203534
6.500000 9.538911
6.550000 8.908547
6.600000 8.315868
6.650000 7.784856
6.700000 7.308656
6.750000 6.911253
6.800000 6.626905
6.850000 6.417925
6.900000 6.263760
6.950000 6.226075
7.000000 6.315149
7.050000 6.469313
7.100000 6.688571
7.150000 7.003753
7.200000 7.390878
7.250000 7.781429
7.300000 8.189111
7.350000 8.593366
7.400000 8.956510
7.450000 9.292247
7.500000 9.597152
7.550000 9.843816
7.600000 10.018535
7.650000 10.128164
7.700000 10.152145
7.750000 10.063072
7.800000 9.871222
7.850000 9.573170
7.900000 9.179193
7.950000 8.699568
8.000000 8.154851
8.050000 7.548469
8.100000 6.897550
8.150000 6.236353
8.200000 5.578583
8.250000 4.917386
8.300000 4.300725
8.350000 3.766287
8.400000 3.303792
8.450000 2.916665
8.500000 2.649446
8.550000 2.485004
8.600000 2.368523
8.650000 2.320560
8.700000 2.351393
8.750000 2.406208
8.800000 2.464448
8.850000 2.532965
8.900000 2.604909
8.950000 2.673428
9.000000 2.765926
9.050000 2.861851
9.100000 2.947499
9.150000 3.060553
9.200000 3.197588
9.250000 3.348327
9.300000 3.536751
9.350000 3.762860
9.400000 3.975266
9.450000 4.180819
9.500000 4.393224
9.550000 4.561093
9.600000 4.636462
9.650000 4.643315
9.700000 4.591926
9.750000 4.454890
9.800000 4.215078
9.850000 3.906747
9.900000 3.571010
9.950000 3.201014
10.000000 2.765926
10.050000 2.296579
10.100000 1.847788
10.150000 1.429829
10.200000 1.032426
10.250000 0.659003
10.300000 0.347247
10.350000 0.107436
10.400000 -0.074136
10.450000 -0.194043
10.500000 -0.259135
10.550000 -0.262561
10.600000 -0.235154
10.650000 -0.200895
10.700000 -0.146080
10.750000 -0.063859
10.800000 0.028640
10.850000 0.097158
10.900000 0.145120
10.950000 0.193082
11.000000 0.244471
11.050000 0.289007
11.100000 0.333544
11.150000 0.402062
11.200000 0.518542
11.250000 0.669282
11.300000 0.830299
11.350000 0.991315
11.400000 1.152332
11.450000 1.316775
11.500000 1.460662
11.550000 1.566865
11.600000 1.607975
11.650000 1.607975
11.700000 1.583994
11.750000 1.512050
11.800000 1.405848
11.850000 1.272238
11.900000 1.100943
11.950000 0.881686
12.000000 0.617894
12.050000 0.312989
12.100000 0.001233
12.150000 -0.310523
12.200000 -0.635983
12.250000 -0.954591
12.300000 -1.228661
12.350000 -1.451345
12.400000 -1.602083
12.450000 -1.698008
12.500000 -1.745971
12.550000 -1.728842
12.600000 -1.608936
12.650000 -1.437641
12.700000 -1.232088
12.750000 -0.954591
12.800000 -0.608575
12.850000 -0.272838
12.900000 0.032066
12.950000 0.347248
13.000000 0.645300
13.050000 0.881686
13.100000 1.070111
13.150000 1.213998
13.200000 1.265386
13.250000 1.227702
13.300000 1.135202
13.350000 0.981038
13.400000 0.761780
13.450000 0.525394
13.500000 0.278730
13.550000 -0.019323
13.600000 -0.334504
13.650000 -0.591446
13.700000 -0.834685
13.750000 -1.101904
13.800000 -1.334864
13.850000 -1.502733
13.900000 -1.670601
13.950000 -1.845322
14.000000 -1.968654
14.050000 -2.071431
14.100000 -2.157078
14.150000 -2.167355
14.200000 -2.074856
14.250000 -1.954950
14.300000 -1.814489
14.350000 -1.608936
14.400000 -1.348568
14.450000 -1.074497
14.500000 -0.800425
14.550000 -0.522929
14.600000 -0.276264
14.650000 -0.094692
14.700000 0.014936
14.750000 0.093732
14.800000 0.138268
14.850000 0.162249
14.900000 0.182806
14.950000 0.172527
15.000000 0.134843
15.050000 0.117714
15.100000 0.110862
15.150000 0.080028
15.200000 0.025214
15.250000 0.004659
15.300000 -0.012470
15.350000 -0.036452
15.400000 -0.046729
15.450000 -0.077562
15.500000 -0.163209
15.550000 -0.259135
15.600000 -0.337930
15.650000 -0.433855
15.700000 -0.546909
15.750000 -0.663390
15.800000 -0.807277
15.850000 -0.937460
15.900000 -1.019682
15.950000 -1.098478
16.000000 -1.184125
16.050000 -1.225236
16.100000 -1.238940
16.150000 -1.273198
16.200000 -1.283476
16.250000 -1.245791
16.300000 -1.214958
16.350000 -1.177274
16.400000 -1.112181
16.450000 -1.057367
16.500000 -1.019682
16.550000 -0.954591
16.600000 -0.889498
16.650000 -0.824406
16.700000 -0.711352
16.750000 -0.543483
16.800000 -0.368763
16.850000 -0.183765
16.900000 0.011510
16.950000 0.169101
17.000000 0.285582
17.050000 0.395210
17.100000 0.446598
17.150000 0.405488
17.200000 0.306137
17.250000 0.138268
17.300000 -0.146080
17.350000 -0.478392
17.400000 -0.797000
17.450000 -1.125885
17.500000 -1.454771
17.550000 -1.728842
17.600000 -1.941246
17.650000 -2.074857
17.700000 -2.115967
17.750000 -2.122819
17.800000 -2.122819
17.850000 -2.037171
17.900000 -1.879581
17.950000 -1.745971
18.000000 -1.632916
18.050000 -1.502733
18.100000 -1.410234
18.150000 -1.369123
18.200000 -1.328013
18.250000 -1.310883
18.300000 -1.355419
18.350000 -1.393105
18.400000 -1.406808
18.450000 -1.451344
18.500000 -1.509584
18.550000 -1.533566
18.600000 -1.533565
18.650000 -1.526714
18.700000 -1.489029
18.750000 -1.434215
18.800000 -1.369123
18.850000 -1.273198
18.900000 -1.160144
18.950000 -1.064219
19.000000 -0.975145
19.050000 -0.899776
19.100000 -0.865517
19.150000 -0.862092
19.200000 -0.868943
19.250000 -0.886073
19.300000 -0.916905
19.350000 -0.961443
19.400000 -1.040237
19.450000 -1.115607
19.500000 -1.163569
19.550000 -1.208107
19.600000 -1.273198
19.650000 -1.307457
19.700000 -1.300605
19.750000 -1.321161
19.800000 -1.379401
19.850000 -1.420511
19.900000 -1.430789
19.950000 -1.468474
20.000000 -1.533566
20.050000 -1.564399
20.100000 -1.571250
20.150000 -1.588380
20.200000 -1.584954
20.250000 -1.519862
20.300000 -1.423937
20.350000 -1.338290
20.400000 -1.252642
20.450000 -1.156718
20.500000 -1.043664
20.550000 -0.940887
20.600000 -0.862091
20.650000 -0.803851
20.700000 -0.752462
20.750000 -0.749037
20.800000 -0.814129
20.850000 -0.879221
20.900000 -0.916905
20.950000 -0.981998
21.000000 -1.074496
21.050000 -1.136163
21.100000 -1.180699
21.150000 -1.269772
21.200000 -1.379400
21.250000 -1.468474
21.300000 -1.564399
21.350000 -1.694583
21.400000 -1.811063
21.450000 -1.913839
21.500000 -2.050875
21.550000 -2.191336
21.600000 -2.249577
21.650000 -2.232447
21.700000 -2.191337
21.750000 -2.109115
21.800000 -1.954950
21.850000 -1.756249
21.900000 -1.540417
21.950000 -1.304031
22.000000 -1.060793
22.050000 -0.844962
22.100000 -0.649686
22.150000 -0.478392
22.200000 -0.351634
22.250000 -0.252283
22.300000 -0.180339
22.350000 -0.146080
22.400000 -0.156358
22.450000 -0.200895
22.500000 -0.259135
22.550000 -0.334504
22.600000 -0.444132
22.650000 -0.591446
22.700000 -0.755889
22.750000 -0.896351
22.800000 -1.026534
22.850000 -1.173847
22.900000 -1.317735
22.950000 -1.423937
23.000000 -1.482177
23.050000 -1.506158
23.100000 -1.489029
23.150000 -1.444493
23.200000 -1.382826
23.250000 -1.304031
23.300000 -1.221809
23.350000 -1.153292
23.400000 -1.091626
23.450000 -1.050515
23.500000 -1.040237
23.550000 -1.047090
23.600000 -1.081348
23.650000 -1.173847
23.700000 -1.300606
23.750000 -1.396531
23.800000 -1.471899
23.850000 -1.540417
23.900000 -1.588381
23.950000 -1.602084
24.000000 -1.598658
24.050000 -1.543843
24.100000 -1.396530
24.150000 -1.221810
24.200000 -1.077923
24.250000 -0.913480
24.300000 -0.728482
24.350000 -0.601723
24.400000 -0.522928
24.450000 -0.430429
24.500000 -0.392744
24.550000 -0.454410
24.600000 -0.526354
24.650000 -0.591446
24.700000 -0.725056
24.750000 -0.875795
24.800000 -0.978572
24.850000 -1.081348
24.900000 -1.197828
24.950000 -1.283476
25.000000 -1.334864
25.050000 -1.406808
25.100000 -1.478751
25.150000 -1.533566
25.200000 -1.571251
25.250000 -1.602084
25.300000 -1.639768
25.350000 -1.684305
25.400000 -1.691157
25.450000 -1.670601
25.500000 -1.684305
25.550000 -1.694583
25.600000 -1.636343
25.650000 -1.543843
25.700000 -1.471899
25.750000 -1.393104
25.800000 -1.262921
25.850000 -1.132737
25.900000 -1.012830
25.950000 -0.875795
26.000000 -0.714778
26.050000 -0.550335
26.100000 -0.409874
26.150000 -0.307097
26.200000 -0.218024
26.250000 -0.142654
26.300000 -0.135802
26.350000 -0.214599
26.400000 -0.320800
26.450000 -0.454410
26.500000 -0.629131
26.550000 -0.814129
26.600000 -1.002553
26.650000 -1.208106
26.700000 -1.410233
26.750000 -1.574676
26.800000 -1.708286
26.850000 -1.804211
26.900000 -1.859025
26.950000 -1.869303
27.000000 -1.838470
27.050000 -1.752822
27.100000 -1.622639
27.150000 -1.468474
27.200000 -1.283476
27.250000 -1.098478
27.300000 -0.961442
27.350000 -0.875795
27.400000 -0.807277
27.450000 -0.769592
27.500000 -0.783296
27.550000 -0.834684
27.600000 -0.916906
27.650000 -1.012830
27.700000 -1.088200
27.750000 -1.125885
27.800000 -1.139588
27.850000 -1.119033
27.900000 -1.060793
27.950000 -1.002553
28.000000 -0.971720
28.050000 -0.981997
28.100000 -1.047089
28.150000 -1.170421
28.200000 -1.321160
28.250000 -1.495880
28.300000 -1.694582
28.350000 -1.879581
28.400000 -2.009764
28.450000 -2.088560
28.500000 -2.081708
28.550000 -1.992634
28.600000 -1.845322
28.650000 -1.660324
28.700000 -1.444493
28.750000 -1.252643
28.800000 -1.108756
28.850000 -1.012831
28.900000 -0.971719
28.950000 -1.016257
29.000000 -1.122459
29.050000 -1.262920
29.100000 -1.434215
29.150000 -1.612361
29.200000 -1.745971
29.250000 -1.821340
29.300000 -1.835044
29.350000 -1.811063
29.400000 -1.749396
29.450000 -1.650045
29.500000 -1.513010
29.550000 -1.375975
29.600000 -1.262920
29.650000 -1.153292
29.700000 -1.057367
29.750000 -1.005978
29.800000 -1.023108
29.850000 -1.071071
29.900000 -1.125884
29.950000 -1.204680
30.000000 -1.324586
30.050000 -1.458196
30.100000 -1.571250
30.150000 -1.667175
30.200000 -1.759674
30.250000 -1.852173
30.300000 -1.917265
30.350000 -1.972079
30.400000 -2.030319
30.450000 -2.074856
30.500000 -2.126245
30.550000 -2.229021
30.600000 -2.366057
30.650000 -2.482537
30.700000 -2.585314
30.750000 -2.715498
30.800000 -2.855959
30.850000 -2.958736
30.900000 -2.989569
30.950000 -2.989569
31.000000 -2.972439
31.050000 -2.903922
31.100000 -2.770311
31.150000 -2.626424
31.200000 -2.489389
31.250000 -2.314668
31.300000 -2.109115
31.350000 -1.930969
31.400000 -1.766526
31.450000 -1.588380
31.500000 -1.423937
31.550000 -1.293754
31.600000 -1.197828
31.650000 -1.139588
31.700000 -1.146441
31.750000 -1.173847
31.800000 -1.211532
31.850000 -1.321160
31.900000 -1.495881
31.950000 -1.670602
32.000000 -1.841896
32.050000 -2.030320
32.100000 -2.208466
32.150000 -2.372909
32.200000 -2.506518
32.250000 -2.585313
32.300000 -2.640128
32.350000 -2.684664
32.400000 -2.664110
32.450000 -2.585314
32.500000 -2.503092
32.550000 -2.390038
32.600000 -2.235873
32.650000 -2.126244
32.700000 -2.081708
32.750000 -2.020042
32.800000 -1.954950
32.850000 -1.937821
32.900000 -1.958376
32.950000 -1.968654
33.000000 -1.965228
33.050000 -1.937821
33.100000 -1.910414
33.150000 -1.893285
33.200000 -1.835044
33.250000 -1.704861
33.300000 -1.574677
33.350000 -1.471900
33.400000 -1.351994
33.450000 -1.245791
33.500000 -1.211532
33.550000 -1.235514
33.600000 -1.276623
33.650000 -1.355420
33.700000 -1.475325
33.750000 -1.605510
33.800000 -1.749396
33.850000 -1.910414
33.900000 -2.033745
33.950000 -2.112541
34.000000 -2.170781
34.050000 -2.201614
34.100000 -2.184485
34.150000 -2.115966
34.200000 -2.020042
34.250000 -1.917265
34.300000 -1.807636
34.350000 -1.687731
34.400000 -1.591806
34.450000 -1.547269
34.500000 -1.519863
34.550000 -1.471899
34.600000 -1.468474
34.650000 -1.516436
34.700000 -1.557547
34.750000 -1.571251
34.800000 -1.574676
34.850000 -1.571251
34.900000 -1.557546
34.950000 -1.533565
35.000000 -1.509584
35.050000 -1.485603
35.100000 -1.489029
35.150000 -1.519862
35.200000 -1.564398
35.250000 -1.622638
35.300000 -1.701434
35.350000 -1.804210
35.400000 -1.906988
35.450000 -1.989209
35.500000 -2.050875
35.550000 -2.112541
35.600000 -2.170781
35.650000 -2.181058
35.700000 -2.174207
35.750000 -2.201614
35.800000 -2.235873
35.850000 -2.205040
35.900000 -2.150226
35.950000 -2.109115
36.000000 -2.061152
36.050000 -1.982357
36.100000 -1.886432
36.150000 -1.790507
36.200000 -1.708286
36.250000 -1.643194
36.300000 -1.581528
36.350000 -1.547269
36.400000 -1.550694
36.450000 -1.595232
36.500000 -1.677452
36.550000 -1.783655
36.600000 -1.910414
36.650000 -2.050875
36.700000 -2.187910
36.750000 -2.304390
36.800000 -2.393464
36.850000 -2.448278
36.900000 -2.465407
36.950000 -2.438000
37.000000 -2.369482
37.050000 -2.287261
37.100000 -2.198189
37.150000 -2.105690
37.200000 -2.037171
37.250000 -2.023468
37.300000 -2.057727
37.350000 -2.129670
37.400000 -2.235873
37.450000 -2.348927
37.500000 -2.451704
37.550000 -2.551055
37.600000 -2.646980
37.650000 -2.715498
37.700000 -2.763460
37.750000 -2.797719
37.800000 -2.787441
37.850000 -2.732627
37.900000 -2.670961
37.950000 -2.595592
38.000000 -2.503093
38.050000 -2.434574
38.100000 -2.390038
38.150000 -2.335224
38.200000 -2.283835
38.250000 -2.273558
38.300000 -2.287261
38.350000 -2.263280
38.400000 -2.208466
38.450000 -2.177633
38.500000 -2.167355
38.550000 -2.115967
38.600000 -2.040598
38.650000 -1.978931
38.700000 -1.924117
38.750000 -1.883006
38.800000 -1.848747
38.850000 -1.804211
38.900000 -1.783655
38.950000 -1.821340
39.000000 -1.879580
39.050000 -1.910413
39.100000 -1.961801
39.150000 -2.064578
39.200000 -2.160503
39.250000 -2.232447
39.300000 -2.338649
39.350000 -2.434575
39.400000 -2.451704
39.450000 -2.431149
39.500000 -2.424296
39.550000 -2.379761
39.600000 -2.263280
39.650000 -2.139948
39.700000 -2.033745
39.750000 -1.886432
39.800000 -1.715138
39.850000 -1.598657
39.900000 -1.547270
39.950000 -1.502732
40.000000 -1.461621
40.050000 -1.482177
40.100000 -1.581528
40.150000 -1.677453
40.200000 -1.739119
40.250000 -1.793933
40.300000 -1.841895
40.350000 -1.852174
40.400000 -1.835044
40.450000 -1.800785
40.500000 -1.749396
40.550000 -1.715138
40.600000 -1.701435
40.650000 -1.687731
40.700000 -1.691157
40.750000 -1.742545
40.800000 -1.814489
40.850000 -1.910414
40.900000 -2.068005
40.950000 -2.249576
41.000000 -2.396890
41.050000 -2.513370
41.100000 -2.622998
41.150000 -2.688090
41.200000 -2.715498
41.250000 -2.725775
41.300000 -2.701794
41.350000 -2.643554
41.400000 -2.575036
41.450000 -2.503093
41.500000 -2.400315
41.550000 -2.318094
41.600000 -2.273558
41.650000 -2.235873
41.700000 -2.232447
41.750000 -2.307816
41.800000 -2.424297
41.850000 -2.533925
41.900000 -2.653832
41.950000 -2.797719
42.000000 -2.934755
42.050000 -3.061513
42.100000 -3.160863
42.150000 -3.208826
42.200000 -3.215678
42.250000 -3.195122
42.300000 -3.119753
42.350000 -2.986143
42.400000 -2.828552
42.450000 -2.677813
42.500000 -2.527074
42.550000 -2.379760
42.600000 -2.256429
42.650000 -2.181058
42.700000 -2.150226
42.750000 -2.146800
42.800000 -2.184485
42.850000 -2.253003
42.900000 -2.311243
42.950000 -2.335223
43.000000 -2.359205
43.050000 -2.369483
43.100000 -2.359205
43.150000 -2.314669
43.200000 -2.249576
43.250000 -2.174207
43.300000 -2.112541
43.350000 -2.064579
43.400000 -2.009764
43.450000 -1.982357
43.500000 -2.023468
43.550000 -2.102263
43.600000 -2.187911
43.650000 -2.287261
43.700000 -2.403742
43.750000 -2.520222
43.800000 -2.612721
43.850000 -2.677813
43.900000 -2.691517
43.950000 -2.681238
44.000000 -2.667536
44.050000 -2.581888
44.100000 -2.427723
44.150000 -2.283835
44.200000 -2.160503
44.250000 -1.999487
44.300000 -1.855599
44.350000 -1.776803
44.400000 -1.745971
44.450000 -1.732267
44.500000 -1.780229
44.550000 -1.869303
44.600000 -1.937820
44.650000 -2.023467
44.700000 -2.129670
44.750000 -2.218743
44.800000 -2.280410
44.850000 -2.338649
44.900000 -2.369482
44.950000 -2.348928
45.000000 -2.314668
45.050000 -2.276984
45.100000 -2.222170
45.150000 -2.170781
45.200000 -2.146800
45.250000 -2.133096
45.300000 -2.126244
45.350000 -2.133096
45.400000 -2.133096
45.450000 -2.105689
45.500000 -2.109115
45.550000 -2.119393
45.600000 -2.091986
45.650000 -2.040598
45.700000 -2.037172
45.750000 -2.047449
45.800000 -2.016616
45.850000 -1.982357
45.900000 -1.996061
45.950000 -2.016616
46.000000 -2.006338
46.050000 -1.985783
46.100000 -1.982357
46.150000 -1.982357
46.200000 -1.965227
46.250000 -1.972079
46.300000 -2.006338
46.350000 -2.054300
46.400000 -2.112541
46.450000 -2.163930
46.500000 -2.198188
46.550000 -2.253003
46.600000 -2.307816
46.650000 -2.321520
46.700000 -2.307817
46.750000 -2.321520
46.800000 -2.324946
46.850000 -2.273557
46.900000 -2.201614
46.950000 -2.133096
47.000000 -2.061152
47.050000 -2.009764
47.100000 -1.968653
47.150000 -1.927543
47.200000 -1.920691
47.250000 -1.972079
47.300000 -2.026894
47.350000 -2.068004
47.400000 -2.150225
47.450000 -2.225595
47.500000 -2.259854
47.550000 -2.297539
47.600000 -2.369483
47.650000 -2.403742
47.700000 -2.400316
47.750000 -2.424297
47.800000 -2.444852
47.850000 -2.438000
47.900000 -2.427723
47.950000 -2.420871
48.000000 -2.372908
48.050000 -2.311243
48.100000 -2.259854
48.150000 -2.177633
48.200000 -2.047450
48.250000 -1.913840
48.300000 -1.766526
48.350000 -1.602083
48.400000 -1.454771
48.450000 -1.351993
48.500000 -1.280050
48.550000 -1.259495
48.600000 -1.280050
48.650000 -1.293753
48.700000 -1.334863
48.750000 -1.447918
48.800000 -1.598658
48.850000 -1.732267
48.900000 -1.835044
48.950000 -1.941246
49.000000 -2.057726
49.050000 -2.163929
49.100000 -2.232447
49.150000 -2.249576
49.200000 -2.239298
49.250000 -2.211892
49.300000 -2.174207
49.350000 -2.126245
49.400000 -2.074856
49.450000 -2.030320
49.500000 -1.982357
49.550000 -1.951525
49.600000 -1.924117
49.650000 -1.941246
49.700000 -1.999487
49.750000 -2.057727
49.800000 -2.105690
49.850000 -2.146799
49.900000 -2.191336
49.950000 -2.246151
50.000000 -2.300965
50.050000 -2.297539
50.100000 -2.256428
50.150000 -2.239299
50.200000 -2.215318
50.250000 -2.167355
50.300000 -2.157078
50.350000 -2.201614
50.400000 -2.205040
50.450000 -2.174207
50.500000 -2.201614
50.550000 -2.253002
50.600000 -2.256429
50.650000 -2.225595
50.700000 -2.201614
50.750000 -2.146800
50.800000 -2.061153
50.850000 -1.972080
50.900000 -1.900136
50.950000 -1.838470
51.000000 -1.769952
51.050000 -1.711712
51.100000 -1.684304
51.150000 -1.680879
51.200000 -1.670601
51.250000 -1.677453
51.300000 -1.732267
51.350000 -1.787081
51.400000 -1.828192
51.450000 -1.893284
51.500000 -1.978931
51.550000 -2.064579
51.600000 -2.115967
51.650000 -2.112541
51.700000 -2.057727
51.750000 -1.999487
51.800000 -1.944672
51.850000 -1.855599
51.900000 -1.745971
51.950000 -1.663750
52.000000 -1.632916
52.050000 -1.650046
52.100000 -1.704860
52.150000 -1.783656
52.200000 -1.879580
52.250000 -2.002912
52.300000 -2.136522
52.350000 -2.242725
52.400000 -2.321520
52.450000 -2.369482
52.500000 -2.352353
52.550000 -2.273558
52.600000 -2.174207
52.650000 -2.054301
52.700000 -1.913840
52.750000 -1.811062
52.800000 -1.752823
52.850000 -1.694582
52.900000 -1.674028
52.950000 -1.715138
53.000000 -1.766527
53.050000 -1.797359
53.100000 -1.869303
53.150000 -1.975505
53.200000 -2.033746
53.250000 -2.078282
53.300000 -2.153652
53.350000 -2.205041
53.400000 -2.198189
53.450000 -2.205040
53.500000 -2.249577
53.550000 -2.273558
53.600000 -2.266706
53.650000 -2.280410
53.700000 -2.321520
53.750000 -2.352353
53.800000 -2.376334
53.850000 -2.410593
53.900000 -2.458556
53.950000 -2.485963
54.000000 -2.492815
54.050000 -2.499667
54.100000 -2.513370
54.150000 -2.499666
54.200000 -2.482537
54.250000 -2.468834
54.300000 -2.441427
54.350000 -2.386612
54.400000 -2.338650
54.450000 -2.307817
54.500000 -2.280410
54.550000 -2.253002
54.600000 -2.215318
54.650000 -2.153652
54.700000 -2.129670
54.750000 -2.139948
54.800000 -2.122818
54.850000 -2.081708
54.900000 -2.054301
54.950000 -2.033745
55.000000 -2.013190
55.050000 -2.030319
55.100000 -2.050874
55.150000 -2.033745
55.200000 -2.016616
55.250000 -2.040597
55.300000 -2.061153
55.350000 -2.044023
55.400000 -2.006338
55.450000 -1.958376
55.500000 -1.869303
55.550000 -1.766526
55.600000 -1.687731
55.650000 -1.626065
55.700000 -1.571251
55.750000 -1.550696
55.800000 -1.571251
55.850000 -1.636342
55.900000 -1.739119
55.950000 -1.855599
56.000000 -1.972080
56.050000 -2.095412
56.100000 -2.239298
56.150000 -2.359205
56.200000 -2.438000
56.250000 -2.475685
56.300000 -2.482537
56.350000 -2.458556
56.400000 -2.424297
56.450000 -2.403742
56.500000 -2.372909
56.550000 -2.359205
56.600000 -2.386612
56.650000 -2.448278
56.700000 -2.506519
56.750000 -2.585314
56.800000 -2.691516
56.850000 -2.773737
56.900000 -2.831978
56.950000 -2.883366
57.000000 -2.934755
57.050000 -2.931328
57.100000 -2.869662
57.150000 -2.797719
57.200000 -2.736052
57.250000 -2.643554
57.300000 -2.516796
57.350000 -2.420871
57.400000 -2.359205
57.450000 -2.287262
57.500000 -2.229021
57.550000 -2.218743
57.600000 -2.232447
57.650000 -2.263280
57.700000 -2.321520
57.750000 -2.379760
57.800000 -2.414019
57.850000 -2.441427
57.900000 -2.455130
57.950000 -2.438001
58.000000 -2.396890
58.050000 -2.366057
58.100000 -2.328372
58.150000 -2.266706
58.200000 -2.205040
58.250000 -2.160504
58.300000 -2.133097
58.350000 -2.129670
58.400000 -2.153652
58.450000 -2.181059
58.500000 -2.201614
58.550000 -2.242724
58.600000 -2.307817
58.650000 -2.366057
58.700000 -2.420871
58.750000 -2.492815
58.800000 -2.581888
58.850000 -2.674387
58.900000 -2.746331
58.950000 -2.804571
59.000000 -2.838830
59.050000 -2.845681
59.100000 -2.804571
59.150000 -2.729201
59.200000 -2.636702
59.250000 -2.499666
59.300000 -2.328372
59.350000 -2.157077
59.400000 -2.020042
59.450000 -1.930968
59.500000 -1.896710
59.550000 -1.900136
59.600000 -1.951524
59.650000 -2.071430
59.700000 -2.225595
59.750000 -2.348927
59.800000 -2.455130
59.850000 -2.557906
59.900000 -2.622999
59.950000 -2.619573
60.000000 -2.557907
60.050000 -2.444852
60.100000 -2.297538
60.150000 -2.170781
60.200000 -2.071430
60.250000 -1.954950
60.300000 -1.862451
60.350000 -1.831618
60.400000 -1.855599
60.450000 -1.900136
60.500000 -1.951524
60.550000 -2.009764
60.600000 -2.074856
60.650000 -2.139948
60.700000 -2.170781
60.750000 -2.153652
60.800000 -2.112541
60.850000 -2.054300
60.900000 -1.982357
60.950000 -1.924117
61.000000 -1.883006
61.050000 -1.831618
61.100000 -1.800785
61.150000 -1.793933
61.200000 -1.790508
61.250000 -1.787081
61.300000 -1.821341
61.350000 -1.848748
61.400000 -1.859025
61.450000 -1.865877
61.500000 -1.852174
61.550000 -1.780230
61.600000 -1.687731
61.650000 -1.591806
61.700000 -1.478751
61.750000 -1.375974
61.800000 -1.300606
61.850000 -1.242365
61.900000 -1.208106
61.950000 -1.242365
62.000000 -1.338290
62.050000 -1.447918
62.100000 -1.598658
62.150000 -1.800785
62.200000 -2.013190
62.250000 -2.187911
62.300000 -2.338650
62.350000 -2.448279
62.400000 -2.499667
62.450000 -2.520222
62.500000 -2.523648
62.550000 -2.465407
62.600000 -2.345501
62.650000 -2.232447
62.700000 -2.146800
62.750000 -2.078282
62.800000 -2.030320
62.850000 -2.013190
62.900000 -2.016616
62.950000 -2.033746
63.000000 -2.057726
63.050000 -2.119392
63.100000 -2.225595
63.150000 -2.328372
63.200000 -2.386612
63.250000 -2.438001
63.300000 -2.485962
63.350000 -2.485963
63.400000 -2.441427
63.450000 -2.386612
63.500000 -2.314668
63.550000 -2.205040
63.600000 -2.078282
63.650000 -1.951524
63.700000 -1.852173
63.750000 -1.787081
63.800000 -1.735693
63.850000 -1.684305
63.900000 -1.656898
63.950000 -1.680879
64.000000 -1.728841
64.050000 -1.769952
64.100000 -1.797359
64.150000 -1.828192
64.200000 -1.855600
64.250000 -1.872729
64.300000 -1.869302
64.350000 -1.852173
64.400000 -1.841896
64.450000 -1.828192
64.500000 -1.821340
64.550000 -1.859025
64.600000 -1.927543
64.650000 -1.972079
64.700000 -2.013190
64.750000 -2.068004
64.800000 -2.105689
64.850000 -2.139948
64.900000 -2.177633
64.950000 -2.187911
65.000000 -2.157078
65.050000 -2.122819
65.100000 -2.085133
65.150000 -2.020042
65.200000 -1.958375
65.250000 -1.927543
65.300000 -1.920691
65.350000 -1.944672
65.400000 -1.985783
65.450000 -2.047449
65.500000 -2.119393
65.550000 -2.194762
65.600000 -2.229021
65.650000 -2.229021
65.700000 -2.235873
65.750000 -2.246151
65.800000 -2.211892
65.850000 -2.170781
65.900000 -2.170781
65.950000 -2.177633
66.000000 -2.170781
66.050000 -2.181058
66.100000 -2.225596
66.150000 -2.256429
66.200000 -2.263280
66.250000 -2.270132
66.300000 -2.287261
66.350000 -2.287261
66.400000 -2.256428
66.450000 -2.208466
66.500000 -2.170781
66.550000 -2.129671
66.600000 -2.074856
66.650000 -2.040597
66.700000 -2.054300
66.750000 -2.095412
66.800000 -2.170781
66.850000 -2.294113
66.900000 -2.441427
66.950000 -2.578462
67.000000 -2.701794
67.050000 -2.801145
67.100000 -2.838830
67.150000 -2.807997
67.200000 -2.732627
67.250000 -2.602443
67.300000 -2.414019
67.350000 -2.187911
67.400000 -1.927543
67.450000 -1.663749
67.500000 -1.441067
67.550000 -1.256069
67.600000 -1.095052
67.650000 -0.975146
67.700000 -0.930609
67.750000 -0.940887
67.800000 -0.975146
67.850000 -1.016256
67.900000 -1.077922
67.950000 -1.139589
68.000000 -1.170422
68.050000 -1.190976
68.100000 -1.235513
68.150000 -1.293753
68.200000 -1.338290
68.250000 -1.396530
68.300000 -1.502732
68.350000 -1.646620
68.400000 -1.800785
68.450000 -1.982357
68.500000 -2.177633
68.550000 -2.348927
68.600000 -2.489389
68.650000 -2.588739
68.700000 -2.629850
68.750000 -2.599017
68.800000 -2.537352
68.850000 -2.441426
68.900000 -2.294113
68.950000 -2.105689
69.000000 -1.930969
69.050000 -1.790508
69.100000 -1.636342
69.150000 -1.471900
69.200000 -1.372549
69.250000 -1.338290
69.300000 -1.345142
69.350000 -1.382827
69.400000 -1.451345
69.450000 -1.530140
69.500000 -1.626065
69.550000 -1.725416
69.600000 -1.811063
69.650000 -1.886433
69.700000 -1.934395
69.750000 -1.930969
69.800000 -1.876155
69.850000 -1.790507
69.900000 -1.680878
69.950000 -1.557547
70.000000 -1.427363
70.050000 -1.307456
70.100000 -1.235513
70.150000 -1.225235
70.200000 -1.256068
70.250000 -1.341716
70.300000 -1.506158
70.350000 -1.728841
70.400000 -1.954950
70.450000 -2.157078
70.500000 -2.328372
70.550000 -2.451704
70.600000 -2.533926
70.650000 -2.564758
70.700000 -2.506518
70.750000 -2.359205
70.800000 -2.187911
70.850000 -1.992635
70.900000 -1.787081
70.950000 -1.622639
71.000000 -1.519862
71.050000 -1.444492
71.100000 -1.379400
71.150000 -1.369123
71.200000 -1.396530
71.250000 -1.406807
71.300000 -1.406808
71.350000 -1.441066
71.400000 -1.485603
71.450000 -1.506158
71.500000 -1.543843
71.550000 -1.605509
71.600000 -1.653471
71.650000 -1.711712
71.700000 -1.828192
71.750000 -2.002913
71.800000 -2.181059
71.850000 -2.345501
71.900000 -2.492815
71.950000 -2.626425
72.000000 -2.736053
72.050000 -2.773738
72.100000 -2.736053
72.150000 -2.670961
72.200000 -2.571610
72.250000 -2.403742
72.300000 -2.222169
72.350000 -2.071430
72.400000 -1.903562
72.450000 -1.732267
72.500000 -1.615786
72.550000 -1.547269
72.600000 -1.495881
72.650000 -1.482177
72.700000 -1.489029
72.750000 -1.513010
72.800000 -1.574676
72.850000 -1.677452
72.900000 -1.780230
72.950000 -1.896710
73.000000 -2.020042
73.050000 -2.109115
73.100000 -2.184484
73.150000 -2.256428
73.200000 -2.259855
73.250000 -2.205040
73.300000 -2.160503
73.350000 -2.068004
73.400000 -1.896710
73.450000 -1.749396
73.500000 -1.667175
73.550000 -1.560972
73.600000 -1.461622
73.650000 -1.458195
73.700000 -1.516436
73.750000 -1.591806
73.800000 -1.721989
73.850000 -1.900136
73.900000 -2.040597
73.950000 -2.146800
74.000000 -2.270132
74.050000 -2.359205
74.100000 -2.366057
74.150000 -2.307816
74.200000 -2.222169
74.250000 -2.088559
74.300000 -1.937821
74.350000 -1.828192
74.400000 -1.742545
74.450000 -1.687731
74.500000 -1.663749
74.550000 -1.670601
74.600000 -1.698008
74.650000 -1.797359
74.700000 -1.948098
74.750000 -2.081708
74.800000 -2.177632
74.850000 -2.263280
74.900000 -2.335224
74.950000 -2.342076
75.000000 -2.273558
75.050000 -2.198189
75.100000 -2.153651
75.150000 -2.081708
75.200000 -1.958376
75.250000 -1.831618
75.300000 -1.725416
75.350000 -1.629490
75.400000 -1.547269
75.450000 -1.495881
75.500000 -1.430789
75.550000 -1.345142
75.600000 -1.293754
75.650000 -1.262920
75.700000 -1.228662
75.750000 -1.211532
75.800000 -1.232088
75.850000 -1.283476
75.900000 -1.379400
75.950000 -1.519862
76.000000 -1.667175
76.050000 -1.817915
76.100000 -2.013190
76.150000 -2.218744
76.200000 -2.376335
76.250000 -2.485963
76.300000 -2.578462
76.350000 -2.633276
76.400000 -2.646980
76.450000 -2.626425
76.500000 -2.557907
76.550000 -2.458556
76.600000 -2.345501
76.650000 -2.205040
76.700000 -2.064579
76.750000 -1.961802
76.800000 -1.869302
76.850000 -1.766526
76.900000 -1.694582
76.950000 -1.670601
77.000000 -1.663750
77.050000 -1.667175
77.100000 -1.708286
77.150000 -1.783655
77.200000 -1.865877
77.250000 -1.951524
77.300000 -2.040597
77.350000 -2.133096
77.400000 -2.208466
77.450000 -2.256429
77.500000 -2.283836
77.550000 -2.314668
77.600000 -2.328372
77.650000 -2.324946
77.700000 -2.321520
77.750000 -2.318094
77.800000 -2.280410
77.850000 -2.215318
77.900000 -2.157078
77.950000 -2.095411
78.000000 -2.009764
78.050000 -1.930969
78.100000 -1.876154
78.150000 -1.845322
78.200000 -1.824767
78.250000 -1.831618
78.300000 -1.838470
78.350000 -1.845322
78.400000 -1.865877
78.450000 -1.906988
78.500000 -1.958376
78.550000 -1.996061
78.600000 -1.996060
78.650000 -1.989209
78.700000 -1.989209
78.750000 -1.968654
78.800000 -1.910413
78.850000 -1.859026
78.900000 -1.835045
78.950000 -1.831619
79.000000 -1.855600
79.050000 -1.906988
79.100000 -1.985783
79.150000 -2.088560
79.200000 -2.222169
79.250000 -2.372909
79.300000 -2.496240
79.350000 -2.595591
79.400000 -2.664110
79.450000 -2.698368
79.500000 -2.684664
79.550000 -2.633277
79.600000 -2.544204
79.650000 -2.444852
79.700000 -2.342076
79.750000 -2.273557
79.800000 -2.242724
79.850000 -2.222169
79.900000 -2.208466
79.950000 -2.235873
80.000000 -2.307817
80.050000 -2.390038
80.100000 -2.451704
80.150000 -2.492815
80.200000 -2.506518
80.250000 -2.461982
80.300000 -2.366057
80.350000 -2.242724
80.400000 -2.109115
80.450000 -1.954950
80.500000 -1.783656
80.550000 -1.632916
80.600000 -1.519862
80.650000 -1.454770
80.700000 -1.420511
80.750000 -1.410233
80.800000 -1.434215
80.850000 -1.489029
80.900000 -1.557546
80.950000 -1.629490
81.000000 -1.694582
81.050000 -1.742544
81.100000 -1.783655
81.150000 -1.835044
81.200000 -1.889858
81.250000 -1.930969
81.300000 -1.958376
81.350000 -1.982357
81.400000 -1.992635
81.450000 -1.992635
81.500000 -1.992634
81.550000 -1.985783
81.600000 -1.954950
81.650000 -1.924117
81.700000 -1.896710
81.750000 -1.865877
81.800000 -1.831618
81.850000 -1.804211
81.900000 -1.783656
81.950000 -1.756248
82.000000 -1.749397
82.050000 -1.732267
82.100000 -1.701434
82.150000 -1.704859
82.200000 -1.763100
82.250000 -1.804211
82.300000 -1.835044
82.350000 -1.917265
82.400000 -2.016616
82.450000 -2.081708
82.500000 -2.143374
82.550000 -2.191337
82.600000 -2.143374
82.650000 -2.023468
82.700000 -1.934395
82.750000 -1.848747
82.800000 -1.691156
82.850000 -1.513010
82.900000 -1.372549
82.950000 -1.259495
83.000000 -1.173848
83.050000 -1.143015
83.100000 -1.146440
83.150000 -1.190977
83.200000 -1.300605
83.250000 -1.420511
83.300000 -1.495880
83.350000 -1.564398
83.400000 -1.653471
83.450000 -1.711712
83.500000 -1.749396
83.550000 -1.811062
83.600000 -1.876155
83.650000 -1.934395
83.700000 -2.002913
83.750000 -2.050875
83.800000 -2.020041
83.850000 -1.961802
83.900000 -1.917265
83.950000 -1.835043
84.000000 -1.670601
84.050000 -1.502732
84.100000 -1.334864
84.150000 -1.149866
84.200000 -0.978571
84.250000 -0.855240
84.300000 -0.790148
84.350000 -0.796999
84.400000 -0.875795
84.450000 -0.981998
84.500000 -1.115607
84.550000 -1.290327
84.600000 -1.471899
84.650000 -1.626065
84.700000 -1.756249
84.750000 -1.859025
84.800000 -1.917265
84.850000 -1.941247
84.900000 -1.930968
84.950000 -1.879580
85.000000 -1.831618
85.050000 -1.776803
85.100000 -1.670601
85.150000 -1.543843
85.200000 -1.441067
85.250000 -1.328012
85.300000 -1.194403
85.350000 -1.074496
85.400000 -0.951165
85.450000 -0.800425
85.500000 -0.697649
85.550000 -0.666816
85.600000 -0.642834
85.650000 -0.625705
85.700000 -0.666815
85.750000 -0.725056
85.800000 -0.776443
85.850000 -0.868943
85.900000 -0.992275
85.950000 -1.105329
86.000000 -1.225236
86.050000 -1.358845
86.100000 -1.475325
86.150000 -1.581528
86.200000 -1.694582
86.250000 -1.763100
86.300000 -1.793933
86.350000 -1.835044
86.400000 -1.865877
86.450000 -1.831617
86.500000 -1.776803
86.550000 -1.735693
86.600000 -1.663750
86.650000 -1.540417
86.700000 -1.423938
86.750000 -1.310883
86.800000 -1.177273
86.850000 -1.036812
86.900000 -0.913480
86.950000 -0.820981
87.000000 -0.769592
87.050000 -0.755889
87.100000 -0.759315
87.150000 -0.796999
87.200000 -0.889498
87.250000 -0.985423
87.300000 -1.084774
87.350000 -1.211532
87.400000 -1.362271
87.450000 -1.506159
87.500000 -1.646620
87.550000 -1.773378
87.600000 -1.865877
87.650000 -1.917265
87.700000 -1.917265
87.750000 -1.862451
87.800000 -1.787082
87.850000 -1.711712
87.900000 -1.619213
87.950000 -1.523289
88.000000 -1.475326
88.050000 -1.482178
88.100000 -1.489029
88.150000 -1.516436
88.200000 -1.622638
88.250000 -1.787082
88.300000 -1.951524
88.350000 -2.095412
88.400000 -2.256428
88.450000 -2.414019
88.500000 -2.509944
88.550000 -2.520222
88.600000 -2.455130
88.650000 -2.345501
88.700000 -2.201614
88.750000 -2.044023
88.800000 -1.886432
88.850000 -1.728841
88.900000 -1.598657
88.950000 -1.499307
89.000000 -1.437641
89.050000 -1.430789
89.100000 -1.478752
89.150000 -1.557547
89.200000 -1.656897
89.250000 -1.752823
89.300000 -1.817915
89.350000 -1.855599
89.400000 -1.896709
89.450000 -1.917265
89.500000 -1.903561
89.550000 -1.889858
89.600000 -1.910413
89.650000 -1.941246
89.700000 -1.972080
89.750000 -2.023467
89.800000 -2.078282
89.850000 -2.115967
89.900000 -2.146800
89.950000 -2.146800
90.000000 -2.085133
90.050000 -1.972079
90.100000 -1.817914
90.150000 -1.612361
90.200000 -1.372549
90.250000 -1.153292
90.300000 -0.988849
90.350000 -0.889498
90.400000 -0.858665
90.450000 -0.875795
90.500000 -0.958016
90.550000 -1.129310
90.600000 -1.348567
90.650000 -1.567824
90.700000 -1.752822
90.750000 -1.910414
90.800000 -2.020042
90.850000 -2.068005
90.900000 -2.054301
90.950000 -1.985783
91.000000 -1.886432
91.050000 -1.756248
91.100000 -1.632917
91.150000 -1.560973
91.200000 -1.560973
91.250000 -1.588379
91.300000 -1.639768
91.350000 -1.725415
91.400000 -1.821341
91.450000 -1.903562
91.500000 -1.968654
91.550000 -1.996061
91.600000 -1.937820
91.650000 -1.817914
91.700000 -1.674027
91.750000 -1.471899
91.800000 -1.214958
91.850000 -0.985423
91.900000 -0.803852
91.950000 -0.642834
92.000000 -0.536632
92.050000 -0.536632
92.100000 -0.608575
92.150000 -0.725056
92.200000 -0.903202
92.250000 -1.129310
92.300000 -1.328013
92.350000 -1.502733
92.400000 -1.670601
92.450000 -1.780230
92.500000 -1.821340
92.550000 -1.817914
92.600000 -1.766526
92.650000 -1.639769
92.700000 -1.475326
92.750000 -1.341716
92.800000 -1.214958
92.850000 -1.088200
92.900000 -1.019683
92.950000 -1.033386
93.000000 -1.091626
93.050000 -1.163570
93.100000 -1.245791
93.150000 -1.362271
93.200000 -1.499307
93.250000 -1.578102
93.300000 -1.571250
93.350000 -1.540417
93.400000 -1.492455
93.450000 -1.362271
93.500000 -1.194403
93.550000 -1.067645
93.600000 -0.954591
93.650000 -0.838110
93.700000 -0.796999
93.750000 -0.848388
93.800000 -0.940887
93.850000 -1.095052
93.900000 -1.328012
93.950000 -1.540417
94.000000 -1.721989
94.050000 -1.944673
94.100000 -2.163929
94.150000 -2.283835
94.200000 -2.321520
94.250000 -2.324946
94.300000 -2.266706
94.350000 -2.174207
94.400000 -2.057726
94.450000 -1.906988
94.500000 -1.742545
94.550000 -1.622638
94.600000 -1.530140
94.650000 -1.430789
94.700000 -1.369123
94.750000 -1.351993
94.800000 -1.345142
94.850000 -1.365697
94.900000 -1.441067
94.950000 -1.509584
95.000000 -1.536991
95.050000 -1.591805
95.100000 -1.670601
95.150000 -1.725415
95.200000 -1.728842
95.250000 -1.687730
95.300000 -1.619213
95.350000 -1.554122
95.400000 -1.492455
95.450000 -1.413659
95.500000 -1.324586
95.550000 -1.256068
95.600000 -1.218384
95.650000 -1.218384
95.700000 -1.262920
95.750000 -1.307457
95.800000 -1.355420
95.850000 -1.444492
95.900000 -1.557547
95.950000 -1.636343
96.000000 -1.701434
96.050000 -1.773378
96.100000 -1.787082
96.150000 -1.756248
96.200000 -1.715138
96.250000 -1.677453
96.300000 -1.619213
96.350000 -1.574676
96.400000 -1.557546
96.450000 -1.557546
96.500000 -1.598658
96.550000 -1.704860
96.600000 -1.838469
96.650000 -1.978931
96.700000 -2.139948
96.750000 -2.300964
96.800000 -2.438000
96.850000 -2.561333
96.900000 -2.626425
96.950000 -2.616146
97.000000 -2.564759
97.050000 -2.475685
97.100000 -2.338649
97.150000 -2.177633
97.200000 -2.033746
97.250000 -1.906988
97.300000 -1.807637
97.350000 -1.732267
97.400000 -1.684304
97.450000 -1.656898
97.500000 -1.632916
97.550000 -1.591806
97.600000 -1.536992
97.650000 -1.492454
97.700000 -1.437641
97.750000 -1.358845
97.800000 -1.280049
97.850000 -1.235513
97.900000 -1.221809
97.950000 -1.242365
98.000000 -1.321161
98.050000 -1.417085
98.100000 -1.536992
98.150000 -1.701434
98.200000 -1.869303
98.250000 -1.992635
98.300000 -2.095412
98.350000 -2.191337
98.400000 -2.235873
98.450000 -2.239298
98.500000 -2.232447
98.550000 -2.198189
98.600000 -2.163929
98.650000 -2.153651
98.700000 -2.133097
98.750000 -2.074856
98.800000 -2.050875
98.850000 -2.064579
98.900000 -2.044023
98.950000 -2.020042
99.000000 -2.023468
99.050000 -2.009764
99.100000 -1.930968
99.150000 -1.848748
99.200000 -1.793933
99.250000 -1.728841
99.300000 -1.667175
99.350000 -1.639768
99.400000 -1.643194
99.450000 -1.646619
99.500000 -1.643194
99.550000 -1.660324
99.600000 -1.698008
99.650000 -1.728841
99.700000 -1.735693
99.750000 -1.739119
99.800000 -1.749396
99.850000 -1.759675
99.900000 -1.752822
99.950000 -1.752822
100.000000 -1.759674
100.050000 -1.749397
100.100000 -1.766526
100.150000 -1.817914
100.200000 -1.869303
100.250000 -1.903562
100.300000 -1.948099
100.350000 -2.002912
100.400000 -2.061152
100.450000 -2.115967
100.500000 -2.157078
100.550000 -2.184485
100.600000 -2.211892
100.650000 -2.229022
100.700000 -2.211891
100.750000 -2.191337
100.800000 -2.170781
100.850000 -2.115967
100.900000 -2.050875
100.950000 -2.013190
101.000000 -1.954949
101.050000 -1.869303
101.100000 -1.817914
101.150000 -1.811063
101.200000 -1.800785
101.250000 -1.817914
101.300000 -1.879580
101.350000 -1.930969
101.400000 -1.975505
101.450000 -2.037171
101.500000 -2.068005
101.550000 -2.037171
101.600000 -2.013190
101.650000 -1.985783
101.700000 -1.927542
101.750000 -1.889858
101.800000 -1.872729
101.850000 -1.845321
101.900000 -1.872729
101.950000 -1.992635
102.000000 -2.129670
102.050000 -2.263280
102.100000 -2.414019
102.150000 -2.533925
102.200000 -2.585314
102.250000 -2.612721
102.300000 -2.602443
102.350000 -2.492814
102.400000 -2.328372
102.450000 -2.163929
102.500000 -1.992635
102.550000 -1.797359
102.600000 -1.632916
102.650000 -1.536991
102.700000 -1.495880
102.750000 -1.523288
102.800000 -1.615787
102.850000 -1.725415
102.900000 -1.845321
102.950000 -2.006338
103.000000 -2.160503
103.050000 -2.253002
103.100000 -2.297539
103.150000 -2.300965
103.200000 -2.249576
103.250000 -2.160503
103.300000 -2.037171
103.350000 -1.872728
103.400000 -1.704860
103.450000 -1.564398
103.500000 -1.434214
103.550000 -1.328012
103.600000 -1.266346
103.650000 -1.218384
103.700000 -1.184125
103.750000 -1.201254
103.800000 -1.235513
103.850000 -1.242364
103.900000 -1.252642
103.950000 -1.304031
104.000000 -1.338289
104.050000 -1.334864
104.100000 -1.345141
104.150000 -1.358845
104.200000 -1.348567
104.250000 -1.362271
104.300000 -1.393104
104.350000 -1.410234
104.400000 -1.447918
104.450000 -1.513010
104.500000 -1.564399
104.550000 -1.615787
104.600000 -1.684304
104.650000 -1.742544
104.700000 -1.756248
104.750000 -1.756248
104.800000 -1.756248
104.850000 -1.732267
104.900000 -1.674027
104.950000 -1.602083
105.000000 -1.516436
105.050000 -1.437640
105.100000 -1.382826
105.150000 -1.341715
105.200000 -1.321161
105.250000 -1.331438
105.300000 -1.375974
105.350000 -1.406808
105.400000 -1.427363
105.450000 -1.447918
105.500000 -1.444492
105.550000 -1.396529
105.600000 -1.331438
105.650000 -1.238940
105.700000 -1.091626
105.750000 -0.934035
105.800000 -0.820981
105.850000 -0.759314
105.900000 -0.707927
105.950000 -0.687371
106.000000 -0.745611
106.050000 -0.875795
106.100000 -1.026534
106.150000 -1.170422
106.200000 -1.321161
106.250000 -1.482177
106.300000 -1.602083
106.350000 -1.663749
106.400000 -1.694583
106.450000 -1.680879
106.500000 -1.602083
106.550000 -1.495881
106.600000 -1.372549
106.650000 -1.228661
106.700000 -1.108755
106.750000 -1.043663
106.800000 -1.009405
106.850000 -1.002553
106.900000 -1.036811
106.950000 -1.067644
107.000000 -1.101904
107.050000 -1.190976
107.100000 -1.314308
107.150000 -1.427363
107.200000 -1.543844
107.250000 -1.667175
107.300000 -1.787081
107.350000 -1.906988
107.400000 -2.033746
107.450000 -2.112541
107.500000 -2.153652
107.550000 -2.208466
107.600000 -2.242725
107.650000 -2.215318
107.700000 -2.136522
107.750000 -2.044023
107.800000 -1.944673
107.850000 -1.859025
107.900000 -1.783655
107.950000 -1.698008
108.000000 -1.622638
108.050000 -1.557547
108.100000 -1.482177
108.150000 -1.413660
108.200000 -1.355419
108.250000 -1.259494
108.300000 -1.132736
108.350000 -1.040237
108.400000 -0.968294
108.450000 -0.868944
108.500000 -0.786721
108.550000 -0.762740
108.600000 -0.745611
108.650000 -0.731908
108.700000 -0.796999
108.750000 -0.913480
108.800000 -1.002553
108.850000 -1.108755
108.900000 -1.259495
108.950000 -1.372548
109.000000 -1.423937
109.050000 -1.485603
109.100000 -1.554121
109.150000 -1.564398
109.200000 -1.560972
109.250000 -1.557547
109.300000 -1.492455
109.350000 -1.396530
109.400000 -1.345141
109.450000 -1.304031
109.500000 -1.228661
109.550000 -1.184125
109.600000 -1.197828
109.650000 -1.214958
109.700000 -1.238940
109.750000 -1.321161
109.800000 -1.413660
109.850000 -1.485604
109.900000 -1.578102
109.950000 -1.663749
110.000000 -1.691156
110.050000 -1.691157
110.100000 -1.701434
110.150000 -1.687731
110.200000 -1.619213
110.250000 -1.547269
110.300000 -1.489029
110.350000 -1.417085
110.400000 -1.348567
110.450000 -1.314309
110.500000 -1.317734
110.550000 -1.321161
110.600000 -1.331438
110.650000 -1.379400
110.700000 -1.441067
110.750000 -1.478752
110.800000 -1.495881
110.850000 -1.523287
110.900000 -1.526714
110.950000 -1.492455
111.000000 -1.471899
111.050000 -1.471899
111.100000 -1.447919
111.150000 -1.399956
111.200000 -1.355419
111.250000 -1.307457
111.300000 -1.238939
111.350000 -1.187550
111.400000 -1.136163
111.450000 -1.067645
111.500000 -1.009405
111.550000 -0.988849
111.600000 -0.978572
111.650000 -0.954590
111.700000 -0.954590
111.750000 -0.988849
111.800000 -1.023108
111.850000 -1.050515
111.900000 -1.081348
111.950000 -1.115607
112.000000 -1.146440
112.050000 -1.170421
112.100000 -1.163570
112.150000 -1.125885
112.200000 -1.098478
112.250000 -1.108755
112.300000 -1.105329
112.350000 -1.077922
112.400000 -1.074497
112.450000 -1.108755
112.500000 -1.136162
112.550000 -1.153292
112.600000 -1.197829
112.650000 -1.256068
112.700000 -1.314309
112.750000 -1.382827
112.800000 -1.458196
112.850000 -1.519862
112.900000 -1.584954
112.950000 -1.660323
113.000000 -1.704860
113.050000 -1.677453
113.100000 -1.643194
113.150000 -1.636343
113.200000 -1.605509
113.250000 -1.509584
113.300000 -1.434215
113.350000 -1.441067
113.400000 -1.444492
113.450000 -1.403382
113.500000 -1.413660
113.550000 -1.489029
113.600000 -1.530139
113.650000 -1.543843
113.700000 -1.605509
113.750000 -1.670601
113.800000 -1.677453
113.850000 -1.677453
113.900000 -1.704860
113.950000 -1.698008
114.000000 -1.639768
114.050000 -1.591805
114.100000 -1.578102
114.150000 -1.581527
114.200000 -1.608935
114.250000 -1.687731
114.300000 -1.793933
114.350000 -1.893284
114.400000 -1.968653
114.450000 -2.047449
114.500000 -2.129670
114.550000 -2.174207
114.600000 -2.146800
114.650000 -2.064579
114.700000 -1.968653
114.750000 -1.848747
114.800000 -1.677453
114.850000 -1.495881
114.900000 -1.341715
114.950000 -1.228661
115.000000 -1.143014
115.050000 -1.115607
115.100000 -1.170421
115.150000 -1.297179
115.200000 -1.471899
115.250000 -1.677453
115.300000 -1.862450
115.350000 -1.996061
115.400000 -2.119393
115.450000 -2.246151
115.500000 -2.297539
115.550000 -2.263280
115.600000 -2.215317
115.650000 -2.157077
115.700000 -2.078282
115.750000 -2.016616
115.800000 -1.985783
115.850000 -1.972079
115.900000 -1.978931
115.950000 -2.002912
116.000000 -2.030320
116.050000 -2.061153
116.100000 -2.064579
116.150000 -2.040597
116.200000 -2.033745
116.250000 -2.020042
116.300000 -1.944672
116.350000 -1.841896
116.400000 -1.783656
116.450000 -1.732267
116.500000 -1.639768
116.550000 -1.557547
116.600000 -1.516436
116.650000 -1.478751
116.700000 -1.444492
116.750000 -1.430789
116.800000 -1.423936
116.850000 -1.434215
116.900000 -1.502732
116.950000 -1.591805
117.000000 -1.646620
117.050000 -1.694582
117.100000 -1.752823
117.150000 -1.783656
117.200000 -1.780229
117.250000 -1.773378
117.300000 -1.763100
117.350000 -1.756248
117.400000 -1.735693
117.450000 -1.670601
117.500000 -1.608935
117.550000 -1.595232
117.600000 -1.595232
117.650000 -1.547269
117.700000 -1.502733
117.750000 -1.509584
117.800000 -1.530139
117.850000 -1.526714
117.900000 -1.536991
117.950000 -1.567824
118.000000 -1.584953
118.050000 -1.578102
118.100000 -1.584954
118.150000 -1.591805
118.200000 -1.564399
118.250000 -1.499307
118.300000 -1.427363
118.350000 -1.341715
118.400000 -1.262920
118.450000 -1.204680
118.500000 -1.184125
118.550000 -1.218384
118.600000 -1.293753
118.650000 -1.379401
118.700000 -1.499307
118.750000 -1.670601
118.800000 -1.852173
118.850000 -1.999486
118.900000 -2.126245
118.950000 -2.242725
119.000000 -2.311242
119.050000 -2.331798
119.100000 -2.283835
119.150000 -2.174207
119.200000 -2.033746
119.250000 -1.886433
119.300000 -1.739118
119.350000 -1.581528
119.400000 -1.427363
119.450000 -1.300605
119.500000 -1.208106
119.550000 -1.139589
119.600000 -1.101904
119.650000 -1.095052
119.700000 -1.101904
119.750000 -1.125885
119.800000 -1.180699
119.850000 -1.252643
119.900000 -1.331439
119.950000 -1.427363
120.000000 -1.526713
120.050000 -1.602083
120.100000 -1.663750
120.150000 -1.721990
120.200000 -1.735693
120.250000 -1.698008
120.300000 -1.650046
120.350000 -1.612361
120.400000 -1.581528
120.450000 -1.560973
120.500000 -1.547269
120.550000 -1.547269
120.600000 -1.581528
120.650000 -1.663749
120.700000 -1.752822
120.750000 -1.828192
120.800000 -1.903562
120.850000 -1.961802
120.900000 -1.978932
120.950000 -1.978931
121.000000 -1.954950
121.050000 -1.876155
121.100000 -1.766526
121.150000 -1.698009
121.200000 -1.663749
121.250000 -1.632916
121.300000 -1.629490
121.350000 -1.670601
121.400000 -1.749397
121.450000 -1.841896
121.500000 -1.927543
121.550000 -2.009765
121.600000 -2.091986
121.650000 -2.167355
121.700000 -2.211892
121.750000 -2.235873
121.800000 -2.253003
121.850000 -2.253002
121.900000 -2.218743
121.950000 -2.153651
122.000000 -2.078282
122.050000 -1.996061
122.100000 -1.913839
122.150000 -1.855599
122.200000 -1.800785
122.250000 -1.721989
122.300000 -1.639768
122.350000 -1.574676
122.400000 -1.513010
122.450000 -1.451345
122.500000 -1.386252
122.550000 -1.317735
122.600000 -1.252643
122.650000 -1.201254
122.700000 -1.166995
122.750000 -1.146440
122.800000 -1.146440
122.850000 -1.177273
122.900000 -1.232087
122.950000 -1.304030
123.000000 -1.403382
123.050000 -1.523288
123.100000 -1.643194
123.150000 -1.756249
123.200000 -1.872728
123.250000 -1.958376
123.300000 -2.002913
123.350000 -2.013190
123.400000 -1.975505
123.450000 -1.869303
123.500000 -1.742545
123.550000 -1.632916
123.600000 -1.519862
123.650000 -1.403382
123.700000 -1.317734
123.750000 -1.283476
123.800000 -1.283476
123.850000 -1.304031
123.900000 -1.351994
123.950000 -1.451344
124.000000 -1.581528
124.050000 -1.694582
124.100000 -1.780230
124.150000 -1.848748
124.200000 -1.879580
124.250000 -1.865877
124.300000 -1.804211
124.350000 -1.718563
124.400000 -1.636342
124.450000 -1.547269
124.500000 -1.441066
124.550000 -1.351994
124.600000 -1.300605
124.650000 -1.269772
124.700000 -1.235513
124.750000 -1.221810
124.800000 -1.218383
124.850000 -1.208106
124.900000 -1.208106
124.950000 -1.228661
125.000000 -1.245791
125.050000 -1.245790
125.100000 -1.235513
125.150000 -1.242365
125.200000 -1.245791
125.250000 -1.249216
125.300000 -1.238939
125.350000 -1.228661
125.400000 -1.225236
125.450000 -1.238938
125.500000 -1.266346
125.550000 -1.293753
125.600000 -1.317734
125.650000 -1.345142
125.700000 -1.399955
125.750000 -1.468473
125.800000 -1.533566
125.850000 -1.591805
125.900000 -1.656898
125.950000 -1.711712
126.000000 -1.735693
126.050000 -1.752822
126.100000 -1.797359
126.150000 -1.817914
126.200000 -1.787082
126.250000 -1.759674
126.300000 -1.763100
126.350000 -1.763100
126.400000 -1.756248
126.450000 -1.787082
126.500000 -1.852173
126.550000 -1.900135
126.600000 -1.917265
126.650000 -1.965228
126.700000 -2.016616
126.750000 -2.047449
126.800000 -2.074857
126.850000 -2.098837
126.900000 -2.088560
126.950000 -2.050875
127.000000 -2.016616
127.050000 -1.982357
127.100000 -1.937821
127.150000 -1.879580
127.200000 -1.814489
127.250000 -1.735693
127.300000 -1.650046
127.350000 -1.571250
127.400000 -1.509584
127.450000 -1.451344
127.500000 -1.375975
127.550000 -1.310883
127.600000 -1.283476
127.650000 -1.273198
127.700000 -1.259494
127.750000 -1.259494
127.800000 -1.293753
127.850000 -1.338289
127.900000 -1.369123
127.950000 -1.403381
128.000000 -1.468474
128.050000 -1.513010
128.100000 -1.516436
128.150000 -1.526713
128.200000 -1.557547
128.250000 -1.574676
128.300000 -1.560973
128.350000 -1.550695
128.400000 -1.523288
128.450000 -1.478751
128.500000 -1.451344
128.550000 -1.444493
128.600000 -1.423937
128.650000 -1.410234
128.700000 -1.461621
128.750000 -1.519862
128.800000 -1.516436
128.850000 -1.502732
128.900000 -1.550695
128.950000 -1.626065
129.000000 -1.667175
129.050000 -1.674027
129.100000 -1.694582
129.150000 -1.698009
129.200000 -1.653471
129.250000 -1.588380
129.300000 -1.530140
129.350000 -1.471900
129.400000 -1.406807
129.450000 -1.362271
129.500000 -1.341716
129.550000 -1.348568
129.600000 -1.375975
129.650000 -1.430789
129.700000 -1.516436
129.750000 -1.615787
129.800000 -1.694583
129.850000 -1.759674
129.900000 -1.835044
129.950000 -1.934395
130.000000 -2.016616
130.050000 -2.064579
130.100000 -2.085134
130.150000 -2.054300
130.200000 -1.975506
130.250000 -1.893284
130.300000 -1.804211
130.350000 -1.718563
130.400000 -1.643194
130.450000 -1.595231
130.500000 -1.564399
130.550000 -1.564398
130.600000 -1.595231
130.650000 -1.629491
130.700000 -1.650045
130.750000 -1.684304
130.800000 -1.745971
130.850000 -1.787081
130.900000 -1.787082
130.950000 -1.763100
131.000000 -1.739119
131.050000 -1.684304
131.100000 -1.602084
131.150000 -1.526714
131.200000 -1.485603
131.250000 -1.471899
131.300000 -1.475325
131.350000 -1.471899
131.400000 -1.471899
131.450000 -1.506158
131.500000 -1.543843
131.550000 -1.543843
131.600000 -1.543843
131.650000 -1.591806
131.700000 -1.650046
131.750000 -1.677453
131.800000 -1.691156
131.850000 -1.698008
131.900000 -1.718563
131.950000 -1.756249
132.000000 -1.776804
132.050000 -1.759675
132.100000 -1.745971
132.150000 -1.704860
132.200000 -1.605509
132.250000 -1.523288
132.300000 -1.495880
132.350000 -1.468474
132.400000 -1.423937
132.450000 -1.399955
132.500000 -1.372548
132.550000 -1.324586
132.600000 -1.310883
132.650000 -1.321161
132.700000 -1.324587
132.750000 -1.338290
132.800000 -1.372549
132.850000 -1.396530
132.900000 -1.451344
132.950000 -1.571250
133.000000 -1.698008
133.050000 -1.824766
133.100000 -2.023468
133.150000 -2.256428
133.200000 -2.424297
133.250000 -2.530499
133.300000 -2.643554
133.350000 -2.712072
133.400000 -2.667535
133.450000 -2.554480
133.500000 -2.407167
133.550000 -2.222169
133.600000 -2.013191
133.650000 -1.817915
133.700000 -1.643194
133.750000 -1.499307
133.800000 -1.423936
133.850000 -1.369123
133.900000 -1.297179
133.950000 -1.262920
134.000000 -1.276624
134.050000 -1.297179
134.100000 -1.310882
134.150000 -1.331438
134.200000 -1.338290
134.250000 -1.351993
134.300000 -1.389679
134.350000 -1.427362
134.400000 -1.468473
134.450000 -1.554121
134.500000 -1.636342
134.550000 -1.687731
134.600000 -1.766526
134.650000 -1.841895
134.700000 -1.845322
134.750000 -1.821341
134.800000 -1.817914
134.850000 -1.766526
134.900000 -1.650045
134.950000 -1.554120
135.000000 -1.468474
135.050000 -1.389678
135.100000 -1.372549
135.150000 -1.393104
135.200000 -1.382826
135.250000 -1.386252
135.300000 -1.437641
135.350000 -1.465047
135.400000 -1.475325
135.450000 -1.506158
135.500000 -1.526714
135.550000 -1.519862
135.600000 -1.543843
135.650000 -1.578102
135.700000 -1.581528
135.750000 -1.591806
135.800000 -1.588380
135.850000 -1.547269
135.900000 -1.530139
135.950000 -1.547269
136.000000 -1.523288
136.050000 -1.461622
136.100000 -1.434215
136.150000 -1.420511
136.200000 -1.403381
136.250000 -1.423937
136.300000 -1.492455
136.350000 -1.578102
136.400000 -1.691156
136.450000 -1.814488
136.500000 -1.924117
136.550000 -2.047449
136.600000 -2.191336
136.650000 -2.300965
136.700000 -2.372909
136.750000 -2.414019
136.800000 -2.383186
136.850000 -2.276983
136.900000 -2.150225
136.950000 -1.985783
137.000000 -1.756249
137.050000 -1.533565
137.100000 -1.351993
137.150000 -1.160143
137.200000 -0.992275
137.250000 -0.934035
137.300000 -0.958015
137.350000 -1.002552
137.400000 -1.077922
137.450000 -1.218383
137.500000 -1.379401
137.550000 -1.547269
137.600000 -1.732267
137.650000 -1.879580
137.700000 -1.968654
137.750000 -2.047449
137.800000 -2.112541
137.850000 -2.133096
137.900000 -2.136522
137.950000 -2.150225
138.000000 -2.177633
138.050000 -2.218744
138.100000 -2.273557
138.150000 -2.331798
138.200000 -2.400316
138.250000 -2.461982
138.300000 -2.472259
138.350000 -2.417445
138.400000 -2.338650
138.450000 -2.215318
138.500000 -2.030320
138.550000 -1.821340
138.600000 -1.612360
138.650000 -1.413660
138.700000 -1.256068
138.750000 -1.160144
138.800000 -1.129311
138.850000 -1.166995
138.900000 -1.280049
138.950000 -1.441067
139.000000 -1.608935
139.050000 -1.776804
139.100000 -1.917266
139.150000 -2.009764
139.200000 -2.044023
139.250000 -1.999487
139.300000 -1.889858
139.350000 -1.745970
139.400000 -1.581528
139.450000 -1.379401
139.500000 -1.180699
139.550000 -1.053941
139.600000 -0.999127
139.650000 -0.981997
139.700000 -1.033386
139.750000 -1.163570
139.800000 -1.324586
139.850000 -1.485603
139.900000 -1.646620
139.950000 -1.793933
140.000000 -1.900136
140.050000 -1.934395
140.100000 -1.920691
140.150000 -1.889858
140.200000 -1.841895
140.250000 -1.763100
140.300000 -1.687731
140.350000 -1.656898
140.400000 -1.656897
140.450000 -1.677453
140.500000 -1.708286
140.550000 -1.752822
140.600000 -1.800785
140.650000 -1.862451
140.700000 -1.944672
140.750000 -2.013190
140.800000 -2.061152
140.850000 -2.098837
140.900000 -2.139948
140.950000 -2.174207
141.000000 -2.194763
141.050000 -2.205040
141.100000 -2.191336
141.150000 -2.160503
141.200000 -2.122819
141.250000 -2.068004
141.300000 -1.978931
141.350000 -1.872729
141.400000 -1.769952
141.450000 -1.656897
141.500000 -1.540418
141.550000 -1.420512
141.600000 -1.317735
141.650000 -1.242365
141.700000 -1.190976
141.750000 -1.143014
141.800000 -1.098478
141.850000 -1.064219
141.900000 -1.033386
141.950000 -0.999126
142.000000 -0.999127
142.050000 -1.033386
142.100000 -1.071070
142.150000 -1.129311
142.200000 -1.245790
142.250000 -1.393104
142.300000 -1.513010
142.350000 -1.619213
142.400000 -1.732267
142.450000 -1.811062
142.500000 -1.848748
142.550000 -1.859025
142.600000 -1.828192
142.650000 -1.732267
142.700000 -1.591805
142.750000 -1.441066
142.800000 -1.273198
142.850000 -1.088200
142.900000 -0.930608
142.950000 -0.824407
143.000000 -0.749037
143.050000 -0.694223
143.100000 -0.704500
143.150000 -0.793573
143.200000 -0.944312
143.250000 -1.115607
143.300000 -1.321160
143.350000 -1.543843
143.400000 -1.756249
143.450000 -1.961802
143.500000 -2.157078
143.550000 -2.318094
143.600000 -2.427722
143.650000 -2.465407
143.700000 -2.455130
143.750000 -2.417445
143.800000 -2.342076
143.850000 -2.177633
143.900000 -1.968654
143.950000 -1.787082
144.000000 -1.622638
144.050000 -1.444492
144.100000 -1.283476
144.150000 -1.194403
144.200000 -1.156718
144.250000 -1.149866
144.300000 -1.201254
144.350000 -1.310882
144.400000 -1.447918
144.450000 -1.581528
144.500000 -1.721990
144.550000 -1.852173
144.600000 -1.961802
144.650000 -2.064578
144.700000 -2.143374
144.750000 -2.174207
144.800000 -2.150225
144.850000 -2.081708
144.900000 -1.996060
144.950000 -1.927543
145.000000 -1.855599
145.050000 -1.773378
145.100000 -1.708286
145.150000 -1.663749
145.200000 -1.595232
145.250000 -1.540417
145.300000 -1.530139
145.350000 -1.530139
145.400000 -1.495880
145.450000 -1.468473
145.500000 -1.461622
145.550000 -1.465047
145.600000 -1.482177
145.650000 -1.502733
145.700000 -1.492454
145.750000 -1.492455
145.800000 -1.516436
145.850000 -1.523288
145.900000 -1.502733
145.950000 -1.513010
146.000000 -1.536991
146.050000 -1.554121
146.100000 -1.605509
146.150000 -1.691157
146.200000 -1.759675
146.250000 -1.838470
146.300000 -1.958376
146.350000 -2.064579
146.400000 -2.136522
146.450000 -2.222169
146.500000 -2.304391
146.550000 -2.335224
146.600000 -2.314668
146.650000 -2.242725
146.700000 -2.133097
146.750000 -2.020042
146.800000 -1.900136
146.850000 -1.745971
146.900000 -1.612361
146.950000 -1.523288
147.000000 -1.434215
147.050000 -1.375975
147.100000 -1.379401
147.150000 -1.403381
147.200000 -1.420511
147.250000 -1.468473
147.300000 -1.560973
147.350000 -1.646620
147.400000 -1.711712
147.450000 -1.773378
147.500000 -1.828192
147.550000 -1.831618
147.600000 -1.776804
147.650000 -1.701434
147.700000 -1.615786
147.750000 -1.502732
147.800000 -1.365697
147.850000 -1.228661
147.900000 -1.122458
147.950000 -1.091625
148.000000 -1.119032
148.050000 -1.139588
148.100000 -1.132736
148.150000 -1.163569
148.200000 -1.225235
148.250000 -1.256069
148.300000 -1.262920
148.350000 -1.276624
148.400000 -1.273198
148.450000 -1.252643
148.500000 -1.228661
148.550000 -1.201254
148.600000 -1.170421
148.650000 -1.136162
148.700000 -1.091626
148.750000 -1.043663
148.800000 -1.033386
148.850000 -1.064219
148.900000 -1.108756
148.950000 -1.146440
149.000000 -1.184125
149.050000 -1.218384
149.100000 -1.266347
149.150000 -1.314309
149.200000 -1.334865
149.250000 -1.365697
149.300000 -1.427363
149.350000 -1.482177
149.400000 -1.506158
149.450000 -1.554121
149.500000 -1.608935
149.550000 -1.629491
149.600000 -1.619213
149.650000 -1.612361
149.700000 -1.595232
149.750000 -1.540417
149.800000 -1.444493
149.850000 -1.345141
149.900000 -1.266346
149.950000 -1.166995
150.000000 -1.033386
150.050000 -0.923758
150.100000 -0.872369
150.150000 -0.851813
150.200000 -0.868943
150.250000 -0.947739
150.300000 -1.081348
150.350000 -1.235513
150.400000 -1.386252
150.450000 -1.526714
150.500000 -1.677453
150.550000 -1.807637
150.600000 -1.872728
150.650000 -1.862451
150.700000 -1.811062
150.750000 -1.701434
150.800000 -1.526714
150.850000 -1.334863
150.900000 -1.143014
150.950000 -0.961442
151.000000 -0.807277
151.050000 -0.701074
151.100000 -0.629131
151.150000 -0.632557
151.200000 -0.711352
151.250000 -0.824406
151.300000 -0.954590
151.350000 -1.112181
151.400000 -1.269772
151.450000 -1.399956
151.500000 -1.502732
151.550000 -1.588380
151.600000 -1.653471
151.650000 -1.708286
151.700000 -1.763101
151.750000 -1.804211
151.800000 -1.848747
151.850000 -1.889858
151.900000 -1.930968
151.950000 -1.975505
152.000000 -2.006338
152.050000 -1.992634
152.100000 -1.951524
152.150000 -1.910413
152.200000 -1.838470
152.250000 -1.677453
152.300000 -1.461622
152.350000 -1.252643
152.400000 -1.036812
152.450000 -0.817555
152.500000 -0.639409
152.550000 -0.533206
152.600000 -0.488669
152.650000 -0.522929
152.700000 -0.646260
152.750000 -0.820980
152.800000 -1.019682
152.850000 -1.273198
152.900000 -1.543843
152.950000 -1.776803
153.000000 -1.972079
153.050000 -2.143374
153.100000 -2.266706
153.150000 -2.328372
153.200000 -2.366056
153.250000 -2.359205
153.300000 -2.300965
153.350000 -2.218743
153.400000 -2.150226
153.450000 -2.095412
153.500000 -2.061152
153.550000 -2.030320
153.600000 -1.985783
153.650000 -1.968654
153.700000 -1.975506
153.750000 -1.972080
153.800000 -1.972080
153.850000 -1.996061
153.900000 -2.009764
153.950000 -2.026894
154.000000 -2.064578
154.050000 -2.098837
154.100000 -2.119393
154.150000 -2.167355
154.200000 -2.229021
154.250000 -2.266706
154.300000 -2.304391
154.350000 -2.345501
154.400000 -2.362631
154.450000 -2.359205
154.500000 -2.338650
154.550000 -2.270131
154.600000 -2.146800
154.650000 -2.040597
154.700000 -1.951524
154.750000 -1.841896
154.800000 -1.725416
154.850000 -1.632916
154.900000 -1.567824
154.950000 -1.519862
155.000000 -1.502733
155.050000 -1.502733
155.100000 -1.502733
155.150000 -1.519862
155.200000 -1.557547
155.250000 -1.581528
155.300000 -1.588379
155.350000 -1.598658
155.400000 -1.615787
155.450000 -1.629490
155.500000 -1.650046
155.550000 -1.677453
155.600000 -1.721989
155.650000 -1.776804
155.700000 -1.821340
155.750000 -1.879580
155.800000 -1.934395
155.850000 -1.927542
155.900000 -1.869302
155.950000 -1.804211
156.000000 -1.715138
156.050000 -1.584953
156.100000 -1.437640
156.150000 -1.276623
156.200000 -1.132737
156.250000 -1.043663
156.300000 -1.033386
156.350000 -1.101903
156.400000 -1.249217
156.450000 -1.447918
156.500000 -1.653471
156.550000 -1.862451
156.600000 -2.071430
156.650000 -2.242725
156.700000 -2.359205
156.750000 -2.434574
156.800000 -2.465407
156.850000 -2.396889
156.900000 -2.253002
156.950000 -2.109115
157.000000 -1.992635
157.050000 -1.879580
157.100000 -1.752823
157.150000 -1.653472
157.200000 -1.588380
157.250000 -1.540418
157.300000 -1.506158
157.350000 -1.485603
157.400000 -1.444492
157.450000 -1.369123
157.500000 -1.310882
157.550000 -1.280050
157.600000 -1.221810
157.650000 -1.160144
157.700000 -1.170421
157.750000 -1.259494
157.800000 -1.345141
157.850000 -1.441066
157.900000 -1.598658
157.950000 -1.783656
158.000000 -1.941246
158.050000 -2.071430
158.100000 -2.174207
158.150000 -2.201614
158.200000 -2.157077
158.250000 -2.064579
158.300000 -1.930969
158.350000 -1.759674
158.400000 -1.584954
158.450000 -1.447918
158.500000 -1.345142
158.550000 -1.304031
158.600000 -1.348568
158.650000 -1.454770
158.700000 -1.602083
158.750000 -1.787081
158.800000 -1.992635
158.850000 -2.167355
158.900000 -2.294113
158.950000 -2.352353
159.000000 -2.338649
159.050000 -2.256428
159.100000 -2.122818
159.150000 -1.954950
159.200000 -1.769952
159.250000 -1.564398
159.300000 -1.369123
159.350000 -1.262921
159.400000 -1.245792
159.450000 -1.273198
159.500000 -1.382826
159.550000 -1.608935
159.600000 -1.859025
159.650000 -2.061153
159.700000 -2.266706
159.750000 -2.475685
159.800000 -2.592166
159.850000 -2.605870
159.900000 -2.554480
159.950000 -2.420871
160.000000 -2.208465
160.050000 -1.972079
160.100000 -1.749397
160.150000 -1.536992
160.200000 -1.351993
160.250000 -1.228661
160.300000 -1.187550
160.350000 -1.214957
160.400000 -1.310883
160.450000 -1.437640
160.500000 -1.588379
160.550000 -1.749397
160.600000 -1.879580
160.650000 -1.941247
160.700000 -1.961802
160.750000 -1.961802
160.800000 -1.906988
160.850000 -1.814488
160.900000 -1.735693
160.950000 -1.691156
161.000000 -1.646620
161.050000 -1.605509
161.100000 -1.612361
161.150000 -1.663749
161.200000 -1.708286
161.250000 -1.728841
161.300000 -1.759675
161.350000 -1.807637
161.400000 -1.824766
161.450000 -1.807636
161.500000 -1.759674
161.550000 -1.708286
161.600000 -1.663749
161.650000 -1.632917
161.700000 -1.619212
161.750000 -1.660323
161.800000 -1.769952
161.850000 -1.927542
161.900000 -2.105689
161.950000 -2.280410
162.000000 -2.431149
162.050000 -2.547629
162.100000 -2.643554
162.150000 -2.691516
162.200000 -2.650405
162.250000 -2.533925
162.300000 -2.396890
162.350000 -2.256429
162.400000 -2.102263
162.450000 -1.951524
162.500000 -1.845321
162.550000 -1.773377
162.600000 -1.735693
162.650000 -1.749397
162.700000 -1.800785
162.750000 -1.859025
162.800000 -1.927543
162.850000 -2.013191
162.900000 -2.074856
162.950000 -2.105689
163.000000 -2.112541
163.050000 -2.074856
163.100000 -2.013190
163.150000 -1.975505
163.200000 -1.948098
163.250000 -1.872729
163.300000 -1.783656
163.350000 -1.752822
163.400000 -1.742545
163.450000 -1.704860
163.500000 -1.677453
163.550000 -1.691156
163.600000 -1.711712
163.650000 -1.708286
163.700000 -1.691157
163.750000 -1.680878
163.800000 -1.667175
163.850000 -1.643194
163.900000 -1.608936
163.950000 -1.564399
164.000000 -1.495881
164.050000 -1.393104
164.100000 -1.262920
164.150000 -1.125885
164.200000 -0.975146
164.250000 -0.831259
164.300000 -0.701074
164.350000 -0.612001
164.400000 -0.564039
164.450000 -0.543484
164.500000 -0.564039
164.550000 -0.635982
164.600000 -0.749037
164.650000 -0.875795
164.700000 -1.002553
164.750000 -1.129311
164.800000 -1.242365
164.850000 -1.348568
164.900000 -1.447918
164.950000 -1.526714
165.000000 -1.588379
165.050000 -1.632916
165.100000 -1.660323
165.150000 -1.670601
165.200000 -1.667176
165.250000 -1.650046
165.300000 -1.639768
165.350000 -1.632916
165.400000 -1.622639
165.450000 -1.608935
165.500000 -1.619213
165.550000 -1.653471
165.600000 -1.663750
165.650000 -1.670601
165.700000 -1.704860
165.750000 -1.769952
165.800000 -1.821340
165.850000 -1.845322
165.900000 -1.852174
165.950000 -1.869303
166.000000 -1.889858
166.050000 -1.910414
166.100000 -1.906987
166.150000 -1.869303
166.200000 -1.811063
166.250000 -1.756249
166.300000 -1.704860
166.350000 -1.632916
166.400000 -1.571250
166.450000 -1.547269
166.500000 -1.543843
166.550000 -1.540418
166.600000 -1.536992
166.650000 -1.550695
166.700000 -1.605509
166.750000 -1.667175
166.800000 -1.708286
166.850000 -1.749396
166.900000 -1.804211
166.950000 -1.831618
167.000000 -1.807637
167.050000 -1.763100
167.100000 -1.725415
167.150000 -1.701434
167.200000 -1.687731
167.250000 -1.667175
167.300000 -1.632916
167.350000 -1.619213
167.400000 -1.622639
167.450000 -1.650045
167.500000 -1.708286
167.550000 -1.783656
167.600000 -1.838470
167.650000 -1.886432
167.700000 -1.930969
167.750000 -1.944672
167.800000 -1.941246
167.850000 -1.948098
167.900000 -1.924117
167.950000 -1.855599
168.000000 -1.811062
168.050000 -1.824766
168.100000 -1.821341
168.150000 -1.783655
168.200000 -1.763100
168.250000 -1.745971
168.300000 -1.704860
168.350000 -1.667175
168.400000 -1.639768
168.450000 -1.595231
168.500000 -1.513010
168.550000 -1.417085
168.600000 -1.293753
168.650000 -1.146439
168.700000 -0.988849
168.750000 -0.872369
168.800000 -0.776444
168.850000 -0.687371
168.900000 -0.656538
168.950000 -0.707927
169.000000 -0.807277
169.050000 -0.954590
169.100000 -1.163569
169.150000 -1.396530
169.200000 -1.626064
169.250000 -1.845321
169.300000 -2.030320
169.350000 -2.146800
169.400000 -2.194762
169.450000 -2.174207
169.500000 -2.085134
169.550000 -1.961802
169.600000 -1.831617
169.650000 -1.663749
169.700000 -1.485603
169.750000 -1.358846
169.800000 -1.283476
169.850000 -1.218384
169.900000 -1.170421
169.950000 -1.184125
170.000000 -1.238939
170.050000 -1.293753
170.100000 -1.348567
170.150000 -1.420511
170.200000 -1.471899
170.250000 -1.502732
170.300000 -1.550695
170.350000 -1.605509
170.400000 -1.632916
170.450000 -1.656897
170.500000 -1.732267
170.550000 -1.831618
170.600000 -1.920691
170.650000 -2.026893
170.700000 -2.139948
170.750000 -2.201614
170.800000 -2.208466
170.850000 -2.201614
170.900000 -2.184485
170.950000 -2.153651
171.000000 -2.095412
171.050000 -2.009764
171.100000 -1.910414
171.150000 -1.804211
171.200000 -1.691157
171.250000 -1.598658
171.300000 -1.543843
171.350000 -1.523288
171.400000 -1.516436
171.450000 -1.533565
171.500000 -1.608936
171.550000 -1.701434
171.600000 -1.793933
171.650000 -1.903561
171.700000 -2.013190
171.750000 -2.091986
171.800000 -2.153652
171.850000 -2.229021
171.900000 -2.273557
171.950000 -2.253003
172.000000 -2.177633
172.050000 -2.071430
172.100000 -1.951524
172.150000 -1.831618
172.200000 -1.728842
172.250000 -1.650046
172.300000 -1.608935
172.350000 -1.602084
172.400000 -1.622639
172.450000 -1.677453
172.500000 -1.745970
172.550000 -1.790508
172.600000 -1.824766
172.650000 -1.883007
172.700000 -1.906988
172.750000 -1.835044
172.800000 -1.694582
172.850000 -1.560973
172.900000 -1.434215
172.950000 -1.300605
173.000000 -1.190977
173.050000 -1.129311
173.100000 -1.119033
173.150000 -1.173847
173.200000 -1.286901
173.250000 -1.430789
173.300000 -1.591805
173.350000 -1.783656
173.400000 -1.978931
173.450000 -2.133096
173.500000 -2.242725
173.550000 -2.321520
173.600000 -2.379761
173.650000 -2.396890
173.700000 -2.359205
173.750000 -2.270132
173.800000 -2.157077
173.850000 -2.040597
173.900000 -1.917265
173.950000 -1.804211
174.000000 -1.718564
174.050000 -1.674027
174.100000 -1.663750
174.150000 -1.670601
174.200000 -1.674027
174.250000 -1.677453
174.300000 -1.708286
174.350000 -1.749396
174.400000 -1.756248
174.450000 -1.739119
174.500000 -1.721989
174.550000 -1.704860
174.600000 -1.680878
174.650000 -1.667175
174.700000 -1.632916
174.750000 -1.581528
174.800000 -1.567824
174.850000 -1.588379
174.900000 -1.584953
174.950000 -1.574677
175.000000 -1.557547
175.050000 -1.523288
175.100000 -1.468474
175.150000 -1.406808
175.200000 -1.338290
175.250000 -1.269772
175.300000 -1.208106
175.350000 -1.143014
175.400000 -1.112181
175.450000 -1.153292
175.500000 -1.211532
175.550000 -1.245790
175.600000 -1.280049
175.650000 -1.345142
175.700000 -1.420511
175.750000 -1.499306
175.800000 -1.567824
175.850000 -1.646620
175.900000 -1.749397
175.950000 -1.817914
176.000000 -1.824766
176.050000 -1.835044
176.100000 -1.848748
176.150000 -1.824766
176.200000 -1.759675
176.250000 -1.721989
176.300000 -1.694583
176.350000 -1.667176
176.400000 -1.677452
176.450000 -1.704860
176.500000 -1.698009
176.550000 -1.687730
176.600000 -1.715138
176.650000 -1.739119
176.700000 -1.718563
176.750000 -1.698009
176.800000 -1.680879
176.850000 -1.636343
176.900000 -1.574676
176.950000 -1.536992
177.000000 -1.499307
177.050000 -1.447919
177.100000 -1.427363
177.150000 -1.447918
177.200000 -1.471900
177.250000 -1.485603
177.300000 -1.523288
177.350000 -1.550695
177.400000 -1.530139
177.450000 -1.468474
177.500000 -1.406808
177.550000 -1.321160
177.600000 -1.221810
177.650000 -1.160144
177.700000 -1.115607
177.750000 -1.053941
177.800000 -0.995701
177.850000 -0.995701
177.900000 -1.047090
177.950000 -1.132736
178.000000 -1.238939
178.050000 -1.369123
178.100000 -1.499306
178.150000 -1.598658
178.200000 -1.677453
178.250000 -1.721990
178.300000 -1.739118
178.350000 -1.773378
178.400000 -1.804211
178.450000 -1.787082
178.500000 -1.769952
178.550000 -1.804211
178.600000 -1.814489
178.650000 -1.783655
178.700000 -1.793933
178.750000 -1.831618
178.800000 -1.807637
178.850000 -1.776804
178.900000 -1.783655
178.950000 -1.759674
179.000000 -1.670601
179.050000 -1.588380
179.100000 -1.519861
179.150000 -1.465048
179.200000 -1.427363
179.250000 -1.382826
179.300000 -1.355419
179.350000 -1.382826
179.400000 -1.437640
179.450000 -1.489029
179.500000 -1.560973
179.550000 -1.626065
179.600000 -1.629490
179.650000 -1.598657
179.700000 -1.595231
179.750000 -1.564398
179.800000 -1.465048
179.850000 -1.382827
179.900000 -1.351993
179.950000 -1.310882
180.000000 -1.286902
180.050000 -1.334863
180.100000 -1.437641
180.150000 -1.540417
180.200000 -1.650046
180.250000 -1.769952
180.300000 -1.865877
180.350000 -1.937820
180.400000 -1.972080
180.450000 -1.937820
180.500000 -1.862451
180.550000 -1.797359
180.600000 -1.721989
180.650000 -1.602084
180.700000 -1.478752
180.750000 -1.410233
180.800000 -1.406808
180.850000 -1.420511
180.900000 -1.454770
180.950000 -1.502732
181.000000 -1.554120
181.050000 -1.578102
181.100000 -1.581528
181.150000 -1.578102
181.200000 -1.557547
181.250000 -1.513010
181.300000 -1.447918
181.350000 -1.389678
181.400000 -1.338290
181.450000 -1.297179
181.500000 -1.276624
181.550000 -1.297179
181.600000 -1.345142
181.650000 -1.413660
181.700000 -1.492454
181.750000 -1.567824
181.800000 -1.629490
181.850000 -1.684305
181.900000 -1.718563
181.950000 -1.739118
182.000000 -1.763100
182.050000 -1.790508
182.100000 -1.838470
182.150000 -1.900136
182.200000 -1.944672
182.250000 -1.982357
182.300000 -2.054300
182.350000 -2.115967
182.400000 -2.115967
182.450000 -2.109115
182.500000 -2.109115
182.550000 -2.061153
182.600000 -1.958376
182.650000 -1.859025
182.700000 -1.752822
182.750000 -1.626064
182.800000 -1.502732
182.850000 -1.393104
182.900000 -1.300605
182.950000 -1.245791
183.000000 -1.211532
183.050000 -1.170421
183.100000 -1.139588
183.150000 -1.129311
183.200000 -1.108755
183.250000 -1.081348
183.300000 -1.060793
183.350000 -1.043664
183.400000 -1.036812
183.450000 -1.064219
183.500000 -1.115607
183.550000 -1.160144
183.600000 -1.235513
183.650000 -1.365697
183.700000 -1.492455
183.750000 -1.591806
183.800000 -1.708286
183.850000 -1.814488
183.900000 -1.852173
183.950000 -1.876154
184.000000 -1.903562
184.050000 -1.872728
184.100000 -1.793933
184.150000 -1.728841
184.200000 -1.639768
184.250000 -1.519862
184.300000 -1.434215
184.350000 -1.372548
184.400000 -1.307457
184.450000 -1.286902
184.500000 -1.307456
184.550000 -1.314308
184.600000 -1.331438
184.650000 -1.413659
184.700000 -1.506158
184.750000 -1.574676
184.800000 -1.643194
184.850000 -1.711711
184.900000 -1.759674
184.950000 -1.817914
185.000000 -1.862451
185.050000 -1.841896
185.100000 -1.804211
185.150000 -1.814489
185.200000 -1.845321
185.250000 -1.883006
185.300000 -1.948098
185.350000 -2.061152
185.400000 -2.170781
185.450000 -2.246151
185.500000 -2.290687
185.550000 -2.321520
185.600000 -2.304391
185.650000 -2.201614
185.700000 -2.047449
185.750000 -1.879580
185.800000 -1.663749
185.850000 -1.379400
185.900000 -1.088200
185.950000 -0.848387
186.000000 -0.646260
186.050000 -0.464688
186.100000 -0.348207
186.150000 -0.331078
186.200000 -0.379041
186.250000 -0.450985
186.300000 -0.557187
186.350000 -0.721630
186.400000 -0.910054
186.450000 -1.084774
186.500000 -1.252643
186.550000 -1.406808
186.600000 -1.516436
186.650000 -1.598657
186.700000 -1.677453
186.750000 -1.735693
186.800000 -1.735693
186.850000 -1.698008
186.900000 -1.653472
186.950000 -1.608935
187.000000 -1.547269
187.050000 -1.461622
187.100000 -1.406808
187.150000 -1.382826
187.200000 -1.369123
187.250000 -1.386253
187.300000 -1.454770
187.350000 -1.519862
187.400000 -1.560972
187.450000 -1.615786
187.500000 -1.674027
187.550000 -1.694583
187.600000 -1.687731
187.650000 -1.663749
187.700000 -1.629490
187.750000 -1.605509
187.800000 -1.608935
187.850000 -1.615786
187.900000 -1.632916
187.950000 -1.680879
188.000000 -1.749397
188.050000 -1.807637
188.100000 -1.848747
188.150000 -1.900135
188.200000 -1.944672
188.250000 -1.958376
188.300000 -1.954949
188.350000 -1.941247
188.400000 -1.896710
188.450000 -1.821340
188.500000 -1.780229
188.550000 -1.787081
188.600000 -1.793933
188.650000 -1.800785
188.700000 -1.841895
188.750000 -1.893284
188.800000 -1.906988
188.850000 -1.924117
