time[ns] Raw_signal[mV]
-11.100000 0.259134
-11.050000 0.228301
-11.000000 0.166635
-10.950000 0.067285
-10.900000 -0.018363
-10.850000 -0.093733
-10.800000 -0.193083
-10.750000 -0.278730
-10.700000 -0.289008
-10.650000 -0.285582
-10.600000 -0.295860
-10.550000 -0.254749
-10.500000 -0.162250
-10.450000 -0.090306
-10.400000 -0.014937
-10.350000 0.101544
-10.300000 0.194043
-10.250000 0.228302
-10.200000 0.269412
-10.150000 0.327652
-10.100000 0.334504
-10.050000 0.303671
-10.000000 0.269412
-9.950000 0.218024
-9.900000 0.166636
-9.850000 0.128951
-9.800000 0.053582
-9.750000 -0.011511
-9.700000 -0.008085
-9.650000 0.022748
-9.600000 0.012471
-9.550000 -0.001233
-9.500000 0.036452
-9.450000 0.063859
-9.400000 0.070711
-9.350000 0.067285
-9.300000 0.053582
-9.250000 0.026174
-9.200000 -0.001233
-9.150000 -0.035492
-9.100000 -0.080029
-9.050000 -0.121140
-9.000000 -0.158824
-8.950000 -0.186231
-8.900000 -0.196509
-8.850000 -0.196509
-8.800000 -0.206787
-8.750000 -0.203360
-8.700000 -0.165676
-8.650000 -0.121139
-8.600000 -0.083455
-8.550000 -0.028640
-8.500000 0.019322
-8.450000 0.050156
-8.400000 0.101543
-8.350000 0.180339
-8.300000 0.238579
-8.250000 0.272838
-8.200000 0.320801
-8.150000 0.392744
-8.100000 0.454411
-8.050000 0.492095
-8.000000 0.505799
-7.950000 0.509225
-7.900000 0.509224
-7.850000 0.495521
-7.800000 0.454410
-7.750000 0.375615
-7.700000 0.300246
-7.650000 0.214598
-7.600000 0.087840
-7.550000 -0.052622
-7.500000 -0.165676
-7.450000 -0.265027
-7.400000 -0.367803
-7.350000 -0.429470
-7.300000 -0.456877
-7.250000 -0.497987
-7.200000 -0.535672
-7.150000 -0.508265
-7.100000 -0.443172
-7.050000 -0.402062
-7.000000 -0.398637
-6.950000 -0.374656
-6.900000 -0.319841
-6.850000 -0.282156
-6.800000 -0.282156
-6.750000 -0.268453
-6.700000 -0.230767
-6.650000 -0.189657
-6.600000 -0.155398
-6.550000 -0.097158
-6.500000 -0.028640
-6.450000 0.026174
-6.400000 0.077563
-6.350000 0.152932
-6.300000 0.231728
-6.250000 0.276264
-6.200000 0.286542
-6.150000 0.293393
-6.100000 0.283116
-6.050000 0.231727
-6.000000 0.163209
-5.950000 0.104969
-5.900000 0.080988
-5.850000 0.067284
-5.800000 0.067285
-5.750000 0.074136
-5.700000 0.091266
-5.650000 0.128951
-5.600000 0.180339
-5.550000 0.214598
-5.500000 0.214598
-5.450000 0.204321
-5.400000 0.176913
-5.350000 0.122099
-5.300000 0.057007
-5.250000 -0.008085
-5.200000 -0.083454
-5.150000 -0.148547
-5.100000 -0.175953
-5.050000 -0.165675
-5.000000 -0.127991
-4.950000 -0.080028
-4.900000 -0.001233
-4.850000 0.115247
-4.800000 0.235154
-4.750000 0.313949
-4.700000 0.355060
-4.650000 0.365337
-4.600000 0.313948
-4.550000 0.214598
-4.500000 0.104970
-4.450000 -0.011511
-4.400000 -0.162250
-4.350000 -0.306138
-4.300000 -0.419191
-4.250000 -0.528820
-4.200000 -0.611042
-4.150000 -0.635023
-4.100000 -0.631596
-4.050000 -0.635023
-4.000000 -0.611042
-3.950000 -0.549375
-3.900000 -0.491136
-3.850000 -0.446599
-3.800000 -0.398637
-3.750000 -0.360951
-3.700000 -0.343822
-3.650000 -0.336970
-3.600000 -0.336970
-3.550000 -0.323266
-3.500000 -0.316415
-3.450000 -0.343822
-3.400000 -0.378081
-3.350000 -0.367804
-3.300000 -0.330118
-3.250000 -0.360952
-3.200000 -0.474005
-3.150000 -0.511691
-3.100000 -0.443173
-3.050000 -0.477432
-3.000000 -0.641875
-2.950000 -0.672708
-2.900000 -0.576783
-2.850000 -0.611042
-2.800000 -0.717244
-2.750000 -0.703541
-2.700000 -0.662430
-2.650000 -0.641874
-2.600000 -0.470580
-2.550000 -0.265027
-2.500000 -0.241045
-2.450000 -0.189657
-2.400000 0.015896
-2.350000 0.074136
-2.300000 0.005618
-2.250000 0.125525
-2.200000 0.269412
-2.150000 0.187191
-2.100000 0.183765
-2.050000 0.420152
-2.000000 0.512651
-1.950000 0.365337
-1.900000 0.341356
-1.850000 0.485243
-1.800000 0.635983
-1.750000 0.779870
-1.700000 0.838109
-1.650000 0.711352
-1.600000 0.618853
-1.550000 0.642834
-1.500000 0.529779
-1.450000 0.324226
-1.400000 0.324226
-1.350000 0.423577
-1.300000 0.365338
-1.250000 0.303671
-1.200000 0.327653
-1.150000 0.296819
-1.100000 0.351634
-1.050000 0.598297
-1.000000 0.653112
-0.950000 0.437281
-0.900000 0.427003
-0.850000 0.612001
-0.800000 0.570891
-0.750000 0.430429
-0.700000 0.471540
-0.650000 0.423578
-0.600000 0.159784
-0.550000 0.009045
-0.500000 0.012471
-0.450000 -0.104010
-0.400000 -0.247898
-0.350000 -0.210212
-0.300000 -0.114288
-0.250000 -0.083454
-0.200000 -0.056048
-0.150000 0.019323
-0.100000 0.101543
-0.050000 0.176913
0.000000 0.248857
0.050000 0.320800
0.100000 0.396170
0.150000 0.399596
0.200000 0.337930
0.250000 0.358485
0.300000 0.468114
0.350000 0.427003
0.400000 0.265987
0.450000 0.272838
0.500000 0.430429
0.550000 0.461262
0.600000 0.375615
0.650000 0.361912
0.700000 0.375615
0.750000 0.303671
0.800000 0.259134
0.850000 0.341356
0.900000 0.485243
0.950000 0.725055
1.000000 1.166996
1.050000 1.811063
1.100000 2.640129
1.150000 3.760395
1.200000 5.219823
1.250000 6.960176
1.300000 8.971175
1.350000 11.314482
1.400000 13.894179
1.450000 16.535542
1.500000 19.197460
1.550000 21.934737
1.600000 24.706281
1.650000 27.351071
1.700000 29.817719
1.750000 32.181581
1.800000 34.425539
1.850000 36.419409
1.900000 38.163182
1.950000 39.780202
2.000000 41.249902
2.050000 42.469522
2.100000 43.408212
2.150000 44.079692
2.200000 44.466822
2.250000 44.569592
2.300000 44.346922
2.350000 43.719982
2.400000 42.723042
2.450000 41.476022
2.500000 39.985762
2.550000 38.221422
2.600000 36.251542
2.650000 34.137762
2.700000 31.890372
2.750000 29.584752
2.800000 27.320242
2.850000 25.076292
2.900000 22.842602
2.950000 20.756230
3.000000 18.909680
3.050000 17.230994
3.100000 15.727028
3.150000 14.500555
3.200000 13.548163
3.250000 12.856133
3.300000 12.472437
3.350000 12.373081
3.400000 12.445024
3.450000 12.712249
3.500000 13.219273
3.550000 13.877048
3.600000 14.551947
3.650000 15.240548
3.700000 15.949711
3.750000 16.621188
3.800000 17.224141
3.850000 17.751733
3.900000 18.162833
3.950000 18.388946
4.000000 18.471165
4.050000 18.447189
4.100000 18.275895
4.150000 17.929880
4.200000 17.436548
4.250000 16.854150
4.300000 16.182676
4.350000 15.394721
4.400000 14.483430
4.450000 13.503626
4.500000 12.534099
4.550000 11.544016
4.600000 10.492269
4.650000 9.478205
4.700000 8.577196
4.750000 7.734427
4.800000 6.936195
4.850000 6.281849
4.900000 5.802224
4.950000 5.442507
5.000000 5.192416
5.050000 5.082788
5.100000 5.106769
5.150000 5.233527
5.200000 5.432228
5.250000 5.696023
5.300000 6.004353
5.350000 6.329811
5.400000 6.631290
5.450000 6.919065
5.500000 7.179433
5.550000 7.391838
5.600000 7.569984
5.650000 7.727575
5.700000 7.857759
5.750000 7.939980
5.800000 7.953684
5.850000 7.919425
5.900000 7.844055
5.950000 7.720723
6.000000 7.546002
6.050000 7.333597
6.100000 7.104063
6.150000 6.816288
6.200000 6.456569
6.250000 6.055740
6.300000 5.637782
6.350000 5.188991
6.400000 4.719643
6.450000 4.253723
6.500000 3.804931
6.550000 3.383546
6.600000 3.020402
6.650000 2.708645
6.700000 2.458556
6.750000 2.273558
6.800000 2.174207
6.850000 2.170781
6.900000 2.229021
6.950000 2.304391
7.000000 2.400316
7.050000 2.530500
7.100000 2.688090
7.150000 2.818274
7.200000 2.903921
7.250000 2.969014
7.300000 3.044384
7.350000 3.116327
7.400000 3.154012
7.450000 3.160863
7.500000 3.188271
7.550000 3.243085
7.600000 3.287621
7.650000 3.315029
7.700000 3.362991
7.750000 3.407528
7.800000 3.400675
7.850000 3.359565
7.900000 3.335584
7.950000 3.284196
8.000000 3.167715
8.050000 3.040958
8.100000 2.903922
8.150000 2.701794
8.200000 2.451704
8.250000 2.222169
8.300000 2.002913
8.350000 1.763101
8.400000 1.560973
8.450000 1.389679
8.500000 1.197829
8.550000 1.029959
8.600000 0.940887
8.650000 0.886073
8.700000 0.841536
8.750000 0.827832
8.800000 0.817555
8.850000 0.773019
8.900000 0.725056
8.950000 0.656538
9.000000 0.546909
9.050000 0.440707
9.100000 0.372189
9.150000 0.310523
9.200000 0.259134
9.250000 0.265986
9.300000 0.320801
9.350000 0.392744
9.400000 0.478392
9.450000 0.584594
9.500000 0.714778
9.550000 0.858666
9.600000 0.947739
9.650000 0.975146
9.700000 0.981998
9.750000 0.975145
9.800000 0.892924
9.850000 0.776444
9.900000 0.690796
9.950000 0.612001
10.000000 0.505799
10.050000 0.427003
10.100000 0.409873
10.150000 0.403022
10.200000 0.375615
10.250000 0.361911
10.300000 0.361911
10.350000 0.327652
10.400000 0.255709
10.450000 0.190617
10.500000 0.122099
10.550000 0.022749
10.600000 -0.083454
10.650000 -0.151972
10.700000 -0.189658
10.750000 -0.230768
10.800000 -0.241045
10.850000 -0.203360
10.900000 -0.145121
10.950000 -0.110861
11.000000 -0.076602
11.050000 -0.018363
11.100000 0.022748
11.150000 0.015896
11.200000 0.012471
11.250000 0.026174
11.300000 0.029600
11.350000 0.009045
11.400000 0.002193
11.450000 0.026174
11.500000 0.060433
11.550000 0.087840
11.600000 0.115247
11.650000 0.152932
11.700000 0.197468
11.750000 0.231728
11.800000 0.245431
11.850000 0.259134
11.900000 0.265986
11.950000 0.238580
12.000000 0.173488
12.050000 0.132377
12.100000 0.098117
12.150000 0.019322
12.200000 -0.073177
12.250000 -0.114288
12.300000 -0.131417
12.350000 -0.175954
12.400000 -0.223916
12.450000 -0.241046
12.500000 -0.265027
12.550000 -0.285582
12.600000 -0.278730
12.650000 -0.275305
12.700000 -0.282156
12.750000 -0.271878
12.800000 -0.241046
12.850000 -0.234193
12.900000 -0.244471
12.950000 -0.258175
13.000000 -0.265027
13.050000 -0.258175
13.100000 -0.251323
13.150000 -0.258175
13.200000 -0.261601
13.250000 -0.247897
13.300000 -0.254749
13.350000 -0.271878
13.400000 -0.271879
13.450000 -0.268453
13.500000 -0.292433
13.550000 -0.292434
13.600000 -0.292434
13.650000 -0.330118
13.700000 -0.357525
13.750000 -0.347248
13.800000 -0.350674
13.850000 -0.374655
13.900000 -0.364377
13.950000 -0.350674
14.000000 -0.367804
14.050000 -0.384933
14.100000 -0.395210
14.150000 -0.436322
14.200000 -0.477432
14.250000 -0.463728
14.300000 -0.460302
14.350000 -0.515116
14.400000 -0.580209
14.450000 -0.593912
14.500000 -0.614467
14.550000 -0.676134
14.600000 -0.741226
14.650000 -0.789188
14.700000 -0.837150
14.750000 -0.888538
14.800000 -0.933075
14.850000 -0.981038
14.900000 -1.032426
14.950000 -1.070111
15.000000 -1.070111
15.050000 -1.029000
15.100000 -0.970760
15.150000 -0.909094
15.200000 -0.823446
15.250000 -0.710393
15.300000 -0.600764
15.350000 -0.508265
15.400000 -0.429469
15.450000 -0.350674
15.500000 -0.275304
15.550000 -0.213638
15.600000 -0.186231
15.650000 -0.199935
15.700000 -0.220490
15.750000 -0.271878
15.800000 -0.388359
15.850000 -0.539098
15.900000 -0.672708
15.950000 -0.816595
16.000000 -0.998167
16.050000 -1.148907
16.100000 -1.237979
16.150000 -1.299645
16.200000 -1.357886
16.250000 -1.344183
16.300000 -1.255109
16.350000 -1.148906
16.400000 -1.046130
16.450000 -0.922797
16.500000 -0.789187
16.550000 -0.696688
16.600000 -0.686411
16.650000 -0.727522
16.700000 -0.778910
16.750000 -0.840577
16.800000 -0.926223
16.850000 -1.005018
16.900000 -1.046130
16.950000 -1.056408
17.000000 -1.029000
17.050000 -0.960482
17.100000 -0.847428
17.150000 -0.713818
17.200000 -0.583634
17.250000 -0.480858
17.300000 -0.402062
17.350000 -0.350674
17.400000 -0.357525
17.450000 -0.395210
17.500000 -0.443173
17.550000 -0.511690
17.600000 -0.617893
17.650000 -0.703540
17.700000 -0.754929
17.750000 -0.789188
17.800000 -0.820020
17.850000 -0.823446
17.900000 -0.796040
17.950000 -0.789188
18.000000 -0.820021
18.050000 -0.874835
18.100000 -0.919372
18.150000 -0.984464
18.200000 -1.087240
18.250000 -1.169462
18.300000 -1.200294
18.350000 -1.210572
18.400000 -1.224276
18.450000 -1.210573
18.500000 -1.148906
18.550000 -1.070111
18.600000 -0.987890
18.650000 -0.885113
18.700000 -0.806317
18.750000 -0.775485
18.800000 -0.775484
18.850000 -0.778910
18.900000 -0.820021
18.950000 -0.888539
19.000000 -0.933075
19.050000 -0.967334
19.100000 -1.011871
19.150000 -1.022148
19.200000 -0.977612
19.250000 -0.905668
19.300000 -0.796039
19.350000 -0.655578
19.400000 -0.549375
19.450000 -0.480857
19.500000 -0.405488
19.550000 -0.371229
19.600000 -0.443173
19.650000 -0.566505
19.700000 -0.713818
19.750000 -0.922797
19.800000 -1.176313
19.850000 -1.388719
19.900000 -1.553162
19.950000 -1.679919
20.000000 -1.745011
20.050000 -1.748437
20.100000 -1.686771
20.150000 -1.573716
20.200000 -1.446959
20.250000 -1.320201
20.300000 -1.166035
20.350000 -1.015297
20.400000 -0.929650
20.450000 -0.902242
20.500000 -0.895391
20.550000 -0.933075
20.600000 -1.001593
20.650000 -1.046130
20.700000 -1.066685
20.750000 -1.104370
20.800000 -1.131777
20.850000 -1.121499
20.900000 -1.070111
20.950000 -0.984463
21.000000 -0.885113
21.050000 -0.785762
21.100000 -0.665856
21.150000 -0.549375
21.200000 -0.480857
21.250000 -0.432895
21.300000 -0.378081
21.350000 -0.360951
21.400000 -0.395210
21.450000 -0.432896
21.500000 -0.484284
21.550000 -0.593912
21.600000 -0.713819
21.650000 -0.785762
21.700000 -0.837150
21.750000 -0.885113
21.800000 -0.898816
21.850000 -0.891964
21.900000 -0.902243
21.950000 -0.909094
22.000000 -0.881687
22.050000 -0.844002
22.100000 -0.823447
22.150000 -0.826873
22.200000 -0.874835
22.250000 -0.926223
22.300000 -0.957056
22.350000 -1.008444
22.400000 -1.087240
22.450000 -1.124925
22.500000 -1.100944
22.550000 -1.080388
22.600000 -1.056408
22.650000 -0.994741
22.700000 -0.888539
22.750000 -0.785762
22.800000 -0.686411
22.850000 -0.593912
22.900000 -0.518543
22.950000 -0.453451
23.000000 -0.405488
23.050000 -0.367803
23.100000 -0.367803
23.150000 -0.405488
23.200000 -0.467154
23.250000 -0.504838
23.300000 -0.542524
23.350000 -0.635022
23.400000 -0.765207
23.450000 -0.888539
23.500000 -1.018722
23.550000 -1.172887
23.600000 -1.337330
23.650000 -1.512050
23.700000 -1.655938
23.750000 -1.731308
23.800000 -1.758715
23.850000 -1.738159
23.900000 -1.638809
23.950000 -1.474366
24.000000 -1.285942
24.050000 -1.066685
24.100000 -0.802891
24.150000 -0.549375
24.200000 -0.340396
24.250000 -0.165676
24.300000 -0.032066
24.350000 0.019322
24.400000 -0.001233
24.450000 -0.059473
24.500000 -0.162250
24.550000 -0.302711
24.600000 -0.429469
24.650000 -0.532246
24.700000 -0.614468
24.750000 -0.672708
24.800000 -0.696689
24.850000 -0.693263
24.900000 -0.669282
24.950000 -0.631597
25.000000 -0.593912
25.050000 -0.569931
25.100000 -0.563079
25.150000 -0.573357
25.200000 -0.621319
25.250000 -0.676133
25.300000 -0.734374
25.350000 -0.806318
25.400000 -0.898816
25.450000 -0.974186
25.500000 -0.998167
25.550000 -0.994741
25.600000 -0.987889
25.650000 -0.970760
25.700000 -0.915945
25.750000 -0.861132
25.800000 -0.840576
25.850000 -0.823447
25.900000 -0.761781
25.950000 -0.706967
26.000000 -0.710392
26.050000 -0.727521
26.100000 -0.706967
26.150000 -0.686411
26.200000 -0.706967
26.250000 -0.720670
26.300000 -0.689837
26.350000 -0.655578
26.400000 -0.659004
26.450000 -0.665856
26.500000 -0.652152
26.550000 -0.652153
26.600000 -0.686411
26.650000 -0.713818
26.700000 -0.717244
26.750000 -0.734374
26.800000 -0.792614
26.850000 -0.847428
26.900000 -0.857705
26.950000 -0.864558
27.000000 -0.909094
27.050000 -0.929649
27.100000 -0.902242
27.150000 -0.891964
27.200000 -0.909094
27.250000 -0.902243
27.300000 -0.878261
27.350000 -0.878261
27.400000 -0.871409
27.450000 -0.816595
27.500000 -0.758354
27.550000 -0.748077
27.600000 -0.744651
27.650000 -0.724096
27.700000 -0.710392
27.750000 -0.717244
27.800000 -0.727522
27.850000 -0.744651
27.900000 -0.796040
27.950000 -0.871409
28.000000 -0.939927
28.050000 -0.970760
28.100000 -0.991315
28.150000 -1.018723
28.200000 -1.035852
28.250000 -1.025574
28.300000 -1.008444
28.350000 -1.005019
28.400000 -1.011870
28.450000 -1.029000
28.500000 -1.052981
28.550000 -1.080389
28.600000 -1.114648
28.650000 -1.155758
28.700000 -1.183165
28.750000 -1.183165
28.800000 -1.172887
28.850000 -1.159184
28.900000 -1.124925
28.950000 -1.073537
29.000000 -1.049555
29.050000 -1.035852
29.100000 -0.998167
29.150000 -0.991316
29.200000 -1.052982
29.250000 -1.131776
29.300000 -1.207146
29.350000 -1.306497
29.400000 -1.436681
29.450000 -1.536032
29.500000 -1.597698
29.550000 -1.645661
29.600000 -1.659364
29.650000 -1.621679
29.700000 -1.532606
29.750000 -1.409274
29.800000 -1.292794
29.850000 -1.172887
29.900000 -1.032426
29.950000 -0.926223
30.000000 -0.891964
30.050000 -0.867983
30.100000 -0.823447
30.150000 -0.833724
30.200000 -0.915945
30.250000 -0.963908
30.300000 -0.970760
30.350000 -1.008445
30.400000 -1.083815
30.450000 -1.121499
30.500000 -1.104369
30.550000 -1.087241
30.600000 -1.090666
30.650000 -1.076963
30.700000 -1.032426
30.750000 -1.011871
30.800000 -1.056407
30.850000 -1.128351
30.900000 -1.186591
30.950000 -1.265387
31.000000 -1.388719
31.050000 -1.498347
31.100000 -1.560013
31.150000 -1.607976
31.200000 -1.655938
31.250000 -1.662790
31.300000 -1.618253
31.350000 -1.542884
31.400000 -1.450385
31.450000 -1.330478
31.500000 -1.176313
31.550000 -1.018723
31.600000 -0.895391
31.650000 -0.813169
31.700000 -0.741226
31.750000 -0.706967
31.800000 -0.734374
31.850000 -0.799465
31.900000 -0.871409
31.950000 -0.977612
32.000000 -1.118073
32.050000 -1.234554
32.100000 -1.320201
32.150000 -1.392145
32.200000 -1.426404
32.250000 -1.392144
32.300000 -1.323627
32.350000 -1.255109
32.400000 -1.166036
32.450000 -1.066685
32.500000 -1.001593
32.550000 -0.981037
32.600000 -0.984463
32.650000 -0.987889
32.700000 -1.008444
32.750000 -1.090666
32.800000 -1.207147
32.850000 -1.303071
32.900000 -1.361312
32.950000 -1.419552
33.000000 -1.457237
33.050000 -1.422977
33.100000 -1.351034
33.150000 -1.285942
33.200000 -1.224275
33.250000 -1.138629
33.300000 -1.046129
33.350000 -0.963908
33.400000 -0.926224
33.450000 -0.922798
33.500000 -0.912520
33.550000 -0.881687
33.600000 -0.881687
33.650000 -0.902243
33.700000 -0.885112
33.750000 -0.844002
33.800000 -0.826873
33.850000 -0.837150
33.900000 -0.857705
33.950000 -0.902242
34.000000 -0.974186
34.050000 -1.076963
34.100000 -1.203720
34.150000 -1.354460
34.200000 -1.512051
34.250000 -1.673067
34.300000 -1.820381
34.350000 -1.926584
34.400000 -2.005379
34.450000 -2.060193
34.500000 -2.070471
34.550000 -2.032786
34.600000 -1.984824
34.650000 -1.916306
34.700000 -1.810103
34.750000 -1.693623
34.800000 -1.594272
34.850000 -1.481218
34.900000 -1.368163
34.950000 -1.289367
35.000000 -1.237980
35.050000 -1.159184
35.100000 -1.052982
35.150000 -0.991316
35.200000 -0.977612
35.250000 -0.946779
35.300000 -0.902242
35.350000 -0.895390
35.400000 -0.919372
35.450000 -0.926224
35.500000 -0.919372
35.550000 -0.936502
35.600000 -0.970761
35.650000 -1.001593
35.700000 -1.035852
35.750000 -1.080388
35.800000 -1.100944
35.850000 -1.070111
35.900000 -1.025574
35.950000 -1.001593
36.000000 -0.981038
36.050000 -0.926223
36.100000 -0.861131
36.150000 -0.847427
36.200000 -0.867983
36.250000 -0.881687
36.300000 -0.895390
36.350000 -0.957056
36.400000 -1.063260
36.450000 -1.183165
36.500000 -1.309923
36.550000 -1.443533
36.600000 -1.560013
36.650000 -1.645661
36.700000 -1.690197
36.750000 -1.697049
36.800000 -1.649086
36.850000 -1.525754
36.900000 -1.357885
36.950000 -1.203721
37.000000 -1.066685
37.050000 -0.909094
37.100000 -0.761781
37.150000 -0.693263
37.200000 -0.682985
37.250000 -0.676133
37.300000 -0.717244
37.350000 -0.854280
37.400000 -1.042704
37.450000 -1.210572
37.500000 -1.361311
37.550000 -1.512051
37.600000 -1.638809
37.650000 -1.707327
37.700000 -1.710752
37.750000 -1.679919
37.800000 -1.621679
37.850000 -1.501773
37.900000 -1.354460
37.950000 -1.207146
38.000000 -1.087240
38.050000 -0.977611
38.100000 -0.902243
38.150000 -0.888539
38.200000 -0.933076
38.250000 -0.994741
38.300000 -1.076963
38.350000 -1.196869
38.400000 -1.316775
38.450000 -1.388719
38.500000 -1.426404
38.550000 -1.453810
38.600000 -1.450385
38.650000 -1.392144
38.700000 -1.285942
38.750000 -1.155758
38.800000 -1.032426
38.850000 -0.902243
38.900000 -0.772058
38.950000 -0.672707
39.000000 -0.631597
39.050000 -0.624746
39.100000 -0.655578
39.150000 -0.754929
39.200000 -0.905668
39.250000 -1.035852
39.300000 -1.135203
39.350000 -1.248257
39.400000 -1.361311
39.450000 -1.436681
39.500000 -1.460663
39.550000 -1.426403
39.600000 -1.364737
39.650000 -1.279090
39.700000 -1.183165
39.750000 -1.073537
39.800000 -0.981037
39.850000 -0.933076
39.900000 -0.898816
39.950000 -0.871409
40.000000 -0.885113
40.050000 -0.926223
40.100000 -0.953630
40.150000 -0.987889
40.200000 -1.073536
40.250000 -1.162610
40.300000 -1.193443
40.350000 -1.210572
40.400000 -1.248257
40.450000 -1.292793
40.500000 -1.309923
40.550000 -1.320201
40.600000 -1.340756
40.650000 -1.371589
40.700000 -1.422977
40.750000 -1.491495
40.800000 -1.560013
40.850000 -1.604549
40.900000 -1.635383
40.950000 -1.676493
41.000000 -1.721030
41.050000 -1.714178
41.100000 -1.652512
41.150000 -1.580569
41.200000 -1.474366
41.250000 -1.309923
41.300000 -1.128351
41.350000 -0.974186
41.400000 -0.826873
41.450000 -0.693263
41.500000 -0.624745
41.550000 -0.607616
41.600000 -0.621319
41.650000 -0.686412
41.700000 -0.809743
41.750000 -0.953631
41.800000 -1.124925
41.850000 -1.296220
41.900000 -1.422978
41.950000 -1.518903
42.000000 -1.614828
42.050000 -1.642235
42.100000 -1.594272
42.150000 -1.549735
42.200000 -1.512050
42.250000 -1.433256
42.300000 -1.351034
42.350000 -1.289368
42.400000 -1.217424
42.450000 -1.155758
42.500000 -1.138629
42.550000 -1.135203
42.600000 -1.142054
42.650000 -1.152333
42.700000 -1.128351
42.750000 -1.097518
42.800000 -1.138629
42.850000 -1.183165
42.900000 -1.162610
42.950000 -1.148906
43.000000 -1.196868
43.050000 -1.217424
43.100000 -1.176313
43.150000 -1.148906
43.200000 -1.128351
43.250000 -1.076963
43.300000 -1.022149
43.350000 -0.998167
43.400000 -0.977612
43.450000 -0.939927
43.500000 -0.898817
43.550000 -0.888539
43.600000 -0.933075
43.650000 -0.974186
43.700000 -1.001593
43.750000 -1.039278
43.800000 -1.076962
43.850000 -1.090666
43.900000 -1.090667
43.950000 -1.100944
44.000000 -1.094092
44.050000 -1.063259
44.100000 -1.056407
44.150000 -1.087240
44.200000 -1.135203
44.250000 -1.193443
44.300000 -1.279090
44.350000 -1.392144
44.400000 -1.501773
44.450000 -1.587420
44.500000 -1.655938
44.550000 -1.721030
44.600000 -1.741585
44.650000 -1.690197
44.700000 -1.590847
44.750000 -1.501773
44.800000 -1.409274
44.850000 -1.275664
44.900000 -1.131777
44.950000 -1.035852
45.000000 -0.977612
45.050000 -0.915946
45.100000 -0.864557
45.150000 -0.854279
45.200000 -0.891964
45.250000 -0.970760
45.300000 -1.039278
45.350000 -1.083814
45.400000 -1.148907
45.450000 -1.255109
45.500000 -1.323627
45.550000 -1.347608
45.600000 -1.364737
45.650000 -1.371589
45.700000 -1.337330
45.750000 -1.285942
45.800000 -1.213998
45.850000 -1.104370
45.900000 -0.987890
45.950000 -0.912520
46.000000 -0.864557
46.050000 -0.820021
46.100000 -0.809743
46.150000 -0.854280
46.200000 -0.933076
46.250000 -1.005019
46.300000 -1.097517
46.350000 -1.217424
46.400000 -1.313349
46.450000 -1.354460
46.500000 -1.375015
46.550000 -1.392144
46.600000 -1.357885
46.650000 -1.275664
46.700000 -1.155758
46.750000 -1.032426
46.800000 -0.943353
46.850000 -0.888539
46.900000 -0.840576
46.950000 -0.802892
47.000000 -0.799466
47.050000 -0.826873
47.100000 -0.857706
47.150000 -0.919372
47.200000 -1.005019
47.250000 -1.070111
47.300000 -1.121499
47.350000 -1.186591
47.400000 -1.237980
47.450000 -1.251683
47.500000 -1.255109
47.550000 -1.261961
47.600000 -1.244832
47.650000 -1.186591
47.700000 -1.107796
47.750000 -1.039278
47.800000 -0.960483
47.850000 -0.864558
47.900000 -0.775484
47.950000 -0.724096
48.000000 -0.686411
48.050000 -0.645300
48.100000 -0.635023
48.150000 -0.676133
48.200000 -0.748077
48.250000 -0.820021
48.300000 -0.909094
48.350000 -1.032426
48.400000 -1.169461
48.450000 -1.272238
48.500000 -1.333904
48.550000 -1.385293
48.600000 -1.416125
48.650000 -1.412700
48.700000 -1.368163
48.750000 -1.313349
48.800000 -1.258534
48.850000 -1.169462
48.900000 -1.070111
48.950000 -1.011871
49.000000 -0.987890
49.050000 -0.957056
49.100000 -0.950204
49.150000 -1.008445
49.200000 -1.097518
49.250000 -1.186591
49.300000 -1.285942
49.350000 -1.392145
49.400000 -1.470940
49.450000 -1.498347
49.500000 -1.481218
49.550000 -1.429829
49.600000 -1.378441
49.650000 -1.299645
49.700000 -1.145481
49.750000 -0.970760
49.800000 -0.861132
49.850000 -0.799465
49.900000 -0.744651
49.950000 -0.748078
50.000000 -0.837150
50.050000 -0.963908
50.100000 -1.097518
50.150000 -1.268812
50.200000 -1.460662
50.250000 -1.618253
50.300000 -1.707326
50.350000 -1.758715
50.400000 -1.789548
50.450000 -1.765567
50.500000 -1.666216
50.550000 -1.518903
50.600000 -1.361311
50.650000 -1.196869
50.700000 -1.042704
50.750000 -0.933075
50.800000 -0.881687
50.850000 -0.840576
50.900000 -0.799466
50.950000 -0.782336
51.000000 -0.792613
51.050000 -0.802892
51.100000 -0.802891
51.150000 -0.792614
51.200000 -0.778910
51.250000 -0.775485
51.300000 -0.802891
51.350000 -0.830298
51.400000 -0.871410
51.450000 -0.936501
51.500000 -1.025574
51.550000 -1.124925
51.600000 -1.237979
51.650000 -1.351034
51.700000 -1.426403
51.750000 -1.470940
51.800000 -1.501773
51.850000 -1.498347
51.900000 -1.446958
51.950000 -1.357886
52.000000 -1.258535
52.050000 -1.162610
52.100000 -1.094092
52.150000 -1.056408
52.200000 -1.049555
52.250000 -1.073536
52.300000 -1.107795
52.350000 -1.152333
52.400000 -1.234554
52.450000 -1.344182
52.500000 -1.429830
52.550000 -1.498348
52.600000 -1.570291
52.650000 -1.607975
52.700000 -1.577143
52.750000 -1.566865
52.800000 -1.580569
52.850000 -1.566865
52.900000 -1.525754
52.950000 -1.505199
53.000000 -1.484644
53.050000 -1.446959
53.100000 -1.419551
53.150000 -1.395571
53.200000 -1.364737
53.250000 -1.320201
53.300000 -1.282516
53.350000 -1.265387
53.400000 -1.272239
53.450000 -1.265387
53.500000 -1.258535
53.550000 -1.299645
53.600000 -1.371589
53.650000 -1.398996
53.700000 -1.412700
53.750000 -1.464088
53.800000 -1.525754
53.850000 -1.532606
53.900000 -1.505199
53.950000 -1.484643
54.000000 -1.474366
54.050000 -1.440107
54.100000 -1.371589
54.150000 -1.316775
54.200000 -1.299645
54.250000 -1.285942
54.300000 -1.241405
54.350000 -1.244831
54.400000 -1.327053
54.450000 -1.398996
54.500000 -1.416126
54.550000 -1.470940
54.600000 -1.560013
54.650000 -1.590847
54.700000 -1.583995
54.750000 -1.590846
54.800000 -1.587420
54.850000 -1.522328
54.900000 -1.460663
54.950000 -1.409274
55.000000 -1.337331
55.050000 -1.268812
55.100000 -1.220850
55.150000 -1.183165
55.200000 -1.162610
55.250000 -1.162610
55.300000 -1.148906
55.350000 -1.135203
55.400000 -1.169462
55.450000 -1.213998
55.500000 -1.261960
55.550000 -1.351034
55.600000 -1.481218
55.650000 -1.625105
55.700000 -1.762141
55.750000 -1.895751
55.800000 -2.032786
55.850000 -2.142414
55.900000 -2.176674
55.950000 -2.138988
56.000000 -2.060193
56.050000 -1.950565
56.100000 -1.765567
56.150000 -1.525754
56.200000 -1.285942
56.250000 -1.039277
56.300000 -0.775484
56.350000 -0.587060
56.400000 -0.508265
56.450000 -0.494562
56.500000 -0.525394
56.550000 -0.638449
56.600000 -0.830299
56.650000 -1.046130
56.700000 -1.248257
56.750000 -1.426403
56.800000 -1.577143
56.850000 -1.686771
56.900000 -1.717604
56.950000 -1.697049
57.000000 -1.669641
57.050000 -1.607976
57.100000 -1.494922
57.150000 -1.388718
57.200000 -1.333904
57.250000 -1.279090
57.300000 -1.220850
57.350000 -1.220850
57.400000 -1.272239
57.450000 -1.289368
57.500000 -1.255109
57.550000 -1.234554
57.600000 -1.213998
57.650000 -1.142054
57.700000 -1.046129
57.750000 -0.963908
57.800000 -0.885112
57.850000 -0.806318
57.900000 -0.748077
57.950000 -0.734374
58.000000 -0.754929
58.050000 -0.796040
58.100000 -0.850854
58.150000 -0.939927
58.200000 -1.059834
58.250000 -1.159184
58.300000 -1.220850
58.350000 -1.303072
58.400000 -1.368163
58.450000 -1.381867
58.500000 -1.385293
58.550000 -1.422978
58.600000 -1.457236
58.650000 -1.467514
58.700000 -1.477792
58.750000 -1.501772
58.800000 -1.553161
58.850000 -1.611401
58.900000 -1.652512
58.950000 -1.676493
59.000000 -1.717604
59.050000 -1.741585
59.100000 -1.703901
59.150000 -1.652512
59.200000 -1.604550
59.250000 -1.529180
59.300000 -1.422978
59.350000 -1.337331
59.400000 -1.248257
59.450000 -1.128351
59.500000 -1.025574
59.550000 -0.963908
59.600000 -0.926223
59.650000 -0.909094
59.700000 -0.912520
59.750000 -0.939927
59.800000 -0.977612
59.850000 -1.015297
59.900000 -1.046129
59.950000 -1.066685
60.000000 -1.100944
60.050000 -1.131777
60.100000 -1.138629
60.150000 -1.121499
60.200000 -1.118073
60.250000 -1.128351
60.300000 -1.111221
60.350000 -1.111221
60.400000 -1.145481
60.450000 -1.155758
60.500000 -1.114647
60.550000 -1.087240
60.600000 -1.097518
60.650000 -1.070111
60.700000 -1.011871
60.750000 -0.957056
60.800000 -0.888539
60.850000 -0.792614
60.900000 -0.696688
60.950000 -0.624746
61.000000 -0.573357
61.050000 -0.545950
61.100000 -0.559653
61.150000 -0.621319
61.200000 -0.710392
61.250000 -0.806317
61.300000 -0.891965
61.350000 -0.984463
61.400000 -1.094092
61.450000 -1.179739
61.500000 -1.231128
61.550000 -1.265386
61.600000 -1.292794
61.650000 -1.279090
61.700000 -1.237980
61.750000 -1.210573
61.800000 -1.217424
61.850000 -1.207146
61.900000 -1.196868
61.950000 -1.231128
62.000000 -1.292794
62.050000 -1.323627
62.100000 -1.347608
62.150000 -1.375015
62.200000 -1.375015
62.250000 -1.333905
62.300000 -1.299646
62.350000 -1.248258
62.400000 -1.155758
62.450000 -1.046129
62.500000 -0.926224
62.550000 -0.806318
62.600000 -0.720670
62.650000 -0.703540
62.700000 -0.706967
62.750000 -0.720670
62.800000 -0.785762
62.850000 -0.891964
62.900000 -0.987890
62.950000 -1.080388
63.000000 -1.186591
63.050000 -1.303071
63.100000 -1.392145
63.150000 -1.440107
63.200000 -1.457236
63.250000 -1.446958
63.300000 -1.419552
63.350000 -1.388719
63.400000 -1.347608
63.450000 -1.285942
63.500000 -1.227702
63.550000 -1.200294
63.600000 -1.186592
63.650000 -1.172888
63.700000 -1.155758
63.750000 -1.152332
63.800000 -1.148907
63.850000 -1.145481
63.900000 -1.138629
63.950000 -1.111221
64.000000 -1.059833
64.050000 -1.015296
64.100000 -0.970760
64.150000 -0.912520
64.200000 -0.874835
64.250000 -0.861131
64.300000 -0.840577
64.350000 -0.840576
64.400000 -0.888539
64.450000 -0.957057
64.500000 -1.001593
64.550000 -1.039277
64.600000 -1.090666
64.650000 -1.135202
64.700000 -1.145481
64.750000 -1.121499
64.800000 -1.087240
64.850000 -1.046130
64.900000 -0.977611
64.950000 -0.891965
65.000000 -0.854279
65.050000 -0.837150
65.100000 -0.802892
65.150000 -0.782336
65.200000 -0.816595
65.250000 -0.847428
65.300000 -0.840576
65.350000 -0.840577
65.400000 -0.871409
65.450000 -0.888539
65.500000 -0.864558
65.550000 -0.837151
65.600000 -0.847428
65.650000 -0.864557
65.700000 -0.867984
65.750000 -0.891965
65.800000 -0.970760
65.850000 -1.046129
65.900000 -1.073536
65.950000 -1.104369
66.000000 -1.166036
66.050000 -1.183165
66.100000 -1.131777
66.150000 -1.121499
66.200000 -1.155758
66.250000 -1.142054
66.300000 -1.097518
66.350000 -1.104370
66.400000 -1.152332
66.450000 -1.207147
66.500000 -1.289367
66.550000 -1.422978
66.600000 -1.556588
66.650000 -1.676493
66.700000 -1.789547
66.750000 -1.878621
66.800000 -1.936861
66.850000 -1.967694
66.900000 -1.964268
66.950000 -1.930009
67.000000 -1.871769
67.050000 -1.799825
67.100000 -1.693623
67.150000 -1.583994
67.200000 -1.512051
67.250000 -1.433255
67.300000 -1.303071
67.350000 -1.183165
67.400000 -1.107796
67.450000 -1.029000
67.500000 -0.936501
67.550000 -0.840576
67.600000 -0.758355
67.650000 -0.693263
67.700000 -0.648726
67.750000 -0.621319
67.800000 -0.624745
67.850000 -0.686411
67.900000 -0.748078
67.950000 -0.802891
68.000000 -0.905668
68.050000 -1.042704
68.100000 -1.138628
68.150000 -1.213998
68.200000 -1.320201
68.250000 -1.388719
68.300000 -1.364737
68.350000 -1.320201
68.400000 -1.282517
68.450000 -1.207147
68.500000 -1.100944
68.550000 -1.018722
68.600000 -0.963908
68.650000 -0.915946
68.700000 -0.878261
68.750000 -0.861132
68.800000 -0.874835
68.850000 -0.926224
68.900000 -0.994741
68.950000 -1.049556
69.000000 -1.111221
69.050000 -1.186591
69.100000 -1.244832
69.150000 -1.285942
69.200000 -1.316775
69.250000 -1.337331
69.300000 -1.323627
69.350000 -1.296220
69.400000 -1.268812
69.450000 -1.251683
69.500000 -1.241406
69.550000 -1.251683
69.600000 -1.255109
69.650000 -1.255109
69.700000 -1.299645
69.750000 -1.361311
69.800000 -1.398996
69.850000 -1.385293
69.900000 -1.361312
69.950000 -1.344182
70.000000 -1.327053
70.050000 -1.292793
70.100000 -1.220850
70.150000 -1.176313
70.200000 -1.166036
70.250000 -1.131777
70.300000 -1.066685
70.350000 -1.063259
70.400000 -1.100944
70.450000 -1.118073
70.500000 -1.128351
70.550000 -1.159184
70.600000 -1.183165
70.650000 -1.179739
70.700000 -1.172887
70.750000 -1.162610
70.800000 -1.142054
70.850000 -1.114647
70.900000 -1.083814
70.950000 -1.066685
71.000000 -1.073536
71.050000 -1.080388
71.100000 -1.056407
71.150000 -1.052981
71.200000 -1.073536
71.250000 -1.100944
71.300000 -1.100944
71.350000 -1.104370
71.400000 -1.114647
71.450000 -1.118074
71.500000 -1.063259
71.550000 -0.963908
71.600000 -0.874835
71.650000 -0.802891
71.700000 -0.710393
71.750000 -0.631597
71.800000 -0.624745
71.850000 -0.662430
71.900000 -0.696688
71.950000 -0.761781
72.000000 -0.878261
72.050000 -1.022149
72.100000 -1.128351
72.150000 -1.190017
72.200000 -1.241405
72.250000 -1.275664
72.300000 -1.261961
72.350000 -1.190017
72.400000 -1.080388
72.450000 -0.967334
72.500000 -0.864557
72.550000 -0.789188
72.600000 -0.758355
72.650000 -0.751503
72.700000 -0.775485
72.750000 -0.857705
72.800000 -0.994741
72.850000 -1.152332
72.900000 -1.316775
72.950000 -1.477792
73.000000 -1.618253
73.050000 -1.738159
73.100000 -1.830658
73.150000 -1.882047
73.200000 -1.882047
73.250000 -1.861491
73.300000 -1.827233
73.350000 -1.762141
73.400000 -1.683345
73.450000 -1.604550
73.500000 -1.529180
73.550000 -1.460662
73.600000 -1.405848
73.650000 -1.333904
73.700000 -1.258535
73.750000 -1.203721
73.800000 -1.172888
73.850000 -1.131777
73.900000 -1.083814
73.950000 -1.049555
74.000000 -1.029000
74.050000 -1.025574
74.100000 -1.025574
74.150000 -1.011871
74.200000 -1.015296
74.250000 -1.029000
74.300000 -1.011871
74.350000 -0.981038
74.400000 -0.974186
74.450000 -0.950204
74.500000 -0.881687
74.550000 -0.833724
74.600000 -0.813169
74.650000 -0.754929
74.700000 -0.672708
74.750000 -0.614467
74.800000 -0.573357
74.850000 -0.515116
74.900000 -0.484283
74.950000 -0.484284
75.000000 -0.480858
75.050000 -0.467155
75.100000 -0.467154
75.150000 -0.460303
75.200000 -0.470580
75.250000 -0.525394
75.300000 -0.607615
75.350000 -0.703541
75.400000 -0.847428
75.450000 -1.039278
75.500000 -1.217424
75.550000 -1.371589
75.600000 -1.518902
75.650000 -1.638808
75.700000 -1.721030
75.750000 -1.765567
75.800000 -1.751863
75.850000 -1.683345
75.900000 -1.577143
75.950000 -1.453810
76.000000 -1.316775
76.050000 -1.172887
76.100000 -1.029000
76.150000 -0.912520
76.200000 -0.840576
76.250000 -0.816595
76.300000 -0.813169
76.350000 -0.826872
76.400000 -0.857705
76.450000 -0.878261
76.500000 -0.891965
76.550000 -0.905669
76.600000 -0.878261
76.650000 -0.806317
76.700000 -0.751503
76.750000 -0.730947
76.800000 -0.689837
76.850000 -0.655578
76.900000 -0.689837
76.950000 -0.785762
77.000000 -0.891965
77.050000 -0.987889
77.100000 -1.083814
77.150000 -1.196869
77.200000 -1.299646
77.250000 -1.333904
77.300000 -1.296220
77.350000 -1.234554
77.400000 -1.148906
77.450000 -1.008444
77.500000 -0.850854
77.550000 -0.758355
77.600000 -0.737800
77.650000 -0.744652
77.700000 -0.775484
77.750000 -0.864558
77.800000 -1.025575
77.850000 -1.220850
77.900000 -1.409274
77.950000 -1.563439
78.000000 -1.693623
78.050000 -1.782696
78.100000 -1.806677
78.150000 -1.768992
78.200000 -1.710752
78.250000 -1.611401
78.300000 -1.467514
78.350000 -1.357885
78.400000 -1.296220
78.450000 -1.210572
78.500000 -1.100944
78.550000 -1.052981
78.600000 -1.046130
78.650000 -0.998167
78.700000 -0.936501
78.750000 -0.953630
78.800000 -1.011871
78.850000 -1.029000
78.900000 -1.025574
78.950000 -1.052982
79.000000 -1.135203
79.050000 -1.231127
79.100000 -1.303072
79.150000 -1.364738
79.200000 -1.443533
79.250000 -1.494921
79.300000 -1.477791
79.350000 -1.450384
79.400000 -1.446958
79.450000 -1.392144
79.500000 -1.258534
79.550000 -1.135203
79.600000 -1.056407
79.650000 -0.960483
79.700000 -0.867983
79.750000 -0.813169
79.800000 -0.778910
79.850000 -0.761780
79.900000 -0.796039
79.950000 -0.861132
80.000000 -0.919372
80.050000 -0.974186
80.100000 -1.056407
80.150000 -1.142054
80.200000 -1.231128
80.250000 -1.316775
80.300000 -1.385292
80.350000 -1.453811
80.400000 -1.518903
80.450000 -1.560013
80.500000 -1.580568
80.550000 -1.590846
80.600000 -1.553161
80.650000 -1.460662
80.700000 -1.340756
80.750000 -1.234554
80.800000 -1.131776
80.850000 -1.022149
80.900000 -0.912520
80.950000 -0.820021
81.000000 -0.761780
81.050000 -0.724096
81.100000 -0.696689
81.150000 -0.689837
81.200000 -0.706967
81.250000 -0.734373
81.300000 -0.778911
81.350000 -0.840576
81.400000 -0.861132
81.450000 -0.854280
81.500000 -0.857705
81.550000 -0.844002
81.600000 -0.806317
81.650000 -0.778910
81.700000 -0.751503
81.750000 -0.710393
81.800000 -0.700115
81.850000 -0.713818
81.900000 -0.686411
81.950000 -0.662430
82.000000 -0.693263
82.050000 -0.720670
82.100000 -0.706966
82.150000 -0.710393
82.200000 -0.734374
82.250000 -0.758355
82.300000 -0.778910
82.350000 -0.796040
82.400000 -0.802891
82.450000 -0.840576
82.500000 -0.902242
82.550000 -0.957056
82.600000 -1.056407
82.650000 -1.190017
82.700000 -1.299646
82.750000 -1.388719
82.800000 -1.508625
82.850000 -1.597698
82.900000 -1.614827
82.950000 -1.638809
83.000000 -1.676493
83.050000 -1.655938
83.100000 -1.601123
83.150000 -1.570291
83.200000 -1.522328
83.250000 -1.443532
83.300000 -1.388718
83.350000 -1.351034
83.400000 -1.316775
83.450000 -1.299646
83.500000 -1.292794
83.550000 -1.282516
83.600000 -1.282516
83.650000 -1.282516
83.700000 -1.241405
83.750000 -1.193443
83.800000 -1.166035
83.850000 -1.097518
83.900000 -0.984464
83.950000 -0.919372
84.000000 -0.888539
84.050000 -0.833725
84.100000 -0.765207
84.150000 -0.734374
84.200000 -0.748077
84.250000 -0.789188
84.300000 -0.823447
84.350000 -0.861131
84.400000 -0.915945
84.450000 -0.957056
84.500000 -0.953630
84.550000 -0.936501
84.600000 -0.960482
84.650000 -0.974186
84.700000 -0.950205
84.750000 -0.915945
84.800000 -0.905668
84.850000 -0.898817
84.900000 -0.922798
84.950000 -0.994741
85.000000 -1.076963
85.050000 -1.145480
85.100000 -1.220850
85.150000 -1.313349
85.200000 -1.395570
85.250000 -1.467514
85.300000 -1.501773
85.350000 -1.512050
85.400000 -1.518902
85.450000 -1.518903
85.500000 -1.477792
85.550000 -1.416125
85.600000 -1.378441
85.650000 -1.340756
85.700000 -1.265386
85.750000 -1.172888
85.800000 -1.087241
85.850000 -0.984464
85.900000 -0.847428
85.950000 -0.706967
86.000000 -0.590486
86.050000 -0.504839
86.100000 -0.439747
86.150000 -0.408914
86.200000 -0.432895
86.250000 -0.497987
86.300000 -0.573356
86.350000 -0.662430
86.400000 -0.761781
86.450000 -0.840576
86.500000 -0.881687
86.550000 -0.909094
86.600000 -0.912520
86.650000 -0.864558
86.700000 -0.761781
86.750000 -0.645301
86.800000 -0.542524
86.850000 -0.450025
86.900000 -0.357526
86.950000 -0.292434
87.000000 -0.299286
87.050000 -0.357526
87.100000 -0.412340
87.150000 -0.487709
87.200000 -0.604189
87.250000 -0.706967
87.300000 -0.754929
87.350000 -0.792614
87.400000 -0.820021
87.450000 -0.806317
87.500000 -0.802891
87.550000 -0.847428
87.600000 -0.874835
87.650000 -0.854279
87.700000 -0.847428
87.750000 -0.874835
87.800000 -0.902242
87.850000 -0.922798
87.900000 -0.953631
87.950000 -0.974186
88.000000 -0.984463
88.050000 -1.008445
88.100000 -1.025575
88.150000 -1.035852
88.200000 -1.056408
88.250000 -1.083814
88.300000 -1.107795
88.350000 -1.166035
88.400000 -1.248257
88.450000 -1.313349
88.500000 -1.354459
88.550000 -1.419552
88.600000 -1.522328
88.650000 -1.604549
88.700000 -1.625105
88.750000 -1.625105
88.800000 -1.635383
88.850000 -1.611401
88.900000 -1.556587
88.950000 -1.518902
89.000000 -1.464088
89.050000 -1.351034
89.100000 -1.227702
89.150000 -1.152332
89.200000 -1.063259
89.250000 -0.936501
89.300000 -0.816595
89.350000 -0.724096
89.400000 -0.665856
89.450000 -0.635023
89.500000 -0.607615
89.550000 -0.604190
89.600000 -0.655578
89.650000 -0.751503
89.700000 -0.847428
89.750000 -0.936501
89.800000 -1.015297
89.850000 -1.070111
89.900000 -1.107796
89.950000 -1.138629
90.000000 -1.145480
90.050000 -1.111222
90.100000 -1.039278
90.150000 -0.963908
90.200000 -0.885112
90.250000 -0.785762
90.300000 -0.655578
90.350000 -0.559653
90.400000 -0.518543
90.450000 -0.487709
90.500000 -0.470580
90.550000 -0.521969
90.600000 -0.624745
90.650000 -0.703541
90.700000 -0.761781
90.750000 -0.823447
90.800000 -0.861131
90.850000 -0.837151
90.900000 -0.772058
90.950000 -0.700114
91.000000 -0.604190
91.050000 -0.484283
91.100000 -0.371229
91.150000 -0.292434
91.200000 -0.241045
91.250000 -0.217065
91.300000 -0.247897
91.350000 -0.312989
91.400000 -0.405488
91.450000 -0.528820
91.500000 -0.662430
91.550000 -0.792614
91.600000 -0.912520
91.650000 -0.984463
91.700000 -1.001593
91.750000 -1.011870
91.800000 -1.042703
91.850000 -1.032426
91.900000 -0.977611
91.950000 -0.943353
92.000000 -0.929650
92.050000 -0.905668
92.100000 -0.895390
92.150000 -0.909094
92.200000 -0.912520
92.250000 -0.915946
92.300000 -0.946779
92.350000 -0.998167
92.400000 -1.035852
92.450000 -1.087240
92.500000 -1.176314
92.550000 -1.268812
92.600000 -1.354459
92.650000 -1.446958
92.700000 -1.512050
92.750000 -1.570290
92.800000 -1.649086
92.850000 -1.700475
92.900000 -1.683345
92.950000 -1.645660
93.000000 -1.618253
93.050000 -1.522329
93.100000 -1.347608
93.150000 -1.186591
93.200000 -1.056407
93.250000 -0.936501
93.300000 -0.833724
93.350000 -0.758355
93.400000 -0.730947
93.450000 -0.778910
93.500000 -0.854280
93.550000 -0.919372
93.600000 -1.029000
93.650000 -1.169462
93.700000 -1.248257
93.750000 -1.244831
93.800000 -1.220850
93.850000 -1.148906
93.900000 -1.018722
93.950000 -0.881687
94.000000 -0.758355
94.050000 -0.617893
94.100000 -0.501413
94.150000 -0.477432
94.200000 -0.518542
94.250000 -0.597338
94.300000 -0.700115
94.350000 -0.823447
94.400000 -0.957056
94.450000 -1.087240
94.500000 -1.200294
94.550000 -1.282516
94.600000 -1.337330
94.650000 -1.323627
94.700000 -1.231127
94.750000 -1.111221
94.800000 -1.015297
94.850000 -0.926224
94.900000 -0.833725
94.950000 -0.772059
95.000000 -0.751504
95.050000 -0.754929
95.100000 -0.751503
95.150000 -0.758355
95.200000 -0.816595
95.250000 -0.912520
95.300000 -0.974186
95.350000 -0.991316
95.400000 -1.022148
95.450000 -1.059833
95.500000 -1.059833
95.550000 -1.052982
95.600000 -1.080388
95.650000 -1.107796
95.700000 -1.100944
95.750000 -1.118073
95.800000 -1.172887
95.850000 -1.220850
95.900000 -1.237980
95.950000 -1.279090
96.000000 -1.344182
96.050000 -1.378441
96.100000 -1.354459
96.150000 -1.320201
96.200000 -1.296219
96.250000 -1.234554
96.300000 -1.128351
96.350000 -1.032426
96.400000 -0.970760
96.450000 -0.905668
96.500000 -0.840576
96.550000 -0.823447
96.600000 -0.840576
96.650000 -0.850854
96.700000 -0.850854
96.750000 -0.878261
96.800000 -0.946779
96.850000 -1.022149
96.900000 -1.066685
96.950000 -1.090666
97.000000 -1.118073
97.050000 -1.142054
97.100000 -1.142054
97.150000 -1.142054
97.200000 -1.162610
97.250000 -1.193443
97.300000 -1.207146
97.350000 -1.203721
97.400000 -1.227701
97.450000 -1.261961
97.500000 -1.299646
97.550000 -1.340756
97.600000 -1.402422
97.650000 -1.457236
97.700000 -1.512051
97.750000 -1.566865
97.800000 -1.618253
97.850000 -1.652512
97.900000 -1.686771
97.950000 -1.707326
98.000000 -1.700474
98.050000 -1.679919
98.100000 -1.625105
98.150000 -1.532606
98.200000 -1.426404
98.250000 -1.309923
98.300000 -1.172888
98.350000 -1.052982
98.400000 -0.994741
98.450000 -0.957056
98.500000 -0.929650
98.550000 -0.953631
98.600000 -1.046129
98.650000 -1.138629
98.700000 -1.207146
98.750000 -1.292794
98.800000 -1.392145
98.850000 -1.443533
98.900000 -1.460663
98.950000 -1.491495
99.000000 -1.532606
99.050000 -1.501773
99.100000 -1.426403
99.150000 -1.378441
99.200000 -1.378441
99.250000 -1.364737
99.300000 -1.333904
99.350000 -1.320201
99.400000 -1.323627
99.450000 -1.309923
99.500000 -1.255109
99.550000 -1.176314
99.600000 -1.111221
99.650000 -1.052982
99.700000 -0.953631
99.750000 -0.850854
99.800000 -0.789188
99.850000 -0.741225
99.900000 -0.700115
99.950000 -0.706967
100.000000 -0.761780
100.050000 -0.823447
100.100000 -0.881687
100.150000 -0.963908
100.200000 -1.073537
100.250000 -1.172888
100.300000 -1.248257
100.350000 -1.279090
100.400000 -1.268812
100.450000 -1.210573
100.500000 -1.107796
100.550000 -0.984464
100.600000 -0.861132
100.650000 -0.720670
100.700000 -0.569931
100.750000 -0.456876
100.800000 -0.412340
100.850000 -0.405488
100.900000 -0.422617
100.950000 -0.484284
101.000000 -0.624746
101.050000 -0.778910
101.100000 -0.905668
101.150000 -1.032426
101.200000 -1.176314
101.250000 -1.282516
101.300000 -1.330479
101.350000 -1.351034
101.400000 -1.354460
101.450000 -1.309923
101.500000 -1.224276
101.550000 -1.138628
101.600000 -1.063259
101.650000 -0.991316
101.700000 -0.902243
101.750000 -0.847428
101.800000 -0.840577
101.850000 -0.847428
101.900000 -0.837150
101.950000 -0.871410
102.000000 -0.939927
102.050000 -0.998167
102.100000 -1.032426
102.150000 -1.070111
102.200000 -1.090666
102.250000 -1.107796
102.300000 -1.135203
102.350000 -1.142054
102.400000 -1.124925
102.450000 -1.107795
102.500000 -1.090667
102.550000 -1.042704
102.600000 -0.998167
102.650000 -0.974186
102.700000 -0.922798
102.750000 -0.844002
102.800000 -0.799466
102.850000 -0.792614
102.900000 -0.768633
102.950000 -0.758354
103.000000 -0.802892
103.050000 -0.881687
103.100000 -0.967334
103.150000 -1.076963
103.200000 -1.207147
103.250000 -1.330479
103.300000 -1.433255
103.350000 -1.515476
103.400000 -1.556587
103.450000 -1.518902
103.500000 -1.395570
103.550000 -1.224276
103.600000 -1.042704
103.650000 -0.857705
103.700000 -0.669281
103.750000 -0.501413
103.800000 -0.384933
103.850000 -0.319841
103.900000 -0.292434
103.950000 -0.333545
104.000000 -0.450025
104.050000 -0.580208
104.100000 -0.706967
104.150000 -0.861131
104.200000 -1.022149
104.250000 -1.121499
104.300000 -1.162609
104.350000 -1.172887
104.400000 -1.159184
104.450000 -1.121499
104.500000 -1.063259
104.550000 -0.981038
104.600000 -0.891964
104.650000 -0.809743
104.700000 -0.720670
104.750000 -0.638449
104.800000 -0.597338
104.850000 -0.569931
104.900000 -0.515117
104.950000 -0.477432
105.000000 -0.508265
105.050000 -0.563079
105.100000 -0.593912
105.150000 -0.648726
105.200000 -0.758355
105.250000 -0.871409
105.300000 -0.957056
105.350000 -1.059833
105.400000 -1.169462
105.450000 -1.234554
105.500000 -1.251683
105.550000 -1.248257
105.600000 -1.213998
105.650000 -1.152332
105.700000 -1.090666
105.750000 -1.056407
105.800000 -1.022148
105.850000 -0.991315
105.900000 -0.977611
105.950000 -1.018723
106.000000 -1.104369
106.050000 -1.200295
106.100000 -1.275664
106.150000 -1.364737
106.200000 -1.446959
106.250000 -1.470940
106.300000 -1.457237
106.350000 -1.460662
106.400000 -1.470940
106.450000 -1.443533
106.500000 -1.388719
106.550000 -1.340756
106.600000 -1.313349
106.650000 -1.289368
106.700000 -1.248257
106.750000 -1.176313
106.800000 -1.114647
106.850000 -1.059833
106.900000 -0.977612
106.950000 -0.864558
107.000000 -0.744651
107.050000 -0.611041
107.100000 -0.453451
107.150000 -0.319841
107.200000 -0.227342
107.250000 -0.134842
107.300000 -0.066325
107.350000 -0.073176
107.400000 -0.155399
107.450000 -0.237620
107.500000 -0.347248
107.550000 -0.511691
107.600000 -0.693263
107.650000 -0.871409
107.700000 -1.049556
107.750000 -1.210572
107.800000 -1.320201
107.850000 -1.371589
107.900000 -1.368164
107.950000 -1.316775
108.000000 -1.241405
108.050000 -1.145480
108.100000 -1.018722
108.150000 -0.905668
108.200000 -0.837151
108.250000 -0.761781
108.300000 -0.689837
108.350000 -0.682986
108.400000 -0.734373
108.450000 -0.761780
108.500000 -0.775484
108.550000 -0.826873
108.600000 -0.888539
108.650000 -0.905668
108.700000 -0.885113
108.750000 -0.864558
108.800000 -0.844002
108.850000 -0.816594
108.900000 -0.778911
108.950000 -0.772058
109.000000 -0.823447
109.050000 -0.891965
109.100000 -0.957056
109.150000 -1.056407
109.200000 -1.179739
109.250000 -1.279090
109.300000 -1.333904
109.350000 -1.368163
109.400000 -1.371589
109.450000 -1.309924
109.500000 -1.193443
109.550000 -1.059833
109.600000 -0.926223
109.650000 -0.772058
109.700000 -0.597338
109.750000 -0.460302
109.800000 -0.378081
109.850000 -0.312989
109.900000 -0.265026
109.950000 -0.295859
110.000000 -0.426043
110.050000 -0.556227
110.100000 -0.648727
110.150000 -0.775484
110.200000 -0.953630
110.250000 -1.080389
110.300000 -1.128351
110.350000 -1.159184
110.400000 -1.186591
110.450000 -1.152333
110.500000 -1.076963
110.550000 -1.015296
110.600000 -0.967334
110.650000 -0.926223
110.700000 -0.912520
110.750000 -0.946779
110.800000 -1.011870
110.850000 -1.083815
110.900000 -1.159184
110.950000 -1.272238
111.000000 -1.395570
111.050000 -1.470940
111.100000 -1.508624
111.150000 -1.539458
111.200000 -1.539458
111.250000 -1.501773
111.300000 -1.450385
111.350000 -1.385293
111.400000 -1.296219
111.450000 -1.213998
111.500000 -1.152332
111.550000 -1.083814
111.600000 -1.015297
111.650000 -0.987890
111.700000 -0.987889
111.750000 -0.984464
111.800000 -0.977611
111.850000 -0.987890
111.900000 -1.001593
111.950000 -1.018723
112.000000 -1.052981
112.050000 -1.097518
112.100000 -1.128351
112.150000 -1.148906
112.200000 -1.190017
112.250000 -1.231128
112.300000 -1.241405
112.350000 -1.237979
112.400000 -1.244831
112.450000 -1.255109
112.500000 -1.234554
112.550000 -1.200294
112.600000 -1.193443
112.650000 -1.179739
112.700000 -1.169462
112.750000 -1.176314
112.800000 -1.196869
112.850000 -1.224275
112.900000 -1.282516
112.950000 -1.351034
113.000000 -1.412700
113.050000 -1.474366
113.100000 -1.498347
113.150000 -1.477792
113.200000 -1.467514
113.250000 -1.446959
113.300000 -1.375015
113.350000 -1.289367
113.400000 -1.224276
113.450000 -1.142055
113.500000 -1.032426
113.550000 -0.960482
113.600000 -0.929649
113.650000 -0.909094
113.700000 -0.926224
113.750000 -0.987889
113.800000 -1.059833
113.850000 -1.111221
113.900000 -1.162610
113.950000 -1.213998
114.000000 -1.285942
114.050000 -1.354459
114.100000 -1.398996
114.150000 -1.416126
114.200000 -1.433255
114.250000 -1.429829
114.300000 -1.398996
114.350000 -1.381867
114.400000 -1.368163
114.450000 -1.327053
114.500000 -1.279090
114.550000 -1.255109
114.600000 -1.220850
114.650000 -1.172888
114.700000 -1.131777
114.750000 -1.114647
114.800000 -1.145481
114.850000 -1.203720
114.900000 -1.234553
114.950000 -1.255109
115.000000 -1.309923
115.050000 -1.364738
115.100000 -1.368163
115.150000 -1.375015
115.200000 -1.388718
115.250000 -1.371589
115.300000 -1.337330
115.350000 -1.333905
115.400000 -1.313350
115.450000 -1.248257
115.500000 -1.193442
115.550000 -1.159184
115.600000 -1.124925
115.650000 -1.100944
115.700000 -1.080389
115.750000 -1.070111
115.800000 -1.083814
115.850000 -1.094092
115.900000 -1.073536
115.950000 -1.042704
116.000000 -1.046129
116.050000 -1.052981
116.100000 -1.022149
116.150000 -0.998167
116.200000 -1.001593
116.250000 -0.987890
116.300000 -0.953631
116.350000 -0.946778
116.400000 -0.970760
116.450000 -0.994742
116.500000 -0.987890
116.550000 -1.001593
116.600000 -1.073537
116.650000 -1.155758
116.700000 -1.207146
116.750000 -1.234553
116.800000 -1.272238
116.850000 -1.282516
116.900000 -1.231128
116.950000 -1.155758
117.000000 -1.094092
117.050000 -1.035852
117.100000 -0.974186
117.150000 -0.902242
117.200000 -0.857706
117.250000 -0.830299
117.300000 -0.816595
117.350000 -0.816595
117.400000 -0.854280
117.450000 -0.898816
117.500000 -0.919372
117.550000 -0.950204
117.600000 -1.011871
117.650000 -1.066685
117.700000 -1.094092
117.750000 -1.138629
117.800000 -1.234554
117.850000 -1.323627
117.900000 -1.378441
117.950000 -1.429830
118.000000 -1.477791
118.050000 -1.484643
118.100000 -1.481218
118.150000 -1.498347
118.200000 -1.501773
118.250000 -1.477792
118.300000 -1.457236
118.350000 -1.429829
118.400000 -1.402422
118.450000 -1.378440
118.500000 -1.357886
118.550000 -1.327053
118.600000 -1.316775
118.650000 -1.316775
118.700000 -1.275664
118.750000 -1.203721
118.800000 -1.138629
118.850000 -1.087240
118.900000 -1.059833
118.950000 -1.066685
119.000000 -1.083814
119.050000 -1.090666
119.100000 -1.131776
119.150000 -1.207146
119.200000 -1.275664
119.250000 -1.337331
119.300000 -1.375015
119.350000 -1.395570
119.400000 -1.433255
119.450000 -1.453811
119.500000 -1.433255
119.550000 -1.388718
119.600000 -1.347608
119.650000 -1.289368
119.700000 -1.217424
119.750000 -1.172887
119.800000 -1.152332
119.850000 -1.142055
119.900000 -1.145480
119.950000 -1.176313
120.000000 -1.234553
120.050000 -1.279090
120.100000 -1.313349
120.150000 -1.364737
120.200000 -1.436681
120.250000 -1.464088
120.300000 -1.457237
120.350000 -1.453810
120.400000 -1.446958
120.450000 -1.398996
120.500000 -1.327053
120.550000 -1.251683
120.600000 -1.169462
120.650000 -1.090666
120.700000 -1.015296
120.750000 -0.950204
120.800000 -0.898817
120.850000 -0.861131
120.900000 -0.850853
120.950000 -0.885113
121.000000 -0.929649
121.050000 -0.946778
121.100000 -0.977612
121.150000 -1.049555
121.200000 -1.111221
121.250000 -1.138628
121.300000 -1.162610
121.350000 -1.169462
121.400000 -1.159184
121.450000 -1.162610
121.500000 -1.172888
121.550000 -1.179739
121.600000 -1.213998
121.650000 -1.272239
121.700000 -1.323626
121.750000 -1.378441
121.800000 -1.460662
121.850000 -1.532606
121.900000 -1.580569
121.950000 -1.635382
122.000000 -1.669641
122.050000 -1.631956
122.100000 -1.539458
122.150000 -1.443533
122.200000 -1.316775
122.250000 -1.169461
122.300000 -1.029000
122.350000 -0.922798
122.400000 -0.850854
122.450000 -0.816595
122.500000 -0.806317
122.550000 -0.809743
122.600000 -0.867984
122.650000 -0.967334
122.700000 -1.066685
122.750000 -1.166036
122.800000 -1.275664
122.850000 -1.351034
122.900000 -1.361311
122.950000 -1.347608
123.000000 -1.340757
123.050000 -1.296220
123.100000 -1.196869
123.150000 -1.080388
123.200000 -0.994741
123.250000 -0.946779
123.300000 -0.919371
123.350000 -0.902242
123.400000 -0.933075
123.450000 -1.005019
123.500000 -1.073537
123.550000 -1.152333
123.600000 -1.275664
123.650000 -1.392144
123.700000 -1.446958
123.750000 -1.501773
123.800000 -1.566865
123.850000 -1.573716
123.900000 -1.518903
123.950000 -1.474366
124.000000 -1.446958
124.050000 -1.381866
124.100000 -1.299646
124.150000 -1.224276
124.200000 -1.155758
124.250000 -1.076963
124.300000 -0.994741
124.350000 -0.933075
124.400000 -0.874835
124.450000 -0.806318
124.500000 -0.737800
124.550000 -0.700115
124.600000 -0.686411
124.650000 -0.679559
124.700000 -0.669282
124.750000 -0.659004
124.800000 -0.665856
124.850000 -0.706967
124.900000 -0.768632
124.950000 -0.826873
125.000000 -0.885113
125.050000 -0.953631
125.100000 -0.991315
125.150000 -0.991315
125.200000 -0.974186
125.250000 -0.943353
125.300000 -0.885112
125.350000 -0.823447
125.400000 -0.778910
125.450000 -0.737800
125.500000 -0.703540
125.550000 -0.713818
125.600000 -0.761780
125.650000 -0.840576
125.700000 -0.929649
125.750000 -1.035852
125.800000 -1.172887
125.850000 -1.313349
125.900000 -1.419551
125.950000 -1.477792
126.000000 -1.512050
126.050000 -1.505199
126.100000 -1.450384
126.150000 -1.357886
126.200000 -1.248258
126.250000 -1.121499
126.300000 -1.005019
126.350000 -0.929649
126.400000 -0.874835
126.450000 -0.833724
126.500000 -0.826873
126.550000 -0.864557
126.600000 -0.919372
126.650000 -1.015296
126.700000 -1.152332
126.750000 -1.282516
126.800000 -1.405848
126.850000 -1.522328
126.900000 -1.597698
126.950000 -1.614828
127.000000 -1.594272
127.050000 -1.529180
127.100000 -1.398996
127.150000 -1.244831
127.200000 -1.094092
127.250000 -0.912519
127.300000 -0.717245
127.350000 -0.573357
127.400000 -0.487709
127.450000 -0.426043
127.500000 -0.395210
127.550000 -0.426043
127.600000 -0.521968
127.650000 -0.631597
127.700000 -0.730948
127.750000 -0.813169
127.800000 -0.895390
127.850000 -0.946779
127.900000 -0.950204
127.950000 -0.919372
128.000000 -0.878261
128.050000 -0.823447
128.100000 -0.754928
128.150000 -0.700115
128.200000 -0.659004
128.250000 -0.641874
128.300000 -0.645300
128.350000 -0.700115
128.400000 -0.796039
128.450000 -0.902242
128.500000 -0.970760
128.550000 -1.029000
128.600000 -1.094092
128.650000 -1.111222
128.700000 -1.056407
128.750000 -0.967334
128.800000 -0.871409
128.850000 -0.741225
128.900000 -0.580209
128.950000 -0.446599
129.000000 -0.357526
129.050000 -0.275305
129.100000 -0.213639
129.150000 -0.247898
129.200000 -0.354099
129.250000 -0.456876
129.300000 -0.573357
129.350000 -0.761781
129.400000 -0.970760
129.450000 -1.118074
129.500000 -1.217424
129.550000 -1.285942
129.600000 -1.320201
129.650000 -1.313349
129.700000 -1.258535
129.750000 -1.179740
129.800000 -1.124925
129.850000 -1.083814
129.900000 -1.005019
129.950000 -0.929649
130.000000 -0.909094
130.050000 -0.909094
130.100000 -0.895390
130.150000 -0.915946
130.200000 -0.963908
130.250000 -0.998167
130.300000 -1.035852
130.350000 -1.100944
130.400000 -1.128350
130.450000 -1.121499
130.500000 -1.145480
130.550000 -1.186591
130.600000 -1.203720
130.650000 -1.210572
130.700000 -1.244831
130.750000 -1.261961
130.800000 -1.244832
130.850000 -1.220850
130.900000 -1.210572
130.950000 -1.193443
131.000000 -1.162610
131.050000 -1.118073
131.100000 -1.059834
131.150000 -1.022149
131.200000 -1.015296
131.250000 -1.015297
131.300000 -1.018722
131.350000 -1.049555
131.400000 -1.121499
131.450000 -1.190017
131.500000 -1.241405
131.550000 -1.296219
131.600000 -1.368163
131.650000 -1.412700
131.700000 -1.398997
131.750000 -1.351034
131.800000 -1.303071
131.850000 -1.234553
131.900000 -1.148906
131.950000 -1.104370
132.000000 -1.104369
132.050000 -1.097518
132.100000 -1.097518
132.150000 -1.135203
132.200000 -1.172888
132.250000 -1.210573
132.300000 -1.285941
132.350000 -1.351034
132.400000 -1.357885
132.450000 -1.351034
132.500000 -1.344182
132.550000 -1.289368
132.600000 -1.207146
132.650000 -1.135202
132.700000 -1.059833
132.750000 -0.998168
132.800000 -0.977612
132.850000 -0.974186
132.900000 -0.943353
132.950000 -0.922798
133.000000 -0.950205
133.050000 -0.963908
133.100000 -0.963908
133.150000 -1.001593
133.200000 -1.052981
133.250000 -1.049555
133.300000 -1.005019
133.350000 -0.984463
133.400000 -0.981038
133.450000 -0.936501
133.500000 -0.874835
133.550000 -0.830298
133.600000 -0.799466
133.650000 -0.768633
133.700000 -0.734374
133.750000 -0.710392
133.800000 -0.696689
133.850000 -0.686412
133.900000 -0.682985
133.950000 -0.703540
134.000000 -0.744652
134.050000 -0.782336
134.100000 -0.806317
134.150000 -0.830299
134.200000 -0.861131
134.250000 -0.867983
134.300000 -0.840576
134.350000 -0.837150
134.400000 -0.847428
134.450000 -0.837151
134.500000 -0.816595
134.550000 -0.816595
134.600000 -0.833724
134.650000 -0.844002
134.700000 -0.857705
134.750000 -0.912520
134.800000 -1.015297
134.850000 -1.100943
134.900000 -1.131777
134.950000 -1.172888
135.000000 -1.255108
135.050000 -1.316775
135.100000 -1.327052
135.150000 -1.333905
135.200000 -1.347608
135.250000 -1.333904
135.300000 -1.282516
135.350000 -1.224275
135.400000 -1.176313
135.450000 -1.128351
135.500000 -1.080389
135.550000 -1.032426
135.600000 -0.981038
135.650000 -0.915945
135.700000 -0.864557
135.750000 -0.837150
135.800000 -0.796040
135.850000 -0.734373
135.900000 -0.713818
135.950000 -0.724096
136.000000 -0.734374
136.050000 -0.737800
136.100000 -0.717244
136.150000 -0.682985
136.200000 -0.662430
136.250000 -0.676134
136.300000 -0.669282
136.350000 -0.638448
136.400000 -0.624745
136.450000 -0.648727
136.500000 -0.655578
136.550000 -0.652152
136.600000 -0.696688
136.650000 -0.758355
136.700000 -0.785762
136.750000 -0.809743
136.800000 -0.871409
136.850000 -0.922797
136.900000 -0.946779
136.950000 -0.977611
137.000000 -1.015296
137.050000 -1.022149
137.100000 -1.011870
137.150000 -1.011871
137.200000 -0.998167
137.250000 -0.963909
137.300000 -0.943353
137.350000 -0.953630
137.400000 -0.970760
137.450000 -0.994741
137.500000 -1.049556
137.550000 -1.145480
137.600000 -1.251683
137.650000 -1.330478
137.700000 -1.378441
137.750000 -1.440107
137.800000 -1.491495
137.850000 -1.498347
137.900000 -1.477791
137.950000 -1.464088
138.000000 -1.436681
138.050000 -1.378441
138.100000 -1.306497
138.150000 -1.220850
138.200000 -1.138629
138.250000 -1.083815
138.300000 -1.049555
138.350000 -1.039278
138.400000 -1.070111
138.450000 -1.087241
138.500000 -1.049555
138.550000 -1.025574
138.600000 -1.035852
138.650000 -0.991316
138.700000 -0.878261
138.750000 -0.799465
138.800000 -0.744651
138.850000 -0.641874
138.900000 -0.549376
138.950000 -0.511690
139.000000 -0.460302
139.050000 -0.371230
139.100000 -0.333544
139.150000 -0.354099
139.200000 -0.388358
139.250000 -0.415766
139.300000 -0.463728
139.350000 -0.528820
139.400000 -0.621319
139.450000 -0.727522
139.500000 -0.823447
139.550000 -0.943353
139.600000 -1.090666
139.650000 -1.213998
139.700000 -1.309923
139.750000 -1.402423
139.800000 -1.494921
139.850000 -1.546309
139.900000 -1.563439
139.950000 -1.525754
140.000000 -1.450385
140.050000 -1.378441
140.100000 -1.292793
140.150000 -1.162610
140.200000 -1.025574
140.250000 -0.926224
140.300000 -0.833724
140.350000 -0.741225
140.400000 -0.706967
140.450000 -0.737799
140.500000 -0.785762
140.550000 -0.854280
140.600000 -0.960482
140.650000 -1.090667
140.700000 -1.207146
140.750000 -1.285942
140.800000 -1.330478
140.850000 -1.333905
140.900000 -1.296220
140.950000 -1.220850
141.000000 -1.138629
141.050000 -1.042703
141.100000 -0.926223
141.150000 -0.847428
141.200000 -0.840576
141.250000 -0.847428
141.300000 -0.847428
141.350000 -0.878261
141.400000 -0.950204
141.450000 -1.029000
141.500000 -1.100944
141.550000 -1.162609
141.600000 -1.203720
141.650000 -1.224276
141.700000 -1.210573
141.750000 -1.159184
141.800000 -1.111222
141.850000 -1.094092
141.900000 -1.059833
141.950000 -1.032426
142.000000 -1.052981
142.050000 -1.090666
142.100000 -1.100944
142.150000 -1.135203
142.200000 -1.220850
142.250000 -1.292794
142.300000 -1.320201
142.350000 -1.351034
142.400000 -1.392144
142.450000 -1.388719
142.500000 -1.364737
142.550000 -1.371589
142.600000 -1.398996
142.650000 -1.378441
142.700000 -1.337330
142.750000 -1.320201
142.800000 -1.323627
142.850000 -1.296219
142.900000 -1.227702
142.950000 -1.162610
143.000000 -1.100943
143.050000 -1.001593
143.100000 -0.861132
143.150000 -0.758355
143.200000 -0.703541
143.250000 -0.645301
143.300000 -0.597338
143.350000 -0.621319
143.400000 -0.679560
143.450000 -0.734374
143.500000 -0.820021
143.550000 -0.974186
143.600000 -1.142054
143.650000 -1.289368
143.700000 -1.426404
143.750000 -1.549735
143.800000 -1.631957
143.850000 -1.662790
143.900000 -1.645660
143.950000 -1.614827
144.000000 -1.563439
144.050000 -1.453811
144.100000 -1.316775
144.150000 -1.196869
144.200000 -1.094092
144.250000 -0.994741
144.300000 -0.936501
144.350000 -0.915945
144.400000 -0.919372
144.450000 -0.933075
144.500000 -0.967334
144.550000 -1.005019
144.600000 -1.070110
144.650000 -1.148907
144.700000 -1.193443
144.750000 -1.207147
144.800000 -1.231128
144.850000 -1.258535
144.900000 -1.258534
144.950000 -1.258535
145.000000 -1.258535
145.050000 -1.244831
145.100000 -1.224276
145.150000 -1.248258
145.200000 -1.299646
145.250000 -1.327052
145.300000 -1.344182
145.350000 -1.375015
145.400000 -1.416126
145.450000 -1.446958
145.500000 -1.460663
145.550000 -1.443533
145.600000 -1.422978
145.650000 -1.416125
145.700000 -1.385292
145.750000 -1.313349
145.800000 -1.220850
145.850000 -1.145481
145.900000 -1.076963
145.950000 -1.018723
146.000000 -0.974185
146.050000 -0.933076
146.100000 -0.898816
146.150000 -0.902243
146.200000 -0.926223
146.250000 -0.946779
146.300000 -0.977612
146.350000 -1.052982
146.400000 -1.148907
146.450000 -1.234553
146.500000 -1.313349
146.550000 -1.405848
146.600000 -1.491495
146.650000 -1.536032
146.700000 -1.546310
146.750000 -1.563439
146.800000 -1.573717
146.850000 -1.560013
146.900000 -1.525754
146.950000 -1.477792
147.000000 -1.416126
147.050000 -1.333904
147.100000 -1.265387
147.150000 -1.200294
147.200000 -1.128350
147.250000 -1.070111
147.300000 -1.046130
147.350000 -1.039278
147.400000 -1.035852
147.450000 -1.032426
147.500000 -1.015297
147.550000 -0.984464
147.600000 -0.960482
147.650000 -0.936502
147.700000 -0.919372
147.750000 -0.915946
147.800000 -0.905668
147.850000 -0.864558
147.900000 -0.802892
147.950000 -0.772058
148.000000 -0.761781
148.050000 -0.734373
148.100000 -0.703541
148.150000 -0.700114
148.200000 -0.720670
148.250000 -0.741225
148.300000 -0.778910
148.350000 -0.840576
148.400000 -0.891965
148.450000 -0.905668
148.500000 -0.922798
148.550000 -0.981037
148.600000 -1.059833
148.650000 -1.118073
148.700000 -1.152332
148.750000 -1.186591
148.800000 -1.220850
148.850000 -1.241405
148.900000 -1.248257
148.950000 -1.237979
149.000000 -1.196869
149.050000 -1.145480
149.100000 -1.114647
149.150000 -1.080389
149.200000 -1.032426
149.250000 -0.998168
149.300000 -0.984463
149.350000 -0.981037
149.400000 -0.987889
149.450000 -1.015297
149.500000 -1.035852
149.550000 -1.052981
149.600000 -1.083815
149.650000 -1.128351
149.700000 -1.145480
149.750000 -1.121499
149.800000 -1.066685
149.850000 -0.998168
149.900000 -0.898816
149.950000 -0.802891
150.000000 -0.710392
150.050000 -0.607615
150.100000 -0.487710
150.150000 -0.405488
150.200000 -0.378081
150.250000 -0.357526
150.300000 -0.330119
150.350000 -0.354099
150.400000 -0.429470
150.450000 -0.521968
150.500000 -0.604190
150.550000 -0.696688
150.600000 -0.789187
150.650000 -0.857706
150.700000 -0.867983
150.750000 -0.847428
150.800000 -0.826872
150.850000 -0.789188
150.900000 -0.703540
150.950000 -0.628171
151.000000 -0.604190
151.050000 -0.580208
151.100000 -0.542524
151.150000 -0.559653
151.200000 -0.641874
151.250000 -0.727522
151.300000 -0.806317
151.350000 -0.874835
151.400000 -0.922798
151.450000 -0.970760
151.500000 -1.001593
151.550000 -0.974186
151.600000 -0.902243
151.650000 -0.833724
151.700000 -0.765207
151.750000 -0.686411
151.800000 -0.655578
151.850000 -0.672708
151.900000 -0.696689
151.950000 -0.754928
152.000000 -0.857706
152.050000 -0.943353
152.100000 -0.987889
152.150000 -1.042704
152.200000 -1.100944
152.250000 -1.100944
152.300000 -1.059833
152.350000 -1.025574
152.400000 -0.981038
152.450000 -0.891964
152.500000 -0.782336
152.550000 -0.696689
152.600000 -0.652152
152.650000 -0.628171
152.700000 -0.631597
152.750000 -0.665856
152.800000 -0.741225
152.850000 -0.844002
152.900000 -0.960482
152.950000 -1.100944
153.000000 -1.265386
153.050000 -1.412700
153.100000 -1.512051
153.150000 -1.587420
153.200000 -1.649086
153.250000 -1.673067
153.300000 -1.642234
153.350000 -1.590846
153.400000 -1.525754
153.450000 -1.440107
153.500000 -1.330479
153.550000 -1.213998
153.600000 -1.118073
153.650000 -1.063259
153.700000 -1.025574
153.750000 -0.998167
153.800000 -0.987889
153.850000 -1.001593
153.900000 -1.032426
153.950000 -1.070111
154.000000 -1.114647
154.050000 -1.145480
154.100000 -1.148907
154.150000 -1.148907
154.200000 -1.152333
154.250000 -1.155758
154.300000 -1.148906
154.350000 -1.159184
154.400000 -1.176313
154.450000 -1.169462
154.500000 -1.166035
154.550000 -1.213999
154.600000 -1.265387
154.650000 -1.272238
154.700000 -1.275664
154.750000 -1.306497
154.800000 -1.320201
154.850000 -1.292793
154.900000 -1.258534
154.950000 -1.227702
155.000000 -1.190017
155.050000 -1.176314
155.100000 -1.200294
155.150000 -1.227702
155.200000 -1.251683
155.250000 -1.296220
155.300000 -1.330479
155.350000 -1.340756
155.400000 -1.354460
155.450000 -1.344182
155.500000 -1.265387
155.550000 -1.183166
155.600000 -1.142055
155.650000 -1.063260
155.700000 -0.926223
155.750000 -0.813169
155.800000 -0.737800
155.850000 -0.652153
155.900000 -0.556227
155.950000 -0.504839
156.000000 -0.497987
156.050000 -0.518543
156.100000 -0.559653
156.150000 -0.617893
156.200000 -0.703540
156.250000 -0.799465
156.300000 -0.881687
156.350000 -0.953631
156.400000 -1.039278
156.450000 -1.104370
156.500000 -1.118073
156.550000 -1.124925
156.600000 -1.128351
156.650000 -1.090667
156.700000 -0.998167
156.750000 -0.915946
156.800000 -0.861132
156.850000 -0.799466
156.900000 -0.713819
156.950000 -0.652152
157.000000 -0.659004
157.050000 -0.679559
157.100000 -0.706967
157.150000 -0.775484
157.200000 -0.867984
157.250000 -0.929650
157.300000 -0.970760
157.350000 -1.042704
157.400000 -1.107796
157.450000 -1.124925
157.500000 -1.104370
157.550000 -1.090666
157.600000 -1.080389
157.650000 -1.052981
157.700000 -0.998167
157.750000 -0.946779
157.800000 -0.922798
157.850000 -0.898816
157.900000 -0.844003
157.950000 -0.823447
158.000000 -0.847428
158.050000 -0.844002
158.100000 -0.826873
158.150000 -0.857706
158.200000 -0.902242
158.250000 -0.902242
158.300000 -0.878261
158.350000 -0.891965
158.400000 -0.922798
158.450000 -0.922797
158.500000 -0.902243
158.550000 -0.891965
158.600000 -0.909094
158.650000 -0.915946
158.700000 -0.895391
158.750000 -0.885113
158.800000 -0.905668
158.850000 -0.926224
158.900000 -0.936501
158.950000 -0.998167
159.000000 -1.121499
159.050000 -1.237980
159.100000 -1.333904
159.150000 -1.436681
159.200000 -1.525754
159.250000 -1.566865
159.300000 -1.556587
159.350000 -1.518902
159.400000 -1.467514
159.450000 -1.405848
159.500000 -1.309923
159.550000 -1.176314
159.600000 -1.046129
159.650000 -0.929649
159.700000 -0.806318
159.750000 -0.713818
159.800000 -0.686412
159.850000 -0.682985
159.900000 -0.676133
159.950000 -0.700114
160.000000 -0.748077
160.050000 -0.782336
160.100000 -0.816595
160.150000 -0.867983
160.200000 -0.929649
160.250000 -0.998167
160.300000 -1.063259
160.350000 -1.111221
160.400000 -1.145481
160.450000 -1.176313
160.500000 -1.186591
160.550000 -1.190017
160.600000 -1.210573
160.650000 -1.210572
160.700000 -1.169462
160.750000 -1.148907
160.800000 -1.190017
160.850000 -1.237980
160.900000 -1.268812
160.950000 -1.303072
161.000000 -1.357885
161.050000 -1.398997
161.100000 -1.419552
161.150000 -1.409274
161.200000 -1.388719
161.250000 -1.364738
161.300000 -1.296220
161.350000 -1.186591
161.400000 -1.094092
161.450000 -1.035852
161.500000 -0.977612
161.550000 -0.950204
161.600000 -0.974186
161.650000 -1.011871
161.700000 -1.039278
161.750000 -1.090666
161.800000 -1.169462
161.850000 -1.217424
161.900000 -1.220850
161.950000 -1.203721
162.000000 -1.169462
162.050000 -1.111221
162.100000 -1.042704
162.150000 -0.991315
162.200000 -0.950205
162.250000 -0.909094
162.300000 -0.871409
162.350000 -0.850854
162.400000 -0.878261
162.450000 -0.933076
162.500000 -0.960482
162.550000 -1.005019
162.600000 -1.076963
162.650000 -1.124925
162.700000 -1.124925
162.750000 -1.128351
162.800000 -1.124925
162.850000 -1.094092
162.900000 -1.066685
162.950000 -1.059833
163.000000 -1.042704
163.050000 -1.022148
163.100000 -1.015297
163.150000 -1.018722
163.200000 -1.042703
163.250000 -1.073537
163.300000 -1.073537
163.350000 -1.070111
163.400000 -1.097518
163.450000 -1.118073
163.500000 -1.097518
163.550000 -1.083815
163.600000 -1.073536
163.650000 -1.039278
163.700000 -0.991316
163.750000 -0.970760
163.800000 -0.953630
163.850000 -0.909094
163.900000 -0.861131
163.950000 -0.816595
164.000000 -0.816595
164.050000 -0.850853
164.100000 -0.878261
164.150000 -0.891965
164.200000 -0.939927
164.250000 -0.994741
164.300000 -1.022148
164.350000 -1.042703
164.400000 -1.090666
164.450000 -1.114648
164.500000 -1.104369
164.550000 -1.097518
164.600000 -1.104370
164.650000 -1.076963
164.700000 -1.015297
164.750000 -0.974185
164.800000 -0.984464
164.850000 -0.987890
164.900000 -0.974186
164.950000 -0.998167
165.000000 -1.080388
165.050000 -1.179739
165.100000 -1.268813
165.150000 -1.351034
165.200000 -1.422977
165.250000 -1.467514
165.300000 -1.470940
165.350000 -1.450385
165.400000 -1.405848
165.450000 -1.316775
165.500000 -1.186591
165.550000 -1.076962
165.600000 -1.011871
165.650000 -0.946779
165.700000 -0.874835
165.750000 -0.837150
165.800000 -0.861132
165.850000 -0.919371
165.900000 -0.963908
165.950000 -0.994741
166.000000 -1.042703
166.050000 -1.111222
166.100000 -1.172887
166.150000 -1.234554
166.200000 -1.316775
166.250000 -1.392145
166.300000 -1.453811
166.350000 -1.515476
166.400000 -1.566865
166.450000 -1.573717
166.500000 -1.546309
166.550000 -1.501773
166.600000 -1.436681
166.650000 -1.337330
166.700000 -1.203720
166.750000 -1.063259
166.800000 -0.963909
166.850000 -0.915945
166.900000 -0.902242
166.950000 -0.909094
167.000000 -0.960483
167.050000 -1.029001
167.100000 -1.076963
167.150000 -1.131776
167.200000 -1.203720
167.250000 -1.224276
167.300000 -1.166036
167.350000 -1.118074
167.400000 -1.083814
167.450000 -0.994741
167.500000 -0.864558
167.550000 -0.775484
167.600000 -0.720670
167.650000 -0.682985
167.700000 -0.693263
167.750000 -0.741225
167.800000 -0.782336
167.850000 -0.847428
167.900000 -0.922798
167.950000 -0.963908
168.000000 -1.011870
168.050000 -1.080388
168.100000 -1.111222
168.150000 -1.124925
168.200000 -1.176313
168.250000 -1.234554
168.300000 -1.244832
168.350000 -1.272239
168.400000 -1.340756
168.450000 -1.392145
168.500000 -1.429830
168.550000 -1.488069
168.600000 -1.522329
168.650000 -1.512051
168.700000 -1.484643
168.750000 -1.450385
168.800000 -1.416126
168.850000 -1.375016
168.900000 -1.303072
168.950000 -1.217424
169.000000 -1.183165
169.050000 -1.169462
169.100000 -1.145481
169.150000 -1.128351
169.200000 -1.135202
169.250000 -1.142054
169.300000 -1.131777
169.350000 -1.118073
169.400000 -1.094092
169.450000 -1.042704
169.500000 -0.977612
169.550000 -0.885113
169.600000 -0.775485
169.650000 -0.679560
169.700000 -0.600764
169.750000 -0.549375
169.800000 -0.525394
169.850000 -0.528820
169.900000 -0.573356
169.950000 -0.672707
170.000000 -0.806317
170.050000 -0.926224
170.100000 -1.039278
170.150000 -1.179740
170.200000 -1.296219
170.250000 -1.327052
170.300000 -1.330478
170.350000 -1.313349
170.400000 -1.234554
170.450000 -1.124925
170.500000 -1.029000
170.550000 -0.929649
170.600000 -0.840576
170.650000 -0.813169
170.700000 -0.806317
170.750000 -0.768632
170.800000 -0.751503
170.850000 -0.782336
170.900000 -0.820021
170.950000 -0.861132
171.000000 -0.926223
171.050000 -0.981038
171.100000 -1.005019
171.150000 -1.022149
171.200000 -1.011870
171.250000 -0.970760
171.300000 -0.943352
171.350000 -0.926224
171.400000 -0.909094
171.450000 -0.919371
171.500000 -0.946779
171.550000 -0.953631
171.600000 -0.963908
171.650000 -1.005019
171.700000 -1.049555
171.750000 -1.111221
171.800000 -1.210572
171.850000 -1.282516
171.900000 -1.327053
171.950000 -1.381867
172.000000 -1.446959
172.050000 -1.460662
172.100000 -1.453811
172.150000 -1.470940
172.200000 -1.464089
172.250000 -1.395570
172.300000 -1.303071
172.350000 -1.217424
172.400000 -1.114647
172.450000 -0.987889
172.500000 -0.874835
172.550000 -0.785762
172.600000 -0.730947
172.650000 -0.700115
172.700000 -0.720670
172.750000 -0.796040
172.800000 -0.912520
172.850000 -1.049555
172.900000 -1.193442
172.950000 -1.354460
173.000000 -1.515476
173.050000 -1.645660
173.100000 -1.693623
173.150000 -1.676493
173.200000 -1.625105
173.250000 -1.498347
173.300000 -1.292794
173.350000 -1.100944
173.400000 -0.939927
173.450000 -0.765207
173.500000 -0.583635
173.550000 -0.456876
173.600000 -0.408914
173.650000 -0.388359
173.700000 -0.412340
173.750000 -0.494561
173.800000 -0.580209
173.850000 -0.648727
173.900000 -0.713818
173.950000 -0.785762
174.000000 -0.854280
174.050000 -0.888538
174.100000 -0.867983
174.150000 -0.820021
174.200000 -0.792614
174.250000 -0.772059
174.300000 -0.748077
174.350000 -0.765207
174.400000 -0.833724
174.450000 -0.915946
174.500000 -1.001593
174.550000 -1.114648
174.600000 -1.220850
174.650000 -1.303072
174.700000 -1.368163
174.750000 -1.433255
174.800000 -1.484643
174.850000 -1.508624
174.900000 -1.491496
174.950000 -1.467514
175.000000 -1.464088
175.050000 -1.450385
175.100000 -1.402422
175.150000 -1.354459
175.200000 -1.320201
175.250000 -1.296219
175.300000 -1.265387
175.350000 -1.255109
175.400000 -1.258535
175.450000 -1.251683
175.500000 -1.237980
175.550000 -1.241405
175.600000 -1.234554
175.650000 -1.207147
175.700000 -1.179740
175.750000 -1.166035
175.800000 -1.159184
175.850000 -1.155758
175.900000 -1.148907
175.950000 -1.148906
176.000000 -1.166036
176.050000 -1.200294
176.100000 -1.210572
176.150000 -1.210572
176.200000 -1.231128
176.250000 -1.251683
176.300000 -1.234553
176.350000 -1.203720
176.400000 -1.169462
176.450000 -1.107796
176.500000 -1.005018
176.550000 -0.905668
176.600000 -0.833724
176.650000 -0.761781
176.700000 -0.696688
176.750000 -0.665855
176.800000 -0.652152
176.850000 -0.635023
176.900000 -0.662430
176.950000 -0.748077
177.000000 -0.847428
177.050000 -0.943352
177.100000 -1.087240
177.150000 -1.258535
177.200000 -1.398996
177.250000 -1.491495
177.300000 -1.580569
177.350000 -1.662790
177.400000 -1.686771
177.450000 -1.652512
177.500000 -1.590846
177.550000 -1.505199
177.600000 -1.368163
177.650000 -1.196868
177.700000 -1.035851
177.750000 -0.926223
177.800000 -0.854280
177.850000 -0.792614
177.900000 -0.737799
177.950000 -0.703540
178.000000 -0.703541
178.050000 -0.730948
178.100000 -0.775485
178.150000 -0.820021
178.200000 -0.854280
178.250000 -0.871410
178.300000 -0.878261
178.350000 -0.895391
178.400000 -0.943353
178.450000 -0.970760
178.500000 -0.943353
178.550000 -0.936501
178.600000 -1.005019
178.650000 -1.094092
178.700000 -1.135203
178.750000 -1.152332
178.800000 -1.186591
178.850000 -1.220850
178.900000 -1.237979
178.950000 -1.265387
179.000000 -1.320201
179.050000 -1.361312
179.100000 -1.364738
179.150000 -1.371589
179.200000 -1.398996
179.250000 -1.405848
179.300000 -1.354460
179.350000 -1.289368
179.400000 -1.231127
179.450000 -1.148906
179.500000 -1.011871
179.550000 -0.864558
179.600000 -0.741225
179.650000 -0.628171
179.700000 -0.521968
179.750000 -0.474006
179.800000 -0.504839
179.850000 -0.573357
179.900000 -0.659004
179.950000 -0.782336
180.000000 -0.946779
180.050000 -1.114648
180.100000 -1.248257
180.150000 -1.357885
180.200000 -1.422978
180.250000 -1.412700
180.300000 -1.347608
180.350000 -1.261961
180.400000 -1.166036
180.450000 -1.042704
180.500000 -0.898817
180.550000 -0.785762
180.600000 -0.713818
180.650000 -0.676134
180.700000 -0.669282
180.750000 -0.686412
180.800000 -0.734373
180.850000 -0.799466
180.900000 -0.861131
180.950000 -0.915945
181.000000 -0.963909
181.050000 -0.977611
181.100000 -0.946779
181.150000 -0.915946
181.200000 -0.915946
181.250000 -0.929649
181.300000 -0.929649
181.350000 -0.950205
181.400000 -0.998167
181.450000 -1.042703
181.500000 -1.076963
181.550000 -1.138628
181.600000 -1.203720
181.650000 -1.234554
181.700000 -1.234554
181.750000 -1.224276
181.800000 -1.200294
181.850000 -1.138628
181.900000 -1.039277
181.950000 -0.922798
182.000000 -0.833724
182.050000 -0.775484
182.100000 -0.717245
182.150000 -0.659004
182.200000 -0.648726
182.250000 -0.672708
182.300000 -0.693263
182.350000 -0.730947
182.400000 -0.809743
182.450000 -0.867983
182.500000 -0.874835
182.550000 -0.891965
182.600000 -0.963909
182.650000 -1.001593
182.700000 -0.987890
182.750000 -1.001593
182.800000 -1.056407
182.850000 -1.094092
182.900000 -1.114648
182.950000 -1.162610
183.000000 -1.217424
183.050000 -1.231128
183.100000 -1.241405
183.150000 -1.261961
183.200000 -1.272238
183.250000 -1.248258
183.300000 -1.227702
183.350000 -1.244831
183.400000 -1.279090
183.450000 -1.303072
183.500000 -1.316775
183.550000 -1.357886
183.600000 -1.416126
183.650000 -1.440107
183.700000 -1.433255
183.750000 -1.395571
183.800000 -1.330479
183.850000 -1.234554
183.900000 -1.118073
183.950000 -0.994742
184.000000 -0.912520
184.050000 -0.878261
184.100000 -0.854280
184.150000 -0.878261
184.200000 -0.977611
184.250000 -1.080388
184.300000 -1.162610
184.350000 -1.275665
184.400000 -1.412700
184.450000 -1.498347
184.500000 -1.525754
184.550000 -1.549735
184.600000 -1.529180
184.650000 -1.446959
184.700000 -1.347608
184.750000 -1.272239
184.800000 -1.203720
184.850000 -1.135203
184.900000 -1.090666
184.950000 -1.076963
185.000000 -1.083814
185.050000 -1.087241
185.100000 -1.097518
185.150000 -1.118074
185.200000 -1.121500
185.250000 -1.070111
185.300000 -1.001593
185.350000 -0.963909
185.400000 -0.939927
185.450000 -0.867983
185.500000 -0.789188
185.550000 -0.751503
185.600000 -0.744651
185.650000 -0.751503
185.700000 -0.772059
185.750000 -0.792613
185.800000 -0.816595
185.850000 -0.854280
185.900000 -0.881687
185.950000 -0.878261
186.000000 -0.861132
186.050000 -0.867983
186.100000 -0.871409
186.150000 -0.833724
186.200000 -0.778910
186.250000 -0.730947
186.300000 -0.682986
186.350000 -0.638449
186.400000 -0.635022
186.450000 -0.655578
186.500000 -0.682985
186.550000 -0.730948
186.600000 -0.820021
186.650000 -0.933075
186.700000 -1.049556
186.750000 -1.183165
186.800000 -1.337330
186.850000 -1.491495
186.900000 -1.611402
186.950000 -1.690197
187.000000 -1.745011
187.050000 -1.792973
187.100000 -1.799825
187.150000 -1.748437
187.200000 -1.679920
187.250000 -1.604550
187.300000 -1.508625
187.350000 -1.371589
187.400000 -1.234553
187.450000 -1.100943
187.500000 -0.957057
187.550000 -0.813169
187.600000 -0.710393
187.650000 -0.617893
187.700000 -0.521968
187.750000 -0.467154
187.800000 -0.463729
187.850000 -0.453451
187.900000 -0.450025
187.950000 -0.515116
188.000000 -0.621319
188.050000 -0.713818
188.100000 -0.816595
188.150000 -0.943353
188.200000 -1.063259
188.250000 -1.172887
188.300000 -1.279091
188.350000 -1.381867
188.400000 -1.464088
188.450000 -1.529180
188.500000 -1.539458
188.550000 -1.515476
188.600000 -1.494921
188.650000 -1.453811
188.700000 -1.344182
188.750000 -1.207147
188.800000 -1.107796
188.850000 -1.011870
188.900000 -0.888539
