time[ns] Raw_signal[mV]
-11.150000 -0.046455
-11.100000 -0.008770
-11.050000 0.001508
-11.000000 0.015211
-10.950000 0.073451
-10.900000 0.114562
-10.850000 0.111136
-10.800000 0.104284
-10.750000 0.094007
-10.700000 0.056321
-10.650000 0.008359
-10.600000 -0.039604
-10.550000 -0.097843
-10.500000 -0.135528
-10.450000 -0.138955
-10.400000 -0.142380
-10.350000 -0.132103
-10.300000 -0.084140
-10.250000 -0.001918
-10.200000 0.090581
-10.150000 0.203635
-10.100000 0.306411
-10.050000 0.378356
-10.000000 0.429744
-9.950000 0.446873
-9.900000 0.392059
-9.850000 0.306411
-9.800000 0.224190
-9.750000 0.114562
-9.700000 -0.029325
-9.650000 -0.145806
-9.600000 -0.245157
-9.550000 -0.358211
-9.500000 -0.443859
-9.450000 -0.478117
-9.400000 -0.467840
-9.350000 -0.443858
-9.300000 -0.392470
-9.250000 -0.337656
-9.200000 -0.255434
-9.150000 -0.169787
-9.100000 -0.114973
-9.050000 -0.070437
-9.000000 0.008359
-8.950000 0.080303
-8.900000 0.124839
-8.850000 0.183080
-8.800000 0.258450
-8.750000 0.309837
-8.700000 0.344097
-8.650000 0.385207
-8.600000 0.426317
-8.550000 0.433169
-8.500000 0.398910
-8.450000 0.333819
-8.400000 0.289282
-8.350000 0.244745
-8.300000 0.172802
-8.250000 0.076876
-8.200000 0.001507
-8.150000 -0.067010
-8.100000 -0.162936
-8.050000 -0.252009
-8.000000 -0.313675
-7.950000 -0.365063
-7.900000 -0.416451
-7.850000 -0.440432
-7.800000 -0.406174
-7.750000 -0.323952
-7.700000 -0.231453
-7.650000 -0.135528
-7.600000 -0.049881
-7.550000 0.028914
-7.500000 0.111136
-7.450000 0.189932
-7.400000 0.255023
-7.350000 0.316689
-7.300000 0.337244
-7.250000 0.292708
-7.200000 0.241320
-7.150000 0.217338
-7.100000 0.200208
-7.050000 0.183079
-7.000000 0.189931
-6.950000 0.227616
-6.900000 0.272153
-6.850000 0.361226
-6.800000 0.481132
-6.750000 0.583908
-6.700000 0.679833
-6.650000 0.786036
-6.600000 0.861406
-6.550000 0.875110
-6.500000 0.833998
-6.450000 0.772333
-6.400000 0.683260
-6.350000 0.553076
-6.300000 0.371503
-6.250000 0.200209
-6.200000 0.063173
-6.150000 -0.080714
-6.100000 -0.248583
-6.050000 -0.375340
-6.000000 -0.443859
-5.950000 -0.498672
-5.900000 -0.536357
-5.850000 -0.526080
-5.800000 -0.491821
-5.750000 -0.467840
-5.700000 -0.433581
-5.650000 -0.385618
-5.600000 -0.361637
-5.550000 -0.375340
-5.500000 -0.389044
-5.450000 -0.385618
-5.400000 -0.389044
-5.350000 -0.419878
-5.300000 -0.460988
-5.250000 -0.481543
-5.200000 -0.488395
-5.150000 -0.488394
-5.100000 -0.481543
-5.050000 -0.447284
-5.000000 -0.368489
-4.950000 -0.255434
-4.900000 -0.142380
-4.850000 -0.012196
-4.800000 0.117987
-4.750000 0.241320
-4.700000 0.368077
-4.650000 0.487984
-4.600000 0.542798
-4.550000 0.529095
-4.500000 0.511965
-4.450000 0.467428
-4.400000 0.371503
-4.350000 0.272152
-4.300000 0.179654
-4.250000 0.090580
-4.200000 0.035766
-4.150000 0.004934
-4.100000 -0.032752
-4.050000 -0.043030
-4.000000 0.011785
-3.950000 0.063173
-3.900000 0.100858
-3.850000 0.169376
-3.800000 0.244745
-3.750000 0.289282
-3.700000 0.330393
-3.650000 0.374929
-3.600000 0.378355
-3.550000 0.374930
-3.500000 0.385207
-3.450000 0.385207
-3.400000 0.398911
-3.350000 0.474280
-3.300000 0.474280
-3.250000 0.344096
-3.200000 0.326967
-3.150000 0.477706
-3.100000 0.501687
-3.050000 0.361226
-3.000000 0.371504
-2.950000 0.487984
-2.900000 0.433169
-2.850000 0.337245
-2.800000 0.333818
-2.750000 0.234468
-2.700000 0.114562
-2.650000 0.210487
-2.600000 0.258449
-2.550000 0.015211
-2.500000 -0.132102
-2.450000 -0.032752
-2.400000 -0.104695
-2.350000 -0.299971
-2.300000 -0.258860
-2.250000 -0.193769
-2.200000 -0.347933
-2.150000 -0.385618
-2.100000 -0.183491
-2.050000 -0.132102
-2.000000 -0.265712
-1.950000 -0.289693
-1.900000 -0.186916
-1.850000 -0.060159
-1.800000 0.094007
-1.750000 0.141969
-1.700000 0.025488
-1.650000 -0.008770
-1.600000 0.080303
-1.550000 0.056322
-1.500000 -0.029326
-1.450000 0.059748
-1.400000 0.196783
-1.350000 0.179653
-1.300000 0.138543
-1.250000 0.117988
-1.200000 0.056321
-1.150000 0.111136
-1.100000 0.340671
-1.050000 0.378355
-1.000000 0.162524
-0.950000 0.155672
-0.900000 0.381781
-0.850000 0.433169
-0.800000 0.409189
-0.750000 0.559927
-0.700000 0.645575
-0.650000 0.525669
-0.600000 0.501687
-0.550000 0.570206
-0.500000 0.474280
-0.450000 0.285856
-0.400000 0.203635
-0.350000 0.111136
-0.300000 -0.077288
-0.250000 -0.245157
-0.200000 -0.371915
-0.150000 -0.515802
-0.100000 -0.632282
-0.050000 -0.663116
0.000000 -0.622005
0.050000 -0.529506
0.100000 -0.443858
0.150000 -0.395896
0.200000 -0.252008
0.250000 -0.019048
0.300000 0.059748
0.350000 0.008359
0.400000 0.104284
0.450000 0.313264
0.500000 0.388633
0.550000 0.385207
0.600000 0.460577
0.650000 0.518817
0.700000 0.487984
0.750000 0.505113
0.800000 0.628445
0.850000 0.792888
0.900000 1.049830
0.950000 1.508899
1.000000 2.194077
1.050000 3.115641
1.100000 4.372943
1.150000 6.034500
1.200000 8.117442
1.250000 10.601214
1.300000 13.465259
1.350000 16.675315
1.400000 20.104626
1.450000 23.588758
1.500000 27.103724
1.550000 30.673501
1.600000 34.137079
1.650000 37.343709
1.700000 40.317380
1.750000 43.075232
1.800000 45.480202
1.850000 47.515172
1.900000 49.317192
1.950000 50.889682
2.000000 52.157262
2.050000 53.113082
2.100000 53.767422
2.150000 54.130572
2.200000 54.209362
2.250000 53.914732
2.300000 53.181602
2.350000 52.092162
2.400000 50.708102
2.450000 48.988312
2.500000 46.946482
2.550000 44.654552
2.600000 42.136532
2.650000 39.426652
2.700000 36.651672
2.750000 33.856152
2.800000 31.022942
2.850000 28.234272
2.900000 25.634012
2.950000 23.256452
3.000000 21.094714
3.050000 19.224176
3.100000 17.692806
3.150000 16.473182
3.200000 15.551624
3.250000 14.955519
3.300000 14.681449
3.350000 14.684870
3.400000 14.917836
3.450000 15.370049
3.500000 16.038096
3.550000 16.829479
3.600000 17.648267
3.650000 18.491036
3.700000 19.364636
3.750000 20.200551
3.800000 20.981660
3.850000 21.707944
3.900000 22.276642
3.950000 22.636364
4.000000 22.865896
4.050000 22.944692
4.100000 22.749422
4.150000 22.304055
4.200000 21.725080
4.250000 20.954253
4.300000 19.933339
4.350000 18.734277
4.400000 17.439284
4.450000 16.041524
4.500000 14.578670
4.550000 13.126092
4.600000 11.742032
4.650000 10.453898
4.700000 9.271966
4.750000 8.230496
4.800000 7.415134
4.850000 6.822455
4.900000 6.397644
4.950000 6.144128
5.000000 6.055055
5.050000 6.085888
5.100000 6.198942
5.150000 6.394219
5.200000 6.647734
5.250000 6.908102
5.300000 7.151340
5.350000 7.391156
5.400000 7.617263
5.450000 7.833091
5.500000 8.042074
5.550000 8.244195
5.600000 8.446329
5.650000 8.631322
5.700000 8.799193
5.750000 8.960206
5.800000 9.097245
5.850000 9.179471
5.900000 9.186319
5.950000 9.128079
6.000000 9.018450
6.050000 8.843730
6.100000 8.579936
6.150000 8.223644
6.200000 7.822815
6.250000 7.363746
6.300000 6.825881
6.350000 6.253756
6.400000 5.709040
6.450000 5.184879
6.500000 4.664143
6.550000 4.177667
6.600000 3.739154
6.650000 3.324621
6.700000 2.961476
6.750000 2.711387
6.800000 2.584629
6.850000 2.492129
6.900000 2.379075
6.950000 2.313983
7.000000 2.334538
7.050000 2.358520
7.100000 2.341390
7.150000 2.361945
7.200000 2.430463
7.250000 2.492129
7.300000 2.564073
7.350000 2.697683
7.400000 2.827867
7.450000 2.944347
7.500000 3.091660
7.550000 3.256103
7.600000 3.396565
7.650000 3.526748
7.700000 3.653507
7.750000 3.728875
7.800000 3.769986
7.850000 3.814523
7.900000 3.835079
7.950000 3.814523
8.000000 3.787116
8.050000 3.749431
8.100000 3.670636
8.150000 3.537026
8.200000 3.365731
8.250000 3.170455
8.300000 2.927218
8.350000 2.636016
8.400000 2.283150
8.450000 1.920006
8.500000 1.577416
8.550000 1.258809
8.600000 0.974460
8.650000 0.758629
8.700000 0.607890
8.750000 0.511965
8.800000 0.491409
8.850000 0.532520
8.900000 0.587335
8.950000 0.652426
9.000000 0.731222
9.050000 0.772333
9.100000 0.765481
9.150000 0.758629
9.200000 0.734647
9.250000 0.659278
9.300000 0.580482
9.350000 0.539373
9.400000 0.494835
9.450000 0.477706
9.500000 0.546224
9.550000 0.662704
9.600000 0.803165
9.650000 0.988164
9.700000 1.217698
9.750000 1.454085
9.800000 1.673342
9.850000 1.844636
9.900000 1.933709
9.950000 1.981671
10.000000 1.978245
10.050000 1.872043
10.100000 1.652786
10.150000 1.402696
10.200000 1.132051
10.250000 0.820295
10.300000 0.515391
10.350000 0.244745
10.400000 0.001507
10.450000 -0.183491
10.500000 -0.303397
10.550000 -0.351359
10.600000 -0.299971
10.650000 -0.190343
10.700000 -0.080714
10.750000 0.049470
10.800000 0.220764
10.850000 0.364652
10.900000 0.460577
10.950000 0.522243
11.000000 0.518817
11.050000 0.440021
11.100000 0.333819
11.150000 0.224190
11.200000 0.104284
11.250000 0.008359
11.300000 -0.060159
11.350000 -0.108121
11.400000 -0.114973
11.450000 -0.070436
11.500000 -0.012197
11.550000 0.090580
11.600000 0.244745
11.650000 0.392059
11.700000 0.491410
11.750000 0.583909
11.800000 0.669556
11.850000 0.714092
11.900000 0.724370
11.950000 0.710667
12.000000 0.679833
12.050000 0.631871
12.100000 0.566779
12.150000 0.487984
12.200000 0.409188
12.250000 0.340671
12.300000 0.227616
12.350000 0.073451
12.400000 -0.053307
12.450000 -0.183490
12.500000 -0.368489
12.550000 -0.529506
12.600000 -0.618579
12.650000 -0.717930
12.700000 -0.817280
12.750000 -0.803577
12.800000 -0.728207
12.850000 -0.697374
12.900000 -0.676818
12.950000 -0.598023
13.000000 -0.495247
13.050000 -0.392470
13.100000 -0.296545
13.150000 -0.207472
13.200000 -0.135528
13.250000 -0.060158
13.300000 -0.029326
13.350000 -0.015622
13.400000 0.066599
13.450000 0.189932
13.500000 0.234468
13.550000 0.220764
13.600000 0.241319
13.650000 0.248171
13.700000 0.169376
13.750000 0.052896
13.800000 -0.056732
13.850000 -0.176639
13.900000 -0.310248
13.950000 -0.419877
14.000000 -0.484969
14.050000 -0.536357
14.100000 -0.580894
14.150000 -0.601450
14.200000 -0.580894
14.250000 -0.570617
14.300000 -0.611727
14.350000 -0.649412
14.400000 -0.683671
14.450000 -0.755615
14.500000 -0.848113
14.550000 -0.920058
14.600000 -0.981723
14.650000 -1.067370
14.700000 -1.115333
14.750000 -1.108481
14.800000 -1.063944
14.850000 -0.985150
14.900000 -0.872094
14.950000 -0.738485
15.000000 -0.584320
15.050000 -0.443858
15.100000 -0.327378
15.150000 -0.231454
15.200000 -0.159509
15.250000 -0.118399
15.300000 -0.108122
15.350000 -0.108121
15.400000 -0.125250
15.450000 -0.173213
15.500000 -0.221176
15.550000 -0.258860
15.600000 -0.313675
15.650000 -0.368489
15.700000 -0.399322
15.750000 -0.440433
15.800000 -0.502099
15.850000 -0.532932
15.900000 -0.519228
15.950000 -0.512376
16.000000 -0.532931
16.050000 -0.553487
16.100000 -0.574042
16.150000 -0.608301
16.200000 -0.649411
16.250000 -0.697374
16.300000 -0.772744
16.350000 -0.872095
16.400000 -0.992001
16.450000 -1.108481
16.500000 -1.228387
16.550000 -1.341441
16.600000 -1.406533
16.650000 -1.416811
16.700000 -1.372274
16.750000 -1.293480
16.800000 -1.163295
16.850000 -0.985149
16.900000 -0.783021
16.950000 -0.608301
17.000000 -0.454136
17.050000 -0.303397
17.100000 -0.186917
17.150000 -0.132103
17.200000 -0.108121
17.250000 -0.097843
17.300000 -0.108121
17.350000 -0.156084
17.400000 -0.214324
17.450000 -0.258861
17.500000 -0.282842
17.550000 -0.293119
17.600000 -0.289693
17.650000 -0.262286
17.700000 -0.221175
17.750000 -0.200620
17.800000 -0.197194
17.850000 -0.214324
17.900000 -0.248582
17.950000 -0.306823
18.000000 -0.385618
18.050000 -0.464414
18.100000 -0.553487
18.150000 -0.645986
18.200000 -0.717930
18.250000 -0.772744
18.300000 -0.813854
18.350000 -0.851540
18.400000 -0.865243
18.450000 -0.834409
18.500000 -0.800151
18.550000 -0.776170
18.600000 -0.735059
18.650000 -0.700800
18.700000 -0.711078
18.750000 -0.731633
18.800000 -0.717929
18.850000 -0.704226
18.900000 -0.724781
18.950000 -0.721355
19.000000 -0.652837
19.050000 -0.574042
19.100000 -0.519228
19.150000 -0.443859
19.200000 -0.344508
19.250000 -0.262287
19.300000 -0.193768
19.350000 -0.125251
19.400000 -0.073862
19.450000 -0.046455
19.500000 -0.060159
19.550000 -0.084139
19.600000 -0.125250
19.650000 -0.210898
19.700000 -0.334230
19.750000 -0.450710
19.800000 -0.532932
19.850000 -0.625430
19.900000 -0.741911
19.950000 -0.854966
20.000000 -0.950890
20.050000 -1.050241
20.100000 -1.135889
20.150000 -1.187276
20.200000 -1.207832
20.250000 -1.187276
20.300000 -1.105055
20.350000 -0.992001
20.400000 -0.882372
20.450000 -0.759040
20.500000 -0.608301
20.550000 -0.454136
20.600000 -0.306823
20.650000 -0.183491
20.700000 -0.104695
20.750000 -0.070437
20.800000 -0.046456
20.850000 -0.049881
20.900000 -0.118399
20.950000 -0.204046
21.000000 -0.269138
21.050000 -0.323953
21.100000 -0.361637
21.150000 -0.378767
21.200000 -0.399322
21.250000 -0.426729
21.300000 -0.440433
21.350000 -0.460987
21.400000 -0.515802
21.450000 -0.598024
21.500000 -0.676819
21.550000 -0.755614
21.600000 -0.851539
21.650000 -0.954316
21.700000 -1.026260
21.750000 -1.063944
21.800000 -1.111907
21.850000 -1.173573
21.900000 -1.224961
21.950000 -1.238665
22.000000 -1.242091
22.050000 -1.269498
22.100000 -1.296905
22.150000 -1.272924
22.200000 -1.197554
22.250000 -1.108481
22.300000 -1.009130
22.350000 -0.878946
22.400000 -0.707652
22.450000 -0.508951
22.500000 -0.299972
22.550000 -0.094418
22.600000 0.083729
22.650000 0.217339
22.700000 0.313264
22.750000 0.368078
22.800000 0.357799
22.850000 0.282430
22.900000 0.155672
22.950000 -0.008770
23.000000 -0.200620
23.050000 -0.395896
23.100000 -0.577468
23.150000 -0.759040
23.200000 -0.937186
23.250000 -1.094777
23.300000 -1.221535
23.350000 -1.331164
23.400000 -1.399682
23.450000 -1.440793
23.500000 -1.457922
23.550000 -1.427089
23.600000 -1.344868
23.650000 -1.259220
23.700000 -1.170147
23.750000 -1.063945
23.800000 -0.964594
23.850000 -0.916631
23.900000 -0.906353
23.950000 -0.920057
24.000000 -0.981723
24.050000 -1.077649
24.100000 -1.176999
24.150000 -1.272924
24.200000 -1.351719
24.250000 -1.403108
24.300000 -1.423663
24.350000 -1.416811
24.400000 -1.368849
24.450000 -1.303757
24.500000 -1.218110
24.550000 -1.111906
24.600000 -1.015982
24.650000 -0.971446
24.700000 -0.950890
24.750000 -0.957742
24.800000 -1.012556
24.850000 -1.070796
24.900000 -1.105055
24.950000 -1.159870
25.000000 -1.242091
25.050000 -1.293479
25.100000 -1.310609
25.150000 -1.331164
25.200000 -1.358571
25.250000 -1.389404
25.300000 -1.430514
25.350000 -1.475052
25.400000 -1.536718
25.450000 -1.618939
25.500000 -1.697734
25.550000 -1.749123
25.600000 -1.800511
25.650000 -1.845048
25.700000 -1.862177
25.750000 -1.848473
25.800000 -1.803936
25.850000 -1.694309
25.900000 -1.502458
25.950000 -1.286628
26.000000 -1.087926
26.050000 -0.896076
26.100000 -0.707652
26.150000 -0.553487
26.200000 -0.437006
26.250000 -0.358212
26.300000 -0.317100
26.350000 -0.323952
26.400000 -0.371914
26.450000 -0.454136
26.500000 -0.546635
26.550000 -0.642560
26.600000 -0.752189
26.650000 -0.854965
26.700000 -0.947464
26.750000 -1.033112
26.800000 -1.135888
26.850000 -1.235239
26.900000 -1.314035
26.950000 -1.375700
27.000000 -1.433940
27.050000 -1.495607
27.100000 -1.543569
27.150000 -1.550421
27.200000 -1.512736
27.250000 -1.464774
27.300000 -1.406534
27.350000 -1.320886
27.400000 -1.228388
27.450000 -1.156443
27.500000 -1.101629
27.550000 -1.087926
27.600000 -1.108481
27.650000 -1.132462
27.700000 -1.163295
27.750000 -1.231813
27.800000 -1.296905
27.850000 -1.331164
27.900000 -1.348293
27.950000 -1.341442
28.000000 -1.286627
28.050000 -1.200980
28.100000 -1.101630
28.150000 -0.968019
28.200000 -0.824132
28.250000 -0.704226
28.300000 -0.611727
28.350000 -0.556913
28.400000 -0.539784
28.450000 -0.546635
28.500000 -0.570616
28.550000 -0.635709
28.600000 -0.728208
28.650000 -0.803577
28.700000 -0.882372
28.750000 -0.968019
28.800000 -1.005704
28.850000 -1.015983
28.900000 -1.036537
28.950000 -1.036537
29.000000 -0.988575
29.050000 -0.937187
29.100000 -0.906353
29.150000 -0.875520
29.200000 -0.834410
29.250000 -0.800151
29.300000 -0.793299
29.350000 -0.793299
29.400000 -0.817281
29.450000 -0.854965
29.500000 -0.892650
29.550000 -0.920057
29.600000 -0.947464
29.650000 -0.992001
29.700000 -1.019407
29.750000 -1.002279
29.800000 -0.968019
29.850000 -0.961167
29.900000 -0.978297
29.950000 -0.981723
30.000000 -0.998853
30.050000 -1.057093
30.100000 -1.122184
30.150000 -1.173573
30.200000 -1.228388
30.250000 -1.314034
30.300000 -1.403108
30.350000 -1.468199
30.400000 -1.519588
30.450000 -1.584680
30.500000 -1.653197
30.550000 -1.687457
30.600000 -1.690882
30.650000 -1.687457
30.700000 -1.684030
30.750000 -1.660050
30.800000 -1.629216
30.850000 -1.584680
30.900000 -1.529865
30.950000 -1.475051
31.000000 -1.416811
31.050000 -1.358571
31.100000 -1.320887
31.150000 -1.303757
31.200000 -1.293479
31.250000 -1.290053
31.300000 -1.307183
31.350000 -1.327738
31.400000 -1.327738
31.450000 -1.310609
31.500000 -1.286627
31.550000 -1.238665
31.600000 -1.166721
31.650000 -1.094777
31.700000 -1.022834
31.750000 -0.930334
31.800000 -0.834410
31.850000 -0.776170
31.900000 -0.759040
31.950000 -0.748762
32.000000 -0.755614
32.050000 -0.789873
32.100000 -0.854965
32.150000 -0.937187
32.200000 -1.002278
32.250000 -1.046816
32.300000 -1.101630
32.350000 -1.166721
32.400000 -1.224961
32.450000 -1.248943
32.500000 -1.245517
32.550000 -1.255794
32.600000 -1.279775
32.650000 -1.300331
32.700000 -1.317460
32.750000 -1.368849
32.800000 -1.437367
32.850000 -1.502458
32.900000 -1.564124
32.950000 -1.646346
33.000000 -1.725141
33.050000 -1.759400
33.100000 -1.766252
33.150000 -1.759400
33.200000 -1.714863
33.250000 -1.632642
33.300000 -1.546995
33.350000 -1.454496
33.400000 -1.324312
33.450000 -1.183851
33.500000 -1.060518
33.550000 -0.964593
33.600000 -0.896076
33.650000 -0.868669
33.700000 -0.868669
33.750000 -0.889224
33.800000 -0.944038
33.850000 -1.053667
33.900000 -1.218110
33.950000 -1.392830
34.000000 -1.533291
34.050000 -1.663476
34.100000 -1.786807
34.150000 -1.889584
34.200000 -1.944399
34.250000 -1.951250
34.300000 -1.903287
34.350000 -1.793659
34.400000 -1.639494
34.450000 -1.468200
34.500000 -1.290053
34.550000 -1.108481
34.600000 -0.920057
34.650000 -0.755615
34.700000 -0.656264
34.750000 -0.611727
34.800000 -0.580894
34.850000 -0.594597
34.900000 -0.680245
34.950000 -0.796725
35.000000 -0.920057
35.050000 -1.067370
35.100000 -1.207832
35.150000 -1.324312
35.200000 -1.457922
35.250000 -1.584680
35.300000 -1.656623
35.350000 -1.677178
35.400000 -1.701160
35.450000 -1.711438
35.500000 -1.673753
35.550000 -1.612086
35.600000 -1.536718
35.650000 -1.464774
35.700000 -1.420237
35.750000 -1.427089
35.800000 -1.468199
35.850000 -1.536717
35.900000 -1.636068
35.950000 -1.766252
36.000000 -1.910140
36.050000 -2.043749
36.100000 -2.143100
36.150000 -2.201340
36.200000 -2.211617
36.250000 -2.153377
36.300000 -2.040323
36.350000 -1.872455
36.400000 -1.660049
36.450000 -1.430515
36.500000 -1.207832
36.550000 -0.998853
36.600000 -0.827558
36.650000 -0.748763
36.700000 -0.741911
36.750000 -0.779595
36.800000 -0.875521
36.850000 -1.026260
36.900000 -1.187277
36.950000 -1.341442
37.000000 -1.471626
37.050000 -1.557272
37.100000 -1.577828
37.150000 -1.560699
37.200000 -1.516162
37.250000 -1.433941
37.300000 -1.351719
37.350000 -1.296905
37.400000 -1.248943
37.450000 -1.207832
37.500000 -1.204406
37.550000 -1.242091
37.600000 -1.300331
37.650000 -1.382553
37.700000 -1.499033
37.750000 -1.598383
37.800000 -1.660049
37.850000 -1.708011
37.900000 -1.725141
37.950000 -1.697734
38.000000 -1.660049
38.050000 -1.622364
38.100000 -1.567551
38.150000 -1.519588
38.200000 -1.492181
38.250000 -1.454496
38.300000 -1.420237
38.350000 -1.437367
38.400000 -1.475051
38.450000 -1.495607
38.500000 -1.523014
38.550000 -1.581254
38.600000 -1.629217
38.650000 -1.656623
38.700000 -1.701160
38.750000 -1.735419
38.800000 -1.731994
38.850000 -1.725141
38.900000 -1.728568
38.950000 -1.708012
39.000000 -1.666901
39.050000 -1.642920
39.100000 -1.625791
39.150000 -1.605235
39.200000 -1.594957
39.250000 -1.591531
39.300000 -1.564125
39.350000 -1.529865
39.400000 -1.529866
39.450000 -1.557272
39.500000 -1.560698
39.550000 -1.540143
39.600000 -1.540144
39.650000 -1.564125
39.700000 -1.574403
39.750000 -1.560699
39.800000 -1.557273
39.850000 -1.584680
39.900000 -1.639494
39.950000 -1.694308
40.000000 -1.718290
40.050000 -1.731993
40.100000 -1.766252
40.150000 -1.803937
40.200000 -1.817640
40.250000 -1.821066
40.300000 -1.838195
40.350000 -1.834770
40.400000 -1.810788
40.450000 -1.803937
40.500000 -1.807362
40.550000 -1.797085
40.600000 -1.769678
40.650000 -1.725141
40.700000 -1.677179
40.750000 -1.639494
40.800000 -1.605235
40.850000 -1.557273
40.900000 -1.502458
40.950000 -1.468199
41.000000 -1.430515
41.050000 -1.382552
41.100000 -1.365423
41.150000 -1.375701
41.200000 -1.385978
41.250000 -1.413385
41.300000 -1.461348
41.350000 -1.509310
41.400000 -1.550421
41.450000 -1.601809
41.500000 -1.629216
41.550000 -1.629216
41.600000 -1.632643
41.650000 -1.639494
41.700000 -1.601809
41.750000 -1.536718
41.800000 -1.481903
41.850000 -1.403108
41.900000 -1.290054
41.950000 -1.183851
42.000000 -1.122185
42.050000 -1.081074
42.100000 -1.057093
42.150000 -1.046815
42.200000 -1.067371
42.250000 -1.111907
42.300000 -1.180425
42.350000 -1.235239
42.400000 -1.252369
42.450000 -1.269498
42.500000 -1.317460
42.550000 -1.348293
42.600000 -1.334590
42.650000 -1.307183
42.700000 -1.307182
42.750000 -1.300331
42.800000 -1.269498
42.850000 -1.259220
42.900000 -1.290053
42.950000 -1.327738
43.000000 -1.348293
43.050000 -1.368849
43.100000 -1.389404
43.150000 -1.389404
43.200000 -1.358571
43.250000 -1.327738
43.300000 -1.279776
43.350000 -1.214684
43.400000 -1.180425
43.450000 -1.180424
43.500000 -1.173573
43.550000 -1.173573
43.600000 -1.221535
43.650000 -1.303757
43.700000 -1.379126
43.750000 -1.457922
43.800000 -1.543569
43.850000 -1.605235
43.900000 -1.615513
43.950000 -1.601809
44.000000 -1.570976
44.050000 -1.499033
44.100000 -1.403108
44.150000 -1.338015
44.200000 -1.303757
44.250000 -1.269498
44.300000 -1.231813
44.350000 -1.221536
44.400000 -1.262646
44.450000 -1.314035
44.500000 -1.358571
44.550000 -1.403107
44.600000 -1.430515
44.650000 -1.454496
44.700000 -1.481903
44.750000 -1.471625
44.800000 -1.423663
44.850000 -1.372275
44.900000 -1.314034
44.950000 -1.242090
45.000000 -1.183851
45.050000 -1.153017
45.100000 -1.132462
45.150000 -1.142740
45.200000 -1.183851
45.250000 -1.221536
45.300000 -1.255795
45.350000 -1.317460
45.400000 -1.396256
45.450000 -1.471625
45.500000 -1.557273
45.550000 -1.615513
45.600000 -1.625790
45.650000 -1.649771
45.700000 -1.694309
45.750000 -1.701160
45.800000 -1.666902
45.850000 -1.625790
45.900000 -1.574402
45.950000 -1.509310
46.000000 -1.451070
46.050000 -1.403107
46.100000 -1.344867
46.150000 -1.303757
46.200000 -1.300330
46.250000 -1.276350
46.300000 -1.228387
46.350000 -1.207832
46.400000 -1.235239
46.450000 -1.262647
46.500000 -1.283201
46.550000 -1.307182
46.600000 -1.320886
46.650000 -1.320887
46.700000 -1.320886
46.750000 -1.307183
46.800000 -1.279776
46.850000 -1.242091
46.900000 -1.194129
46.950000 -1.149592
47.000000 -1.115333
47.050000 -1.098204
47.100000 -1.101629
47.150000 -1.132462
47.200000 -1.194128
47.250000 -1.283201
47.300000 -1.403107
47.350000 -1.550421
47.400000 -1.697735
47.450000 -1.838196
47.500000 -1.961528
47.550000 -2.060879
47.600000 -2.112267
47.650000 -2.105415
47.700000 -2.057453
47.750000 -1.982084
47.800000 -1.862177
47.850000 -1.711438
47.900000 -1.553847
47.950000 -1.379127
48.000000 -1.200980
48.050000 -1.067370
48.100000 -1.012556
48.150000 -0.988574
48.200000 -0.978297
48.250000 -1.043389
48.300000 -1.170147
48.350000 -1.283201
48.400000 -1.375701
48.450000 -1.516162
48.500000 -1.670327
48.550000 -1.773104
48.600000 -1.845048
48.650000 -1.903288
48.700000 -1.923843
48.750000 -1.899862
48.800000 -1.851899
48.850000 -1.793659
48.900000 -1.721715
48.950000 -1.653198
49.000000 -1.584680
49.050000 -1.533292
49.100000 -1.509310
49.150000 -1.495606
49.200000 -1.468199
49.250000 -1.451070
49.300000 -1.464773
49.350000 -1.471625
49.400000 -1.447644
49.450000 -1.440792
49.500000 -1.471626
49.550000 -1.468200
49.600000 -1.440793
49.650000 -1.437366
49.700000 -1.457922
49.750000 -1.464774
49.800000 -1.478477
49.850000 -1.519588
49.900000 -1.536717
49.950000 -1.519588
50.000000 -1.499032
50.050000 -1.499032
50.100000 -1.488755
50.150000 -1.451070
50.200000 -1.385978
50.250000 -1.331164
50.300000 -1.296905
50.350000 -1.276350
50.400000 -1.262646
50.450000 -1.279776
50.500000 -1.327738
50.550000 -1.385978
50.600000 -1.444218
50.650000 -1.502459
50.700000 -1.560699
50.750000 -1.608661
50.800000 -1.649772
50.850000 -1.697735
50.900000 -1.735419
50.950000 -1.735419
51.000000 -1.718290
51.050000 -1.721715
51.100000 -1.745697
51.150000 -1.755975
51.200000 -1.766252
51.250000 -1.786808
51.300000 -1.810789
51.350000 -1.824492
51.400000 -1.824492
51.450000 -1.810788
51.500000 -1.773104
51.550000 -1.714863
51.600000 -1.649772
51.650000 -1.584679
51.700000 -1.499033
51.750000 -1.420237
51.800000 -1.355145
51.850000 -1.314035
51.900000 -1.279776
51.950000 -1.248943
52.000000 -1.221535
52.050000 -1.218109
52.100000 -1.224961
52.150000 -1.238664
52.200000 -1.252369
52.250000 -1.272924
52.300000 -1.300331
52.350000 -1.338015
52.400000 -1.382553
52.450000 -1.451070
52.500000 -1.543569
52.550000 -1.625790
52.600000 -1.690882
52.650000 -1.776530
52.700000 -1.872455
52.750000 -1.923843
52.800000 -1.923843
52.850000 -1.920417
52.900000 -1.896436
52.950000 -1.817641
53.000000 -1.701160
53.050000 -1.584680
53.100000 -1.478477
53.150000 -1.396255
53.200000 -1.334590
53.250000 -1.293479
53.300000 -1.293479
53.350000 -1.320886
53.400000 -1.351720
53.450000 -1.392830
53.500000 -1.451070
53.550000 -1.502459
53.600000 -1.526440
53.650000 -1.536717
53.700000 -1.529865
53.750000 -1.495606
53.800000 -1.430514
53.850000 -1.368849
53.900000 -1.317460
53.950000 -1.259220
54.000000 -1.204406
54.050000 -1.180425
54.100000 -1.170148
54.150000 -1.166721
54.200000 -1.224962
54.250000 -1.361997
54.300000 -1.516162
54.350000 -1.673753
54.400000 -1.865603
54.450000 -2.088286
54.500000 -2.286987
54.550000 -2.427448
54.600000 -2.519947
54.650000 -2.557632
54.700000 -2.530225
54.750000 -2.434301
54.800000 -2.273284
54.850000 -2.078008
54.900000 -1.875880
54.950000 -1.677179
55.000000 -1.492181
55.050000 -1.351720
55.100000 -1.286627
55.150000 -1.279776
55.200000 -1.293479
55.250000 -1.344867
55.300000 -1.430514
55.350000 -1.509310
55.400000 -1.574402
55.450000 -1.615513
55.500000 -1.605235
55.550000 -1.516162
55.600000 -1.396256
55.650000 -1.272924
55.700000 -1.142740
55.750000 -1.009130
55.800000 -0.906354
55.850000 -0.854965
55.900000 -0.848113
55.950000 -0.885799
56.000000 -0.954316
56.050000 -1.053666
56.100000 -1.183851
56.150000 -1.300331
56.200000 -1.351719
56.250000 -1.372275
56.300000 -1.372274
56.350000 -1.307183
56.400000 -1.183851
56.450000 -1.060519
56.500000 -0.940613
56.550000 -0.810429
56.600000 -0.676819
56.650000 -0.598023
56.700000 -0.594597
56.750000 -0.628856
56.800000 -0.693948
56.850000 -0.796725
56.900000 -0.947464
56.950000 -1.101629
57.000000 -1.259220
57.050000 -1.409959
57.100000 -1.523014
57.150000 -1.601809
57.200000 -1.684030
57.250000 -1.755974
57.300000 -1.783382
57.350000 -1.779955
57.400000 -1.769678
57.450000 -1.738845
57.500000 -1.718290
57.550000 -1.701160
57.600000 -1.677179
57.650000 -1.642920
57.700000 -1.629216
57.750000 -1.618939
57.800000 -1.625791
57.850000 -1.653198
57.900000 -1.687456
57.950000 -1.701160
58.000000 -1.704586
58.050000 -1.725141
58.100000 -1.749122
58.150000 -1.738845
58.200000 -1.694308
58.250000 -1.653198
58.300000 -1.612087
58.350000 -1.536717
58.400000 -1.437367
58.450000 -1.358571
58.500000 -1.290054
58.550000 -1.204406
58.600000 -1.122185
58.650000 -1.081074
58.700000 -1.091351
58.750000 -1.142740
58.800000 -1.204406
58.850000 -1.276349
58.900000 -1.396256
58.950000 -1.536717
59.000000 -1.629216
59.050000 -1.677179
59.100000 -1.721715
59.150000 -1.735419
59.200000 -1.660049
59.250000 -1.536717
59.300000 -1.430515
59.350000 -1.293479
59.400000 -1.122184
59.450000 -0.985150
59.500000 -0.868669
59.550000 -0.762466
59.600000 -0.731633
59.650000 -0.779596
59.700000 -0.830984
59.750000 -0.872094
59.800000 -0.944038
59.850000 -1.057092
59.900000 -1.156444
59.950000 -1.214684
60.000000 -1.238665
60.050000 -1.252369
60.100000 -1.259220
60.150000 -1.238665
60.200000 -1.173573
60.250000 -1.091352
60.300000 -1.033112
60.350000 -0.995427
60.400000 -0.947465
60.450000 -0.913206
60.500000 -0.913206
60.550000 -0.926909
60.600000 -0.944038
60.650000 -1.012556
60.700000 -1.087926
60.750000 -1.139314
60.800000 -1.187276
60.850000 -1.238665
60.900000 -1.272924
60.950000 -1.290053
61.000000 -1.307183
61.050000 -1.307183
61.100000 -1.266072
61.150000 -1.214684
61.200000 -1.197554
61.250000 -1.197555
61.300000 -1.170147
61.350000 -1.135888
61.400000 -1.146166
61.450000 -1.176999
61.500000 -1.197555
61.550000 -1.242091
61.600000 -1.314035
61.650000 -1.385978
61.700000 -1.464773
61.750000 -1.560698
61.800000 -1.653198
61.850000 -1.728567
61.900000 -1.803936
61.950000 -1.875881
62.000000 -1.913565
62.050000 -1.910140
62.100000 -1.882733
62.150000 -1.817641
62.200000 -1.718289
62.250000 -1.615513
62.300000 -1.523014
62.350000 -1.423663
62.400000 -1.324313
62.450000 -1.272924
62.500000 -1.231813
62.550000 -1.194128
62.600000 -1.187276
62.650000 -1.221535
62.700000 -1.242091
62.750000 -1.252369
62.800000 -1.279775
62.850000 -1.300331
62.900000 -1.290053
62.950000 -1.283202
63.000000 -1.310609
63.050000 -1.361997
63.100000 -1.403107
63.150000 -1.437367
63.200000 -1.478477
63.250000 -1.516162
63.300000 -1.550421
63.350000 -1.574403
63.400000 -1.584680
63.450000 -1.564124
63.500000 -1.540143
63.550000 -1.519588
63.600000 -1.488755
63.650000 -1.440793
63.700000 -1.403107
63.750000 -1.392830
63.800000 -1.365423
63.850000 -1.307182
63.900000 -1.235239
63.950000 -1.183850
64.000000 -1.125611
64.050000 -1.053667
64.100000 -0.988575
64.150000 -0.937187
64.200000 -0.878946
64.250000 -0.854965
64.300000 -0.885798
64.350000 -0.933761
64.400000 -0.974871
64.450000 -1.043389
64.500000 -1.146166
64.550000 -1.242091
64.600000 -1.296905
64.650000 -1.334590
64.700000 -1.358571
64.750000 -1.382552
64.800000 -1.409959
64.850000 -1.423663
64.900000 -1.440792
64.950000 -1.481903
65.000000 -1.526440
65.050000 -1.570976
65.100000 -1.646346
65.150000 -1.742271
65.200000 -1.807363
65.250000 -1.841622
65.300000 -1.869029
65.350000 -1.848473
65.400000 -1.769678
65.450000 -1.666902
65.500000 -1.564124
65.550000 -1.461348
65.600000 -1.368849
65.650000 -1.303757
65.700000 -1.262646
65.750000 -1.238665
65.800000 -1.252369
65.850000 -1.307183
65.900000 -1.399682
65.950000 -1.505884
66.000000 -1.615513
66.050000 -1.731993
66.100000 -1.821066
66.150000 -1.838195
66.200000 -1.817641
66.250000 -1.793659
66.300000 -1.738845
66.350000 -1.636068
66.400000 -1.512736
66.450000 -1.396256
66.500000 -1.290053
66.550000 -1.204406
66.600000 -1.139314
66.650000 -1.105055
66.700000 -1.091351
66.750000 -1.094777
66.800000 -1.098204
66.850000 -1.129037
66.900000 -1.183851
66.950000 -1.245516
67.000000 -1.290054
67.050000 -1.324313
67.100000 -1.351719
67.150000 -1.368849
67.200000 -1.365423
67.250000 -1.358571
67.300000 -1.338015
67.350000 -1.300331
67.400000 -1.252369
67.450000 -1.197554
67.500000 -1.142740
67.550000 -1.098204
67.600000 -1.077648
67.650000 -1.084500
67.700000 -1.129036
67.750000 -1.200981
67.800000 -1.269498
67.850000 -1.344867
67.900000 -1.440792
67.950000 -1.550421
68.000000 -1.656623
68.050000 -1.749122
68.100000 -1.807363
68.150000 -1.845047
68.200000 -1.851899
68.250000 -1.803937
68.300000 -1.721716
68.350000 -1.649772
68.400000 -1.577828
68.450000 -1.468200
68.500000 -1.341442
68.550000 -1.259220
68.600000 -1.214684
68.650000 -1.166722
68.700000 -1.125611
68.750000 -1.094777
68.800000 -1.063944
68.850000 -1.050241
68.900000 -1.070797
68.950000 -1.070796
69.000000 -1.060519
69.050000 -1.094777
69.100000 -1.156443
69.150000 -1.190702
69.200000 -1.221536
69.250000 -1.283201
69.300000 -1.355145
69.350000 -1.423663
69.400000 -1.499032
69.450000 -1.557273
69.500000 -1.553847
69.550000 -1.492181
69.600000 -1.416811
69.650000 -1.344868
69.700000 -1.259220
69.750000 -1.118758
69.800000 -0.940613
69.850000 -0.807003
69.900000 -0.735059
69.950000 -0.687097
70.000000 -0.656263
70.050000 -0.673393
70.100000 -0.721356
70.150000 -0.772744
70.200000 -0.837836
70.250000 -0.926909
70.300000 -1.012556
70.350000 -1.074222
70.400000 -1.125611
70.450000 -1.166722
70.500000 -1.194128
70.550000 -1.204406
70.600000 -1.211258
70.650000 -1.248942
70.700000 -1.331164
70.750000 -1.413386
70.800000 -1.471626
70.850000 -1.546995
70.900000 -1.639494
70.950000 -1.697734
71.000000 -1.714863
71.050000 -1.714864
71.100000 -1.687457
71.150000 -1.612087
71.200000 -1.505884
71.250000 -1.409959
71.300000 -1.314034
71.350000 -1.190703
71.400000 -1.053667
71.450000 -0.974872
71.500000 -0.981723
71.550000 -1.022834
71.600000 -1.050241
71.650000 -1.111907
71.700000 -1.224961
71.750000 -1.341442
71.800000 -1.413386
71.850000 -1.454496
71.900000 -1.478477
71.950000 -1.478477
72.000000 -1.447645
72.050000 -1.396255
72.100000 -1.331164
72.150000 -1.266072
72.200000 -1.231813
72.250000 -1.245517
72.300000 -1.286627
72.350000 -1.324312
72.400000 -1.372274
72.450000 -1.440792
72.500000 -1.481903
72.550000 -1.468199
72.600000 -1.433941
72.650000 -1.351719
72.700000 -1.200981
72.750000 -1.019408
72.800000 -0.841261
72.850000 -0.659689
72.900000 -0.519228
72.950000 -0.467840
73.000000 -0.478117
73.050000 -0.536357
73.100000 -0.673393
73.150000 -0.875521
73.200000 -1.074222
73.250000 -1.245517
73.300000 -1.409960
73.350000 -1.540143
73.400000 -1.584680
73.450000 -1.567551
73.500000 -1.516162
73.550000 -1.423663
73.600000 -1.303757
73.650000 -1.197554
73.700000 -1.125611
73.750000 -1.077648
73.800000 -1.077648
73.850000 -1.153018
73.900000 -1.286628
73.950000 -1.427088
74.000000 -1.557272
74.050000 -1.697735
74.100000 -1.845047
74.150000 -1.930695
74.200000 -1.958101
74.250000 -1.982083
74.300000 -1.988935
74.350000 -1.927269
74.400000 -1.831343
74.450000 -1.735419
74.500000 -1.622365
74.550000 -1.495607
74.600000 -1.396256
74.650000 -1.310609
74.700000 -1.218109
74.750000 -1.163295
74.800000 -1.153017
74.850000 -1.156444
74.900000 -1.194128
74.950000 -1.255794
75.000000 -1.320886
75.050000 -1.385978
75.100000 -1.488755
75.150000 -1.581254
75.200000 -1.646346
75.250000 -1.725142
75.300000 -1.797085
75.350000 -1.803937
75.400000 -1.769678
75.450000 -1.728568
75.500000 -1.680605
75.550000 -1.615513
75.600000 -1.564124
75.650000 -1.523014
75.700000 -1.475051
75.750000 -1.413385
75.800000 -1.358571
75.850000 -1.334589
75.900000 -1.338016
75.950000 -1.341441
76.000000 -1.331164
76.050000 -1.327738
76.100000 -1.351719
76.150000 -1.361997
76.200000 -1.361997
76.250000 -1.358572
76.300000 -1.344867
76.350000 -1.320886
76.400000 -1.290053
76.450000 -1.272924
76.500000 -1.252369
76.550000 -1.190703
76.600000 -1.081074
76.650000 -0.971445
76.700000 -0.896076
76.750000 -0.817281
76.800000 -0.717929
76.850000 -0.645986
76.900000 -0.628857
76.950000 -0.632282
77.000000 -0.645986
77.050000 -0.711078
77.100000 -0.810429
77.150000 -0.899502
77.200000 -0.985149
77.250000 -1.105056
77.300000 -1.231814
77.350000 -1.324312
77.400000 -1.403107
77.450000 -1.468199
77.500000 -1.492181
77.550000 -1.519587
77.600000 -1.564125
77.650000 -1.591532
77.700000 -1.598383
77.750000 -1.608661
77.800000 -1.608661
77.850000 -1.605235
77.900000 -1.608661
77.950000 -1.594957
78.000000 -1.540143
78.050000 -1.505885
78.100000 -1.495607
78.150000 -1.468200
78.200000 -1.430515
78.250000 -1.385978
78.300000 -1.338016
78.350000 -1.283201
78.400000 -1.231813
78.450000 -1.194129
78.500000 -1.170148
78.550000 -1.153017
78.600000 -1.170147
78.650000 -1.221536
78.700000 -1.272924
78.750000 -1.303757
78.800000 -1.334590
78.850000 -1.399682
78.900000 -1.457922
78.950000 -1.492181
79.000000 -1.529865
79.050000 -1.618939
79.100000 -1.718290
79.150000 -1.779955
79.200000 -1.841622
79.250000 -1.927269
79.300000 -1.988935
79.350000 -1.988935
79.400000 -1.982083
79.450000 -1.978658
79.500000 -1.934121
79.550000 -1.834770
79.600000 -1.708012
79.650000 -1.560699
79.700000 -1.396256
79.750000 -1.238665
79.800000 -1.098203
79.850000 -0.978297
79.900000 -0.906353
79.950000 -0.878947
80.000000 -0.872095
80.050000 -0.892650
80.100000 -0.957742
80.150000 -1.063945
80.200000 -1.187276
80.250000 -1.307182
80.300000 -1.423663
80.350000 -1.516162
80.400000 -1.553847
80.450000 -1.546995
80.500000 -1.516162
80.550000 -1.444219
80.600000 -1.327738
80.650000 -1.180425
80.700000 -1.057093
80.750000 -0.950890
80.800000 -0.844687
80.850000 -0.745337
80.900000 -0.700800
80.950000 -0.711077
81.000000 -0.741911
81.050000 -0.779595
81.100000 -0.841262
81.150000 -0.933761
81.200000 -1.012556
81.250000 -1.070796
81.300000 -1.139314
81.350000 -1.207832
81.400000 -1.231813
81.450000 -1.255794
81.500000 -1.310609
81.550000 -1.341442
81.600000 -1.338016
81.650000 -1.341441
81.700000 -1.358571
81.750000 -1.338015
81.800000 -1.310609
81.850000 -1.293479
81.900000 -1.266072
81.950000 -1.228388
82.000000 -1.187277
82.050000 -1.142740
82.100000 -1.105055
82.150000 -1.084500
82.200000 -1.050241
82.250000 -0.992001
82.300000 -0.950890
82.350000 -0.923483
82.400000 -0.868668
82.450000 -0.824132
82.500000 -0.837835
82.550000 -0.865243
82.600000 -0.885798
82.650000 -0.944039
82.700000 -1.026260
82.750000 -1.074222
82.800000 -1.094777
82.850000 -1.132463
82.900000 -1.156443
82.950000 -1.156444
83.000000 -1.146166
83.050000 -1.135888
83.100000 -1.111907
83.150000 -1.094778
83.200000 -1.091351
83.250000 -1.105055
83.300000 -1.159869
83.350000 -1.224961
83.400000 -1.272924
83.450000 -1.334590
83.500000 -1.406534
83.550000 -1.423663
83.600000 -1.382552
83.650000 -1.320887
83.700000 -1.245516
83.750000 -1.142740
83.800000 -1.026260
83.850000 -0.920057
83.900000 -0.844688
83.950000 -0.813855
84.000000 -0.813854
84.050000 -0.827558
84.100000 -0.875520
84.150000 -0.950890
84.200000 -1.026260
84.250000 -1.108481
84.300000 -1.200980
84.350000 -1.269498
84.400000 -1.286627
84.450000 -1.293479
84.500000 -1.314035
84.550000 -1.331163
84.600000 -1.361997
84.650000 -1.409959
84.700000 -1.430514
84.750000 -1.433941
84.800000 -1.485329
84.850000 -1.546995
84.900000 -1.564125
84.950000 -1.543570
85.000000 -1.502458
85.050000 -1.433941
85.100000 -1.365423
85.150000 -1.290054
85.200000 -1.197554
85.250000 -1.122185
85.300000 -1.091352
85.350000 -1.067370
85.400000 -1.053667
85.450000 -1.087926
85.500000 -1.166721
85.550000 -1.235240
85.600000 -1.300331
85.650000 -1.372274
85.700000 -1.427089
85.750000 -1.451070
85.800000 -1.457922
85.850000 -1.461347
85.900000 -1.454496
85.950000 -1.451070
86.000000 -1.454496
86.050000 -1.457922
86.100000 -1.464773
86.150000 -1.478477
86.200000 -1.475052
86.250000 -1.464774
86.300000 -1.478477
86.350000 -1.454496
86.400000 -1.396256
86.450000 -1.361997
86.500000 -1.320886
86.550000 -1.224961
86.600000 -1.115333
86.650000 -1.063944
86.700000 -1.036538
86.750000 -0.964593
86.800000 -0.899502
86.850000 -0.875521
86.900000 -0.858391
86.950000 -0.834410
87.000000 -0.824132
87.050000 -0.848114
87.100000 -0.858391
87.150000 -0.844687
87.200000 -0.820706
87.250000 -0.810428
87.300000 -0.796725
87.350000 -0.779595
87.400000 -0.759041
87.450000 -0.776170
87.500000 -0.813854
87.550000 -0.834410
87.600000 -0.851540
87.650000 -0.913205
87.700000 -0.981723
87.750000 -0.992001
87.800000 -0.995427
87.850000 -1.029686
87.900000 -1.046815
87.950000 -1.005705
88.000000 -0.961167
88.050000 -0.940612
88.100000 -0.913205
88.150000 -0.872095
88.200000 -0.848114
88.250000 -0.834410
88.300000 -0.834410
88.350000 -0.861817
88.400000 -0.899502
88.450000 -0.937187
88.500000 -0.992001
88.550000 -1.033111
88.600000 -1.036537
88.650000 -1.057093
88.700000 -1.129037
88.750000 -1.190703
88.800000 -1.207832
88.850000 -1.242091
88.900000 -1.314035
88.950000 -1.365423
89.000000 -1.382552
89.050000 -1.416811
89.100000 -1.433940
89.150000 -1.385979
89.200000 -1.293479
89.250000 -1.207832
89.300000 -1.125610
89.350000 -1.012556
89.400000 -0.899501
89.450000 -0.810429
89.500000 -0.748763
89.550000 -0.721355
89.600000 -0.741911
89.650000 -0.810428
89.700000 -0.899501
89.750000 -1.015982
89.800000 -1.142740
89.850000 -1.266072
89.900000 -1.382552
89.950000 -1.485329
90.000000 -1.560699
90.050000 -1.612087
90.100000 -1.625790
90.150000 -1.591532
90.200000 -1.543570
90.250000 -1.488755
90.300000 -1.413385
90.350000 -1.320886
90.400000 -1.248943
90.450000 -1.200980
90.500000 -1.163296
90.550000 -1.125611
90.600000 -1.098203
90.650000 -1.067371
90.700000 -1.012556
90.750000 -0.940613
90.800000 -0.875520
90.850000 -0.807003
90.900000 -0.735059
90.950000 -0.669967
91.000000 -0.622004
91.050000 -0.584320
91.100000 -0.577469
91.150000 -0.622005
91.200000 -0.690523
91.250000 -0.755614
91.300000 -0.827558
91.350000 -0.916631
91.400000 -1.012556
91.450000 -1.084500
91.500000 -1.146166
91.550000 -1.207832
91.600000 -1.255794
91.650000 -1.276349
91.700000 -1.283201
91.750000 -1.272924
91.800000 -1.255794
91.850000 -1.259221
91.900000 -1.266072
91.950000 -1.235239
92.000000 -1.197554
92.050000 -1.204406
92.100000 -1.231813
92.150000 -1.224961
92.200000 -1.211257
92.250000 -1.204406
92.300000 -1.187276
92.350000 -1.156443
92.400000 -1.118759
92.450000 -1.070796
92.500000 -1.015982
92.550000 -0.968019
92.600000 -0.920057
92.650000 -0.878947
92.700000 -0.851540
92.750000 -0.824132
92.800000 -0.796725
92.850000 -0.803577
92.900000 -0.844687
92.950000 -0.889224
93.000000 -0.933761
93.050000 -0.998853
93.100000 -1.057093
93.150000 -1.094777
93.200000 -1.125611
93.250000 -1.125611
93.300000 -1.094778
93.350000 -1.057093
93.400000 -1.026260
93.450000 -0.981723
93.500000 -0.923483
93.550000 -0.858391
93.600000 -0.800151
93.650000 -0.769318
93.700000 -0.776170
93.750000 -0.779596
93.800000 -0.772743
93.850000 -0.765892
93.900000 -0.789873
93.950000 -0.817281
94.000000 -0.817281
94.050000 -0.824132
94.100000 -0.868669
94.150000 -0.920057
94.200000 -0.978298
94.250000 -1.077649
94.300000 -1.190702
94.350000 -1.303757
94.400000 -1.440793
94.450000 -1.588106
94.500000 -1.701160
94.550000 -1.776530
94.600000 -1.824492
94.650000 -1.814214
94.700000 -1.735419
94.750000 -1.618939
94.800000 -1.485329
94.850000 -1.320887
94.900000 -1.142740
94.950000 -0.992001
95.000000 -0.882373
95.050000 -0.803577
95.100000 -0.769318
95.150000 -0.783022
95.200000 -0.830984
95.250000 -0.882372
95.300000 -0.937186
95.350000 -0.995427
95.400000 -1.043389
95.450000 -1.084500
95.500000 -1.108481
95.550000 -1.115333
95.600000 -1.115332
95.650000 -1.129036
95.700000 -1.153018
95.750000 -1.166721
95.800000 -1.187276
95.850000 -1.248943
95.900000 -1.320886
95.950000 -1.372275
96.000000 -1.416811
96.050000 -1.464774
96.100000 -1.481903
96.150000 -1.471626
96.200000 -1.444218
96.250000 -1.399682
96.300000 -1.324312
96.350000 -1.245517
96.400000 -1.187277
96.450000 -1.139314
96.500000 -1.094778
96.550000 -1.053667
96.600000 -0.998852
96.650000 -0.947465
96.700000 -0.923483
96.750000 -0.892650
96.800000 -0.817281
96.850000 -0.752189
96.900000 -0.731633
96.950000 -0.707652
97.000000 -0.649412
97.050000 -0.635708
97.100000 -0.666541
97.150000 -0.673393
97.200000 -0.687097
97.250000 -0.745337
97.300000 -0.803577
97.350000 -0.848113
97.400000 -0.913206
97.450000 -0.981723
97.500000 -1.009131
97.550000 -1.019408
97.600000 -1.029686
97.650000 -1.050241
97.700000 -1.094778
97.750000 -1.156443
97.800000 -1.221535
97.850000 -1.286628
97.900000 -1.365423
97.950000 -1.440793
98.000000 -1.509310
98.050000 -1.557273
98.100000 -1.591531
98.150000 -1.612087
98.200000 -1.612087
98.250000 -1.608661
98.300000 -1.622365
98.350000 -1.636068
98.400000 -1.639494
98.450000 -1.639494
98.500000 -1.632642
98.550000 -1.608661
98.600000 -1.612087
98.650000 -1.646345
98.700000 -1.666901
98.750000 -1.646345
98.800000 -1.605235
98.850000 -1.570976
98.900000 -1.519588
98.950000 -1.464774
99.000000 -1.437366
99.050000 -1.427089
99.100000 -1.399682
99.150000 -1.365423
99.200000 -1.361997
99.250000 -1.392830
99.300000 -1.423663
99.350000 -1.437367
99.400000 -1.451071
99.450000 -1.464773
99.500000 -1.461347
99.550000 -1.430515
99.600000 -1.396256
99.650000 -1.355146
99.700000 -1.283201
99.750000 -1.187276
99.800000 -1.098203
99.850000 -1.019408
99.900000 -0.950891
99.950000 -0.858391
100.000000 -0.755614
100.050000 -0.680245
100.100000 -0.659690
100.150000 -0.649412
100.200000 -0.649411
100.250000 -0.683670
100.300000 -0.755614
100.350000 -0.817281
100.400000 -0.844688
100.450000 -0.865243
100.500000 -0.875520
100.550000 -0.854966
100.600000 -0.820706
100.650000 -0.800151
100.700000 -0.786448
100.750000 -0.776169
100.800000 -0.817281
100.850000 -0.899502
100.900000 -1.009131
100.950000 -1.125610
101.000000 -1.245516
101.050000 -1.365423
101.100000 -1.502459
101.150000 -1.615513
101.200000 -1.642920
101.250000 -1.625790
101.300000 -1.605235
101.350000 -1.546995
101.400000 -1.447644
101.450000 -1.355145
101.500000 -1.272924
101.550000 -1.183850
101.600000 -1.111907
101.650000 -1.074222
101.700000 -1.063945
101.750000 -1.057093
101.800000 -1.057093
101.850000 -1.081074
101.900000 -1.125611
101.950000 -1.166721
102.000000 -1.187277
102.050000 -1.211258
102.100000 -1.242091
102.150000 -1.252369
102.200000 -1.245517
102.250000 -1.252369
102.300000 -1.269498
102.350000 -1.259220
102.400000 -1.224961
102.450000 -1.214683
102.500000 -1.218110
102.550000 -1.221535
102.600000 -1.228387
102.650000 -1.259220
102.700000 -1.276350
102.750000 -1.259220
102.800000 -1.255795
102.850000 -1.269498
102.900000 -1.252369
102.950000 -1.204406
103.000000 -1.156443
103.050000 -1.105056
103.100000 -1.036538
103.150000 -0.974872
103.200000 -0.920057
103.250000 -0.868669
103.300000 -0.844688
103.350000 -0.858391
103.400000 -0.885798
103.450000 -0.950890
103.500000 -1.043389
103.550000 -1.132463
103.600000 -1.221535
103.650000 -1.320886
103.700000 -1.375701
103.750000 -1.379126
103.800000 -1.368849
103.850000 -1.372274
103.900000 -1.348293
103.950000 -1.283202
104.000000 -1.211258
104.050000 -1.142740
104.100000 -1.070796
104.150000 -1.015982
104.200000 -0.978297
104.250000 -0.923483
104.300000 -0.865243
104.350000 -0.834409
104.400000 -0.844688
104.450000 -0.875520
104.500000 -0.916631
104.550000 -0.957742
104.600000 -0.981723
104.650000 -1.005704
104.700000 -1.050241
104.750000 -1.094777
104.800000 -1.108481
104.850000 -1.118759
104.900000 -1.142740
104.950000 -1.132462
105.000000 -1.074222
105.050000 -0.995427
105.100000 -0.909779
105.150000 -0.820706
105.200000 -0.755615
105.250000 -0.721355
105.300000 -0.687097
105.350000 -0.652837
105.400000 -0.649412
105.450000 -0.700800
105.500000 -0.755614
105.550000 -0.772744
105.600000 -0.786447
105.650000 -0.813855
105.700000 -0.813855
105.750000 -0.779595
105.800000 -0.748762
105.850000 -0.731633
105.900000 -0.717929
105.950000 -0.721355
106.000000 -0.776170
106.050000 -0.892650
106.100000 -1.053667
106.150000 -1.214684
106.200000 -1.361997
106.250000 -1.519588
106.300000 -1.690882
106.350000 -1.821066
106.400000 -1.882732
106.450000 -1.893010
106.500000 -1.872454
106.550000 -1.800511
106.600000 -1.687457
106.650000 -1.570976
106.700000 -1.471625
106.750000 -1.392830
106.800000 -1.334590
106.850000 -1.317461
106.900000 -1.324312
106.950000 -1.331164
107.000000 -1.361997
107.050000 -1.409959
107.100000 -1.420237
107.150000 -1.392830
107.200000 -1.385978
107.250000 -1.372275
107.300000 -1.331164
107.350000 -1.310608
107.400000 -1.303757
107.450000 -1.269498
107.500000 -1.272924
107.550000 -1.331164
107.600000 -1.372274
107.650000 -1.406533
107.700000 -1.492181
107.750000 -1.584679
107.800000 -1.625790
107.850000 -1.677179
107.900000 -1.725142
107.950000 -1.697734
108.000000 -1.646346
108.050000 -1.612087
108.100000 -1.546995
108.150000 -1.461348
108.200000 -1.413385
108.250000 -1.389404
108.300000 -1.355145
108.350000 -1.324312
108.400000 -1.320887
108.450000 -1.348294
108.500000 -1.403108
108.550000 -1.444218
108.600000 -1.464774
108.650000 -1.492181
108.700000 -1.512736
108.750000 -1.481903
108.800000 -1.437367
108.850000 -1.427089
108.900000 -1.413386
108.950000 -1.361997
109.000000 -1.314035
109.050000 -1.296905
109.100000 -1.293480
109.150000 -1.276350
109.200000 -1.276350
109.250000 -1.310609
109.300000 -1.365423
109.350000 -1.399682
109.400000 -1.423663
109.450000 -1.457922
109.500000 -1.481903
109.550000 -1.481903
109.600000 -1.468200
109.650000 -1.451070
109.700000 -1.423663
109.750000 -1.392830
109.800000 -1.372274
109.850000 -1.351719
109.900000 -1.310608
109.950000 -1.286627
110.000000 -1.276349
110.050000 -1.272924
110.100000 -1.276349
110.150000 -1.252368
110.200000 -1.183851
110.250000 -1.132462
110.300000 -1.142740
110.350000 -1.146166
110.400000 -1.115333
110.450000 -1.094778
110.500000 -1.105055
110.550000 -1.125611
110.600000 -1.163295
110.650000 -1.200980
110.700000 -1.221535
110.750000 -1.259221
110.800000 -1.327738
110.850000 -1.375701
110.900000 -1.368849
110.950000 -1.351719
111.000000 -1.310609
111.050000 -1.235239
111.100000 -1.156444
111.150000 -1.081074
111.200000 -0.978297
111.250000 -0.878946
111.300000 -0.844687
111.350000 -0.817281
111.400000 -0.765892
111.450000 -0.752188
111.500000 -0.807002
111.550000 -0.875521
111.600000 -0.937187
111.650000 -1.012556
111.700000 -1.098203
111.750000 -1.183851
111.800000 -1.248943
111.850000 -1.283202
111.900000 -1.286628
111.950000 -1.272923
112.000000 -1.221535
112.050000 -1.159869
112.100000 -1.118758
112.150000 -1.067371
112.200000 -0.961168
112.250000 -0.861817
112.300000 -0.796725
112.350000 -0.717930
112.400000 -0.615152
112.450000 -0.543210
112.500000 -0.502099
112.550000 -0.478117
112.600000 -0.471265
112.650000 -0.488395
112.700000 -0.529506
112.750000 -0.615153
112.800000 -0.707652
112.850000 -0.789874
112.900000 -0.875520
112.950000 -0.950890
113.000000 -0.988575
113.050000 -0.998853
113.100000 -1.002278
113.150000 -0.981723
113.200000 -0.940612
113.250000 -0.906354
113.300000 -0.872095
113.350000 -0.813854
113.400000 -0.789873
113.450000 -0.820706
113.500000 -0.875521
113.550000 -0.947464
113.600000 -1.043389
113.650000 -1.146166
113.700000 -1.262647
113.750000 -1.396256
113.800000 -1.499033
113.850000 -1.553847
113.900000 -1.601809
113.950000 -1.639494
114.000000 -1.642920
114.050000 -1.642920
114.100000 -1.653197
114.150000 -1.632642
114.200000 -1.591531
114.250000 -1.577828
114.300000 -1.570976
114.350000 -1.526440
114.400000 -1.471626
114.450000 -1.430515
114.500000 -1.396256
114.550000 -1.351719
114.600000 -1.300331
114.650000 -1.228388
114.700000 -1.170148
114.750000 -1.153017
114.800000 -1.142740
114.850000 -1.122184
114.900000 -1.125611
114.950000 -1.135888
115.000000 -1.132462
115.050000 -1.115333
115.100000 -1.094777
115.150000 -1.050240
115.200000 -0.988574
115.250000 -0.933761
115.300000 -0.882372
115.350000 -0.820706
115.400000 -0.752189
115.450000 -0.680245
115.500000 -0.615153
115.550000 -0.598023
115.600000 -0.618579
115.650000 -0.659690
115.700000 -0.738485
115.750000 -0.868669
115.800000 -1.019408
115.850000 -1.170147
115.900000 -1.310609
115.950000 -1.430515
116.000000 -1.492181
116.050000 -1.512736
116.100000 -1.533292
116.150000 -1.519587
116.200000 -1.478477
116.250000 -1.451070
116.300000 -1.433940
116.350000 -1.409960
116.400000 -1.385978
116.450000 -1.385979
116.500000 -1.385978
116.550000 -1.372275
116.600000 -1.368849
116.650000 -1.375701
116.700000 -1.368849
116.750000 -1.348294
116.800000 -1.317461
116.850000 -1.286628
116.900000 -1.248943
116.950000 -1.197555
117.000000 -1.159869
117.050000 -1.166722
117.100000 -1.238665
117.150000 -1.320887
117.200000 -1.396256
117.250000 -1.478478
117.300000 -1.564125
117.350000 -1.629216
117.400000 -1.660049
117.450000 -1.656623
117.500000 -1.622365
117.550000 -1.567551
117.600000 -1.499033
117.650000 -1.406533
117.700000 -1.310608
117.750000 -1.231813
117.800000 -1.180424
117.850000 -1.173573
117.900000 -1.194128
117.950000 -1.204406
118.000000 -1.214684
118.050000 -1.262646
118.100000 -1.320887
118.150000 -1.351719
118.200000 -1.382552
118.250000 -1.382553
118.300000 -1.320886
118.350000 -1.221535
118.400000 -1.115333
118.450000 -0.998853
118.500000 -0.889224
118.550000 -0.817280
118.600000 -0.772744
118.650000 -0.765892
118.700000 -0.820706
118.750000 -0.896076
118.800000 -0.978297
118.850000 -1.122184
118.900000 -1.300331
118.950000 -1.420237
119.000000 -1.509310
119.050000 -1.608661
119.100000 -1.666901
119.150000 -1.636068
119.200000 -1.553847
119.250000 -1.454496
119.300000 -1.341442
119.350000 -1.231814
119.400000 -1.118759
119.450000 -1.009131
119.500000 -0.950890
119.550000 -0.957742
119.600000 -0.978297
119.650000 -1.022834
119.700000 -1.118759
119.750000 -1.207832
119.800000 -1.252369
119.850000 -1.300331
119.900000 -1.361997
119.950000 -1.368848
120.000000 -1.344868
120.050000 -1.338016
120.100000 -1.320887
120.150000 -1.286627
120.200000 -1.259220
120.250000 -1.259221
120.300000 -1.272924
120.350000 -1.296905
120.400000 -1.324312
120.450000 -1.372274
120.500000 -1.437367
120.550000 -1.499033
120.600000 -1.533291
120.650000 -1.553847
120.700000 -1.553846
120.750000 -1.526439
120.800000 -1.475052
120.850000 -1.413385
120.900000 -1.331164
120.950000 -1.238664
121.000000 -1.153017
121.050000 -1.091351
121.100000 -1.050241
121.150000 -1.033112
121.200000 -1.036537
121.250000 -1.070796
121.300000 -1.139314
121.350000 -1.211258
121.400000 -1.266072
121.450000 -1.331164
121.500000 -1.403108
121.550000 -1.454496
121.600000 -1.478477
121.650000 -1.502458
121.700000 -1.523014
121.750000 -1.523013
121.800000 -1.492181
121.850000 -1.478478
121.900000 -1.492181
121.950000 -1.495607
122.000000 -1.457921
122.050000 -1.399682
122.100000 -1.368849
122.150000 -1.355145
122.200000 -1.303757
122.250000 -1.245516
122.300000 -1.200980
122.350000 -1.139314
122.400000 -1.053667
122.450000 -0.985150
122.500000 -0.930335
122.550000 -0.861817
122.600000 -0.817281
122.650000 -0.803577
122.700000 -0.789873
122.750000 -0.772744
122.800000 -0.783022
122.850000 -0.817281
122.900000 -0.830984
122.950000 -0.837835
123.000000 -0.861817
123.050000 -0.882372
123.100000 -0.889225
123.150000 -0.896076
123.200000 -0.896076
123.250000 -0.902927
123.300000 -0.909780
123.350000 -0.889224
123.400000 -0.830984
123.450000 -0.793299
123.500000 -0.793299
123.550000 -0.776169
123.600000 -0.755614
123.650000 -0.769318
123.700000 -0.783021
123.750000 -0.807003
123.800000 -0.851540
123.850000 -0.906353
123.900000 -0.944038
123.950000 -0.992000
124.000000 -1.046815
124.050000 -1.091352
124.100000 -1.129036
124.150000 -1.176999
124.200000 -1.214684
124.250000 -1.245517
124.300000 -1.262647
124.350000 -1.248943
124.400000 -1.218109
124.450000 -1.224962
124.500000 -1.255795
124.550000 -1.262647
124.600000 -1.228387
124.650000 -1.214684
124.700000 -1.245517
124.750000 -1.272924
124.800000 -1.272924
124.850000 -1.279775
124.900000 -1.320886
124.950000 -1.341442
125.000000 -1.324312
125.050000 -1.290053
125.100000 -1.255794
125.150000 -1.194128
125.200000 -1.125611
125.250000 -1.070796
125.300000 -1.029685
125.350000 -0.968019
125.400000 -0.916632
125.450000 -0.923483
125.500000 -0.971446
125.550000 -1.026259
125.600000 -1.087925
125.650000 -1.173573
125.700000 -1.266072
125.750000 -1.348293
125.800000 -1.403107
125.850000 -1.427089
125.900000 -1.437367
125.950000 -1.413385
126.000000 -1.351719
126.050000 -1.279776
126.100000 -1.214684
126.150000 -1.125610
126.200000 -1.019408
126.250000 -0.961167
126.300000 -0.944039
126.350000 -0.920057
126.400000 -0.889224
126.450000 -0.892650
126.500000 -0.926908
126.550000 -0.964594
126.600000 -1.009131
126.650000 -1.060518
126.700000 -1.111907
126.750000 -1.166721
126.800000 -1.211257
126.850000 -1.245517
126.900000 -1.290053
126.950000 -1.341442
127.000000 -1.389404
127.050000 -1.433940
127.100000 -1.502459
127.150000 -1.577828
127.200000 -1.646346
127.250000 -1.714864
127.300000 -1.786807
127.350000 -1.858751
127.400000 -1.920417
127.450000 -1.961527
127.500000 -1.961527
127.550000 -1.916991
127.600000 -1.851900
127.650000 -1.786807
127.700000 -1.714864
127.750000 -1.632642
127.800000 -1.567550
127.850000 -1.536717
127.900000 -1.536717
127.950000 -1.533292
128.000000 -1.526440
128.050000 -1.553847
128.100000 -1.605235
128.150000 -1.639494
128.200000 -1.653197
128.250000 -1.660049
128.300000 -1.653197
128.350000 -1.612087
128.400000 -1.543569
128.450000 -1.437367
128.500000 -1.320887
128.550000 -1.231813
128.600000 -1.170147
128.650000 -1.115333
128.700000 -1.087926
128.750000 -1.098203
128.800000 -1.118759
128.850000 -1.159869
128.900000 -1.228387
128.950000 -1.307183
129.000000 -1.389404
129.050000 -1.499032
129.100000 -1.584680
129.150000 -1.632642
129.200000 -1.684030
129.250000 -1.749123
129.300000 -1.773104
129.350000 -1.745696
129.400000 -1.731993
129.450000 -1.728567
129.500000 -1.711438
129.550000 -1.673753
129.600000 -1.601809
129.650000 -1.512736
129.700000 -1.430514
129.750000 -1.331164
129.800000 -1.190702
129.850000 -1.087926
129.900000 -1.057093
129.950000 -1.015982
130.000000 -0.916631
130.050000 -0.851540
130.100000 -0.834410
130.150000 -0.834410
130.200000 -0.851539
130.250000 -0.909779
130.300000 -0.988575
130.350000 -1.070796
130.400000 -1.156443
130.450000 -1.242090
130.500000 -1.320887
130.550000 -1.382552
130.600000 -1.413385
130.650000 -1.444219
130.700000 -1.481903
130.750000 -1.478477
130.800000 -1.413385
130.850000 -1.334590
130.900000 -1.252369
130.950000 -1.142740
131.000000 -1.029685
131.050000 -0.940613
131.100000 -0.861817
131.150000 -0.807003
131.200000 -0.783021
131.250000 -0.783022
131.300000 -0.824133
131.350000 -0.899502
131.400000 -0.968020
131.450000 -1.012556
131.500000 -1.074222
131.550000 -1.125611
131.600000 -1.125611
131.650000 -1.111907
131.700000 -1.132463
131.750000 -1.101629
131.800000 -1.019408
131.850000 -0.985149
131.900000 -0.992001
131.950000 -0.950890
132.000000 -0.896076
132.050000 -0.896076
132.100000 -0.933761
132.150000 -0.957742
132.200000 -0.974871
132.250000 -0.992001
132.300000 -1.022834
132.350000 -1.063944
132.400000 -1.122185
132.450000 -1.173573
132.500000 -1.245517
132.550000 -1.324312
132.600000 -1.399682
132.650000 -1.492181
132.700000 -1.601809
132.750000 -1.684030
132.800000 -1.738845
132.850000 -1.779956
132.900000 -1.793659
132.950000 -1.776530
133.000000 -1.711437
133.050000 -1.612087
133.100000 -1.505884
133.150000 -1.406534
133.200000 -1.296905
133.250000 -1.183851
133.300000 -1.105055
133.350000 -1.050241
133.400000 -0.971445
133.450000 -0.899502
133.500000 -0.868669
133.550000 -0.830984
133.600000 -0.772744
133.650000 -0.755614
133.700000 -0.776170
133.750000 -0.759040
133.800000 -0.717930
133.850000 -0.707652
133.900000 -0.697374
133.950000 -0.680245
134.000000 -0.690523
134.050000 -0.728207
134.100000 -0.776170
134.150000 -0.854965
134.200000 -0.933761
134.250000 -0.964593
134.300000 -0.992001
134.350000 -1.053667
134.400000 -1.125610
134.450000 -1.173573
134.500000 -1.194128
134.550000 -1.204406
134.600000 -1.200980
134.650000 -1.204406
134.700000 -1.231813
134.750000 -1.255794
134.800000 -1.259220
134.850000 -1.266072
134.900000 -1.296905
134.950000 -1.307183
135.000000 -1.283201
135.050000 -1.272924
135.100000 -1.293479
135.150000 -1.307183
135.200000 -1.296905
135.250000 -1.283202
135.300000 -1.255794
135.350000 -1.180425
135.400000 -1.060519
135.450000 -0.937186
135.500000 -0.834410
135.550000 -0.728208
135.600000 -0.601450
135.650000 -0.484969
135.700000 -0.419877
135.750000 -0.392470
135.800000 -0.385618
135.850000 -0.416451
135.900000 -0.491821
135.950000 -0.611727
136.000000 -0.724781
136.050000 -0.827558
136.100000 -0.950890
136.150000 -1.081074
136.200000 -1.207832
136.250000 -1.314034
136.300000 -1.396256
136.350000 -1.447644
136.400000 -1.468199
136.450000 -1.485329
136.500000 -1.495607
136.550000 -1.468199
136.600000 -1.409960
136.650000 -1.355145
136.700000 -1.296905
136.750000 -1.238664
136.800000 -1.194128
136.850000 -1.153018
136.900000 -1.094777
136.950000 -1.033112
137.000000 -0.981723
137.050000 -0.926909
137.100000 -0.865243
137.150000 -0.786447
137.200000 -0.707652
137.250000 -0.642560
137.300000 -0.577468
137.350000 -0.495247
137.400000 -0.440433
137.450000 -0.426729
137.500000 -0.402748
137.550000 -0.371915
137.600000 -0.371915
137.650000 -0.382193
137.700000 -0.375340
137.750000 -0.399322
137.800000 -0.447284
137.850000 -0.474692
137.900000 -0.474691
137.950000 -0.505524
138.000000 -0.567191
138.050000 -0.601449
138.100000 -0.618578
138.150000 -0.673393
138.200000 -0.762466
138.250000 -0.861817
138.300000 -0.974871
138.350000 -1.098203
138.400000 -1.183851
138.450000 -1.242091
138.500000 -1.276350
138.550000 -1.290053
138.600000 -1.269498
138.650000 -1.221536
138.700000 -1.163295
138.750000 -1.077648
138.800000 -0.964594
138.850000 -0.868669
138.900000 -0.807002
138.950000 -0.752189
139.000000 -0.717929
139.050000 -0.717929
139.100000 -0.752188
139.150000 -0.793300
139.200000 -0.865243
139.250000 -0.957742
139.300000 -1.036538
139.350000 -1.122185
139.400000 -1.248943
139.450000 -1.382552
139.500000 -1.485329
139.550000 -1.550421
139.600000 -1.594957
139.650000 -1.605235
139.700000 -1.605235
139.750000 -1.574402
139.800000 -1.505884
139.850000 -1.416811
139.900000 -1.324312
139.950000 -1.218110
140.000000 -1.118759
140.050000 -1.057093
140.100000 -1.019408
140.150000 -1.015982
140.200000 -1.063945
140.250000 -1.132462
140.300000 -1.166721
140.350000 -1.194129
140.400000 -1.245517
140.450000 -1.293479
140.500000 -1.303757
140.550000 -1.283202
140.600000 -1.255794
140.650000 -1.238665
140.700000 -1.224961
140.750000 -1.183851
140.800000 -1.146166
140.850000 -1.163295
140.900000 -1.200981
140.950000 -1.218110
141.000000 -1.248942
141.050000 -1.303757
141.100000 -1.334590
141.150000 -1.320886
141.200000 -1.310609
141.250000 -1.307183
141.300000 -1.276349
141.350000 -1.204406
141.400000 -1.135889
141.450000 -1.098204
141.500000 -1.094777
141.550000 -1.115332
141.600000 -1.122185
141.650000 -1.132462
141.700000 -1.180425
141.750000 -1.245516
141.800000 -1.286627
141.850000 -1.310609
141.900000 -1.355145
141.950000 -1.389404
142.000000 -1.382552
142.050000 -1.338016
142.100000 -1.272924
142.150000 -1.197554
142.200000 -1.132462
142.250000 -1.050241
142.300000 -0.923483
142.350000 -0.793299
142.400000 -0.693948
142.450000 -0.601449
142.500000 -0.526080
142.550000 -0.515803
142.600000 -0.539784
142.650000 -0.556913
142.700000 -0.618579
142.750000 -0.741911
142.800000 -0.837836
142.850000 -0.892650
142.900000 -0.947465
142.950000 -1.005704
143.000000 -1.033112
143.050000 -1.050241
143.100000 -1.074222
143.150000 -1.077648
143.200000 -1.074222
143.250000 -1.108481
143.300000 -1.159869
143.350000 -1.214684
143.400000 -1.296905
143.450000 -1.379126
143.500000 -1.433940
143.550000 -1.499032
143.600000 -1.584680
143.650000 -1.622365
143.700000 -1.629216
143.750000 -1.653198
143.800000 -1.673753
143.850000 -1.656623
143.900000 -1.666901
143.950000 -1.714864
144.000000 -1.714864
144.050000 -1.673753
144.100000 -1.646345
144.150000 -1.625791
144.200000 -1.581254
144.250000 -1.540143
144.300000 -1.485329
144.350000 -1.392830
144.400000 -1.290053
144.450000 -1.194128
144.500000 -1.087926
144.550000 -0.992000
144.600000 -0.944038
144.650000 -0.933761
144.700000 -0.947464
144.750000 -0.988575
144.800000 -1.033112
144.850000 -1.094778
144.900000 -1.194129
144.950000 -1.286628
145.000000 -1.351719
145.050000 -1.437366
145.100000 -1.516162
145.150000 -1.526439
145.200000 -1.519587
145.250000 -1.526440
145.300000 -1.488755
145.350000 -1.406533
145.400000 -1.348294
145.450000 -1.300331
145.500000 -1.245517
145.550000 -1.200980
145.600000 -1.163295
145.650000 -1.125610
145.700000 -1.142740
145.750000 -1.200980
145.800000 -1.228387
145.850000 -1.255794
145.900000 -1.344868
145.950000 -1.475051
146.000000 -1.605235
146.050000 -1.718289
146.100000 -1.783381
146.150000 -1.814214
146.200000 -1.851899
146.250000 -1.886158
146.300000 -1.879306
146.350000 -1.848473
146.400000 -1.821066
146.450000 -1.766252
146.500000 -1.718289
146.550000 -1.684031
146.600000 -1.639494
146.650000 -1.584680
146.700000 -1.581254
146.750000 -1.584679
146.800000 -1.546995
146.850000 -1.495607
146.900000 -1.468200
146.950000 -1.413385
147.000000 -1.334590
147.050000 -1.272924
147.100000 -1.218109
147.150000 -1.153017
147.200000 -1.084500
147.250000 -1.050241
147.300000 -1.043390
147.350000 -1.053667
147.400000 -1.063944
147.450000 -1.074222
147.500000 -1.125610
147.550000 -1.207832
147.600000 -1.248943
147.650000 -1.259220
147.700000 -1.290054
147.750000 -1.331164
147.800000 -1.338016
147.850000 -1.327738
147.900000 -1.324312
147.950000 -1.303757
148.000000 -1.262647
148.050000 -1.204406
148.100000 -1.142740
148.150000 -1.074222
148.200000 -1.015982
148.250000 -0.947465
148.300000 -0.865243
148.350000 -0.796725
148.400000 -0.745336
148.450000 -0.711078
148.500000 -0.697374
148.550000 -0.721355
148.600000 -0.772744
148.650000 -0.858391
148.700000 -0.971445
148.750000 -1.070796
148.800000 -1.146165
148.850000 -1.231813
148.900000 -1.317461
148.950000 -1.365423
149.000000 -1.372275
149.050000 -1.372275
149.100000 -1.341442
149.150000 -1.259220
149.200000 -1.149592
149.250000 -1.026259
149.300000 -0.899502
149.350000 -0.793299
149.400000 -0.717929
149.450000 -0.659689
149.500000 -0.632282
149.550000 -0.645986
149.600000 -0.711078
149.650000 -0.803577
149.700000 -0.885798
149.750000 -0.944038
149.800000 -0.974872
149.850000 -0.995427
149.900000 -0.992001
149.950000 -0.957741
150.000000 -0.909779
150.050000 -0.882372
150.100000 -0.868669
150.150000 -0.827558
150.200000 -0.779596
150.250000 -0.786448
150.300000 -0.841262
150.350000 -0.896076
150.400000 -0.930335
150.450000 -0.985149
150.500000 -1.039963
150.550000 -1.050241
150.600000 -1.043390
150.650000 -1.084500
150.700000 -1.139314
150.750000 -1.156443
150.800000 -1.187277
150.850000 -1.276350
150.900000 -1.385979
150.950000 -1.478477
151.000000 -1.577828
151.050000 -1.684030
151.100000 -1.762827
151.150000 -1.793659
151.200000 -1.773103
151.250000 -1.701160
151.300000 -1.553847
151.350000 -1.361997
151.400000 -1.149592
151.450000 -0.944039
151.500000 -0.772744
151.550000 -0.635709
151.600000 -0.505524
151.650000 -0.437007
151.700000 -0.484969
151.750000 -0.577468
151.800000 -0.656263
151.850000 -0.762466
151.900000 -0.913205
151.950000 -1.022833
152.000000 -1.057093
152.050000 -1.060519
152.100000 -1.043389
152.150000 -0.988574
152.200000 -0.913205
152.250000 -0.834410
152.300000 -0.755615
152.350000 -0.680245
152.400000 -0.611727
152.450000 -0.570616
152.500000 -0.556913
152.550000 -0.563765
152.600000 -0.570616
152.650000 -0.584320
152.700000 -0.608302
152.750000 -0.649412
152.800000 -0.680245
152.850000 -0.707652
152.900000 -0.728207
152.950000 -0.762466
153.000000 -0.817281
153.050000 -0.875521
153.100000 -0.930335
153.150000 -0.985149
153.200000 -1.053667
153.250000 -1.115333
153.300000 -1.149592
153.350000 -1.173573
153.400000 -1.187276
153.450000 -1.187276
153.500000 -1.163295
153.550000 -1.118759
153.600000 -1.057092
153.650000 -1.022834
153.700000 -1.033112
153.750000 -1.043389
153.800000 -1.057093
153.850000 -1.115333
153.900000 -1.224961
153.950000 -1.327738
154.000000 -1.403108
154.050000 -1.478477
154.100000 -1.543569
154.150000 -1.574402
154.200000 -1.564124
154.250000 -1.523014
154.300000 -1.451070
154.350000 -1.355145
154.400000 -1.218110
154.450000 -1.060519
154.500000 -0.937187
154.550000 -0.858391
154.600000 -0.779595
154.650000 -0.697375
154.700000 -0.642560
154.750000 -0.622005
154.800000 -0.618579
154.850000 -0.652838
154.900000 -0.690522
154.950000 -0.724781
155.000000 -0.755615
155.050000 -0.800151
155.100000 -0.865243
155.150000 -0.920057
155.200000 -0.950890
155.250000 -0.968020
155.300000 -0.998853
155.350000 -1.046815
155.400000 -1.115333
155.450000 -1.194128
155.500000 -1.259220
155.550000 -1.283201
155.600000 -1.300331
155.650000 -1.344868
155.700000 -1.385978
155.750000 -1.385979
155.800000 -1.361997
155.850000 -1.341441
155.900000 -1.303757
155.950000 -1.235239
156.000000 -1.146165
156.050000 -1.053666
156.100000 -0.950890
156.150000 -0.844688
156.200000 -0.759041
156.250000 -0.700800
156.300000 -0.656264
156.350000 -0.639134
156.400000 -0.676819
156.450000 -0.759040
156.500000 -0.851539
156.550000 -0.944038
156.600000 -1.039963
156.650000 -1.129036
156.700000 -1.200980
156.750000 -1.245516
156.800000 -1.269498
156.850000 -1.262646
156.900000 -1.224962
156.950000 -1.180425
157.000000 -1.139314
157.050000 -1.118758
157.100000 -1.105055
157.150000 -1.105055
157.200000 -1.125610
157.250000 -1.156444
157.300000 -1.170147
157.350000 -1.159870
157.400000 -1.146166
157.450000 -1.146165
157.500000 -1.163295
157.550000 -1.163295
157.600000 -1.156443
157.650000 -1.166721
157.700000 -1.204406
157.750000 -1.255794
157.800000 -1.324312
157.850000 -1.409960
157.900000 -1.492180
157.950000 -1.577828
158.000000 -1.677179
158.050000 -1.759400
158.100000 -1.817640
158.150000 -1.862177
158.200000 -1.858751
158.250000 -1.817640
158.300000 -1.766252
158.350000 -1.701160
158.400000 -1.622364
158.450000 -1.564125
158.500000 -1.533291
158.550000 -1.495607
158.600000 -1.464774
158.650000 -1.461348
158.700000 -1.478478
158.750000 -1.481903
158.800000 -1.499033
158.850000 -1.543569
158.900000 -1.598383
158.950000 -1.636068
159.000000 -1.663475
159.050000 -1.697734
159.100000 -1.711438
159.150000 -1.684030
159.200000 -1.642920
159.250000 -1.632643
159.300000 -1.622365
159.350000 -1.584679
159.400000 -1.533291
159.450000 -1.488755
159.500000 -1.440793
159.550000 -1.368848
159.600000 -1.283202
159.650000 -1.221535
159.700000 -1.183850
159.750000 -1.132462
159.800000 -1.063944
159.850000 -1.019408
159.900000 -1.009130
159.950000 -1.002279
160.000000 -0.971446
160.050000 -0.940612
160.100000 -0.930335
160.150000 -0.923483
160.200000 -0.930334
160.250000 -0.964594
160.300000 -0.998853
160.350000 -1.005704
160.400000 -1.012556
160.450000 -1.033111
160.500000 -1.063945
160.550000 -1.087926
160.600000 -1.094778
160.650000 -1.084499
160.700000 -1.074222
160.750000 -1.077649
160.800000 -1.084499
160.850000 -1.101629
160.900000 -1.139314
160.950000 -1.166721
161.000000 -1.159869
161.050000 -1.146166
161.100000 -1.139314
161.150000 -1.129036
161.200000 -1.115333
161.250000 -1.098203
161.300000 -1.077648
161.350000 -1.053667
161.400000 -1.022834
161.450000 -0.978298
161.500000 -0.940612
161.550000 -0.920058
161.600000 -0.882372
161.650000 -0.820706
161.700000 -0.783022
161.750000 -0.759040
161.800000 -0.714504
161.850000 -0.673393
161.900000 -0.645986
161.950000 -0.635708
162.000000 -0.649412
162.050000 -0.693949
162.100000 -0.769318
162.150000 -0.868669
162.200000 -0.978297
162.250000 -1.077648
162.300000 -1.190703
162.350000 -1.327738
162.400000 -1.451070
162.450000 -1.536717
162.500000 -1.601810
162.550000 -1.663475
162.600000 -1.714864
162.650000 -1.759400
162.700000 -1.776529
162.750000 -1.766252
162.800000 -1.752549
162.850000 -1.742270
162.900000 -1.694309
162.950000 -1.598383
163.000000 -1.509310
163.050000 -1.427089
163.100000 -1.320886
163.150000 -1.207832
163.200000 -1.135888
163.250000 -1.087926
163.300000 -1.067371
163.350000 -1.070796
163.400000 -1.098204
163.450000 -1.153018
163.500000 -1.248943
163.550000 -1.348293
163.600000 -1.427089
163.650000 -1.502458
163.700000 -1.529866
163.750000 -1.471625
163.800000 -1.406533
163.850000 -1.358571
163.900000 -1.242091
163.950000 -1.087926
164.000000 -0.988575
164.050000 -0.940612
164.100000 -0.906354
164.150000 -0.944038
164.200000 -1.050241
164.250000 -1.173573
164.300000 -1.327739
164.350000 -1.536717
164.400000 -1.745697
164.450000 -1.930694
164.500000 -2.078008
164.550000 -2.153378
164.600000 -2.153378
164.650000 -2.112267
164.700000 -2.030045
164.750000 -1.875880
164.800000 -1.718289
164.850000 -1.581254
164.900000 -1.433941
164.950000 -1.296905
165.000000 -1.224961
165.050000 -1.207832
165.100000 -1.214684
165.150000 -1.245517
165.200000 -1.296906
165.250000 -1.344867
165.300000 -1.392830
165.350000 -1.454496
165.400000 -1.492181
165.450000 -1.495607
165.500000 -1.478477
165.550000 -1.433941
165.600000 -1.361997
165.650000 -1.310609
165.700000 -1.276350
165.750000 -1.252369
165.800000 -1.242091
165.850000 -1.218110
165.900000 -1.159870
165.950000 -1.135888
166.000000 -1.146166
166.050000 -1.132462
166.100000 -1.101630
166.150000 -1.091352
166.200000 -1.070796
166.250000 -1.019408
166.300000 -0.964594
166.350000 -0.926909
166.400000 -0.885799
166.450000 -0.872095
166.500000 -0.899501
166.550000 -0.961168
166.600000 -1.046815
166.650000 -1.156444
166.700000 -1.269498
166.750000 -1.382553
166.800000 -1.488755
166.850000 -1.577828
166.900000 -1.649771
166.950000 -1.731993
167.000000 -1.783381
167.050000 -1.779955
167.100000 -1.773103
167.150000 -1.800511
167.200000 -1.797085
167.250000 -1.759401
167.300000 -1.776530
167.350000 -1.845048
167.400000 -1.886158
167.450000 -1.923843
167.500000 -2.009490
167.550000 -2.091711
167.600000 -2.119119
167.650000 -2.136248
167.700000 -2.149951
167.750000 -2.136248
167.800000 -2.074582
167.850000 -1.978657
167.900000 -1.838195
167.950000 -1.690883
168.000000 -1.560699
168.050000 -1.440792
168.100000 -1.327738
168.150000 -1.242090
168.200000 -1.163296
168.250000 -1.074222
168.300000 -1.015982
168.350000 -0.995427
168.400000 -0.964594
168.450000 -0.933761
168.500000 -0.933761
168.550000 -0.957742
168.600000 -0.974871
168.650000 -0.988575
168.700000 -0.998853
168.750000 -1.002278
168.800000 -1.002279
168.850000 -1.015982
168.900000 -1.033112
168.950000 -1.022834
169.000000 -1.005705
169.050000 -0.998852
169.100000 -0.998852
169.150000 -0.985149
169.200000 -0.981723
169.250000 -0.978297
169.300000 -0.964594
169.350000 -0.957742
169.400000 -0.961168
169.450000 -0.937187
169.500000 -0.889224
169.550000 -0.868668
169.600000 -0.841262
169.650000 -0.779596
169.700000 -0.735059
169.750000 -0.728208
169.800000 -0.735059
169.850000 -0.748763
169.900000 -0.786448
169.950000 -0.837836
170.000000 -0.885798
170.050000 -0.933761
170.100000 -0.981723
170.150000 -1.015982
170.200000 -1.033112
170.250000 -1.029685
170.300000 -1.019408
170.350000 -1.012556
170.400000 -1.002278
170.450000 -0.978298
170.500000 -0.964593
170.550000 -0.968020
170.600000 -0.998853
170.650000 -1.053667
170.700000 -1.101629
170.750000 -1.139314
170.800000 -1.190702
170.850000 -1.290053
170.900000 -1.372275
170.950000 -1.396256
171.000000 -1.385978
171.050000 -1.389404
171.100000 -1.372274
171.150000 -1.317460
171.200000 -1.242091
171.250000 -1.149592
171.300000 -1.033112
171.350000 -0.906354
171.400000 -0.807002
171.450000 -0.724781
171.500000 -0.642560
171.550000 -0.594597
171.600000 -0.584320
171.650000 -0.601449
171.700000 -0.639134
171.750000 -0.711078
171.800000 -0.820707
171.850000 -0.961168
171.900000 -1.111907
171.950000 -1.242091
172.000000 -1.348294
172.050000 -1.461348
172.100000 -1.567550
172.150000 -1.615513
172.200000 -1.618939
172.250000 -1.618939
172.300000 -1.588105
172.350000 -1.502459
172.400000 -1.396256
172.450000 -1.317460
172.500000 -1.248943
172.550000 -1.176998
172.600000 -1.132462
172.650000 -1.142740
172.700000 -1.187277
172.750000 -1.231813
172.800000 -1.283202
172.850000 -1.344867
172.900000 -1.413385
172.950000 -1.457922
173.000000 -1.451070
173.050000 -1.399681
173.100000 -1.348293
173.150000 -1.252368
173.200000 -1.087926
173.250000 -0.923483
173.300000 -0.796726
173.350000 -0.680245
173.400000 -0.594598
173.450000 -0.584320
173.500000 -0.625431
173.550000 -0.676819
173.600000 -0.759040
173.650000 -0.892650
173.700000 -1.012556
173.750000 -1.101630
173.800000 -1.187277
173.850000 -1.266072
173.900000 -1.314034
173.950000 -1.338016
174.000000 -1.365423
174.050000 -1.389404
174.100000 -1.372275
174.150000 -1.320886
174.200000 -1.269498
174.250000 -1.242090
174.300000 -1.224961
174.350000 -1.176999
174.400000 -1.105055
174.450000 -1.036537
174.500000 -0.988575
174.550000 -0.926909
174.600000 -0.889225
174.650000 -0.920057
174.700000 -0.992000
174.750000 -1.067370
174.800000 -1.163296
174.850000 -1.286627
174.900000 -1.403108
174.950000 -1.488754
175.000000 -1.550421
175.050000 -1.584680
175.100000 -1.601809
175.150000 -1.588106
175.200000 -1.516162
175.250000 -1.420237
175.300000 -1.320887
175.350000 -1.200980
175.400000 -1.087925
175.450000 -1.009130
175.500000 -0.937187
175.550000 -0.854965
175.600000 -0.803577
175.650000 -0.793299
175.700000 -0.783021
175.750000 -0.752189
175.800000 -0.724781
175.850000 -0.711078
175.900000 -0.700800
175.950000 -0.690523
176.000000 -0.673393
176.050000 -0.663115
176.100000 -0.693949
176.150000 -0.728208
176.200000 -0.731633
176.250000 -0.738485
176.300000 -0.772743
176.350000 -0.807003
176.400000 -0.820706
176.450000 -0.820707
176.500000 -0.817280
176.550000 -0.796725
176.600000 -0.748763
176.650000 -0.717930
176.700000 -0.700800
176.750000 -0.680244
176.800000 -0.666541
176.850000 -0.697374
176.900000 -0.765892
176.950000 -0.827558
177.000000 -0.875521
177.050000 -0.926909
177.100000 -0.988575
177.150000 -1.057093
177.200000 -1.125611
177.250000 -1.166721
177.300000 -1.197554
177.350000 -1.242091
177.400000 -1.290054
177.450000 -1.338016
177.500000 -1.358572
177.550000 -1.368849
177.600000 -1.385978
177.650000 -1.416811
177.700000 -1.430515
177.750000 -1.409959
177.800000 -1.385978
177.850000 -1.385978
177.900000 -1.392830
177.950000 -1.382552
178.000000 -1.351719
178.050000 -1.331164
178.100000 -1.355146
178.150000 -1.396256
178.200000 -1.433941
178.250000 -1.488755
178.300000 -1.543570
178.350000 -1.567550
178.400000 -1.560699
178.450000 -1.567551
178.500000 -1.570976
178.550000 -1.567551
178.600000 -1.543569
178.650000 -1.512736
178.700000 -1.475052
178.750000 -1.437366
178.800000 -1.382552
178.850000 -1.310608
178.900000 -1.252368
178.950000 -1.211258
179.000000 -1.149592
179.050000 -1.081074
179.100000 -1.029686
179.150000 -0.971445
179.200000 -0.899502
179.250000 -0.830984
179.300000 -0.745337
179.350000 -0.625431
179.400000 -0.512376
179.450000 -0.457562
179.500000 -0.423303
179.550000 -0.389044
179.600000 -0.375340
179.650000 -0.392470
179.700000 -0.454136
179.750000 -0.563765
179.800000 -0.680245
179.850000 -0.783021
179.900000 -0.899502
179.950000 -1.015982
180.000000 -1.084499
180.050000 -1.125610
180.100000 -1.159870
180.150000 -1.139314
180.200000 -1.053667
180.250000 -0.981723
180.300000 -0.937186
180.350000 -0.878946
180.400000 -0.796725
180.450000 -0.721356
180.500000 -0.663116
180.550000 -0.625430
180.600000 -0.625431
180.650000 -0.635708
180.700000 -0.659690
180.750000 -0.707652
180.800000 -0.772743
180.850000 -0.837836
180.900000 -0.940613
180.950000 -1.081074
181.000000 -1.200980
181.050000 -1.307182
181.100000 -1.423663
181.150000 -1.526440
181.200000 -1.574402
181.250000 -1.594957
181.300000 -1.577828
181.350000 -1.495607
181.400000 -1.361997
181.450000 -1.245516
181.500000 -1.146166
181.550000 -1.033111
181.600000 -0.913205
181.650000 -0.824133
181.700000 -0.786447
181.750000 -0.803577
181.800000 -0.848113
181.850000 -0.923483
181.900000 -1.019408
181.950000 -1.094778
182.000000 -1.125610
182.050000 -1.153018
182.100000 -1.170147
182.150000 -1.135888
182.200000 -1.081074
182.250000 -1.046815
182.300000 -1.002279
182.350000 -0.923483
182.400000 -0.885798
182.450000 -0.906353
182.500000 -0.926908
182.550000 -0.954316
182.600000 -1.022833
182.650000 -1.105056
182.700000 -1.176999
182.750000 -1.238664
182.800000 -1.259220
182.850000 -1.259220
182.900000 -1.259220
182.950000 -1.218109
183.000000 -1.135889
183.050000 -1.084499
183.100000 -1.081074
183.150000 -1.053667
183.200000 -1.015982
183.250000 -1.029686
183.300000 -1.067370
183.350000 -1.087925
183.400000 -1.129036
183.450000 -1.207832
183.500000 -1.290053
183.550000 -1.361997
183.600000 -1.420237
183.650000 -1.461348
183.700000 -1.495607
183.750000 -1.499033
183.800000 -1.457921
183.850000 -1.409960
183.900000 -1.379126
183.950000 -1.320886
184.000000 -1.238665
184.050000 -1.204406
184.100000 -1.221536
184.150000 -1.242091
184.200000 -1.276350
184.250000 -1.334590
184.300000 -1.389404
184.350000 -1.444218
184.400000 -1.509310
184.450000 -1.567551
184.500000 -1.584680
184.550000 -1.560698
184.600000 -1.495606
184.650000 -1.409960
184.700000 -1.324313
184.750000 -1.224961
184.800000 -1.132462
184.850000 -1.074222
184.900000 -1.029686
184.950000 -0.971446
185.000000 -0.957742
185.050000 -1.026259
185.100000 -1.115333
185.150000 -1.194128
185.200000 -1.293480
185.250000 -1.416811
185.300000 -1.492180
185.350000 -1.523014
185.400000 -1.543570
185.450000 -1.526440
185.500000 -1.481903
185.550000 -1.444218
185.600000 -1.389404
185.650000 -1.331164
185.700000 -1.303757
185.750000 -1.310608
185.800000 -1.283202
185.850000 -1.262646
185.900000 -1.296905
185.950000 -1.341441
186.000000 -1.355145
186.050000 -1.361997
186.100000 -1.368849
186.150000 -1.368849
186.200000 -1.358571
186.250000 -1.324312
186.300000 -1.286628
186.350000 -1.279776
186.400000 -1.266072
186.450000 -1.231813
186.500000 -1.221535
186.550000 -1.248943
186.600000 -1.245517
186.650000 -1.231813
186.700000 -1.262646
186.750000 -1.293479
186.800000 -1.286628
186.850000 -1.300331
186.900000 -1.348293
186.950000 -1.372274
187.000000 -1.355145
187.050000 -1.348293
187.100000 -1.344867
187.150000 -1.320886
187.200000 -1.272923
187.250000 -1.228387
187.300000 -1.190702
187.350000 -1.156444
187.400000 -1.105055
187.450000 -1.039963
187.500000 -0.981723
187.550000 -0.947465
187.600000 -0.933761
187.650000 -0.923483
187.700000 -0.902928
187.750000 -0.872095
187.800000 -0.851539
187.850000 -0.848114
187.900000 -0.817280
187.950000 -0.741911
188.000000 -0.683671
188.050000 -0.669968
188.100000 -0.639134
188.150000 -0.598024
188.200000 -0.601449
188.250000 -0.669967
188.300000 -0.728208
188.350000 -0.776170
188.400000 -0.865242
188.450000 -0.985149
188.500000 -1.081074
188.550000 -1.132462
188.600000 -1.194129
188.650000 -1.252369
188.700000 -1.262646
188.750000 -1.242091
188.800000 -1.207832
188.850000 -1.139314
