fit_time[ns] Functional_fit[mV] Thermal_fit[mV]
3.700000 20.518136 19.867571
3.750000 20.290545 19.446595
3.800000 20.049462 19.034327
3.850000 19.790710 18.630576
3.900000 19.510789 18.235159
3.950000 19.206950 17.847894
4.000000 18.877252 17.468605
4.050000 18.520597 17.097121
4.100000 18.136749 16.733273
4.150000 17.726322 16.376896
4.200000 17.290760 16.027831
4.250000 16.832286 15.685920
4.300000 16.353842 15.351009
4.350000 15.859003 15.022950
4.400000 15.351885 14.701596
4.450000 14.837033 14.386804
4.500000 14.319305 14.078433
4.550000 13.803747 13.776348
4.600000 13.295464 13.480415
4.650000 12.799493 13.190502
4.700000 12.320678 12.906483
4.750000 11.863549 12.628233
4.800000 11.432212 12.355630
4.850000 11.030249 12.088554
4.900000 10.660631 11.826889
4.950000 10.325650 11.570522
5.000000 10.026866 11.319339
5.050000 9.765070 11.073234
5.100000 9.540270 10.832098
5.150000 9.351695 10.595828
5.200000 9.197816 10.364322
5.250000 9.076391 10.137480
5.300000 8.984518 9.915205
5.350000 8.918714 9.697402
5.400000 8.874997 9.483976
5.450000 8.848991 9.274838
5.500000 8.836029 9.069898
5.550000 8.831267 8.869068
5.600000 8.829808 8.672264
5.650000 8.826809 8.479401
5.700000 8.817608 8.290399
5.750000 8.797824 8.105177
5.800000 8.763466 7.923657
5.850000 8.711023 7.745762
5.900000 8.637544 7.571419
5.950000 8.540703 7.400553
6.000000 8.418849 7.233093
6.050000 8.271038 7.068968
6.100000 8.097050 6.908112
6.150000 7.897385 6.750455
6.200000 7.673243 6.595933
6.250000 7.426490 6.444481
6.300000 7.159602 6.296037
6.350000 6.875599 6.150538
6.400000 6.577967 6.007925
6.450000 6.270564 5.868139
6.500000 5.957525 5.731122
6.550000 5.643156 5.596817
6.600000 5.331825 5.465170
6.650000 5.027857 5.336125
6.700000 4.735422 5.209631
6.750000 4.458440 5.085635
6.800000 4.200482 4.964087
6.850000 3.964683 4.844936
6.900000 3.753675 4.728135
6.950000 3.569516 4.613636
7.000000 3.413655 4.501392
7.050000 3.286889 4.391357
7.100000 3.189356 4.283487
7.150000 3.120533 4.177738
7.200000 3.079255 4.074068
7.250000 3.063744 3.972433
7.300000 3.071660 3.872795
7.350000 3.100161 3.775111
7.400000 3.145975 3.679343
7.450000 3.205483 3.585452
7.500000 3.274806 3.493401
7.550000 3.349907 3.403152
7.600000 3.426685 3.314670
7.650000 3.501076 3.227919
7.700000 3.569151 3.142864
7.750000 3.627211 3.059471
7.800000 3.671870 2.977708
7.850000 3.700140 2.897540
7.900000 3.709496 2.818938
7.950000 3.697935 2.741869
8.000000 3.664017 2.666302
8.050000 3.606897 2.592208
8.100000 3.526339 2.519557
8.150000 3.422715 2.448322
8.200000 3.296993 2.378472
8.250000 3.150704 2.309981
8.300000 2.985902 2.242822
8.350000 2.805108 2.176969
8.400000 2.611243 2.112395
8.450000 2.407555 2.049075
8.500000 2.197533 1.986984
8.550000 1.984825 1.926097
8.600000 1.773140 1.866392
8.650000 1.566161 1.807844
8.700000 1.367455 1.750431
8.750000 1.180385 1.694130
8.800000 1.008027 1.638919
8.850000 0.853103 1.584776
8.900000 0.717911 1.531681
8.950000 0.604276 1.479613
9.000000 0.513505 1.428552
9.050000 0.446364 1.378477
9.100000 0.403060 1.329369
9.150000 0.383239 1.281210
9.200000 0.386003 1.233980
9.250000 0.409934 1.187662
9.300000 0.453130 1.142237
9.350000 0.513260 1.097687
9.400000 0.587618 1.053996
9.450000 0.673198 1.011147
9.500000 0.766766 0.969123
9.550000 0.864937 0.927908
9.600000 0.964268 0.887486
9.650000 1.061331 0.847842
9.700000 1.152805 0.808960
9.750000 1.235548 0.770826
9.800000 1.306680 0.733424
9.850000 1.363642 0.696741
9.900000 1.404264 0.660762
9.950000 1.426806 0.625474
10.000000 1.430002 0.590863
10.050000 1.413086 0.556916
10.100000 1.375804 0.523620
10.150000 1.318417 0.490963
10.200000 1.241688 0.458931
10.250000 1.146864 0.427513
10.300000 1.035636 0.396696
10.350000 0.910094 0.366470
10.400000 0.772677 0.336822
10.450000 0.626104 0.307741
10.500000 0.473312 0.279216
10.550000 0.317376 0.251237
10.600000 0.161436 0.223793
10.650000 0.008619 0.196873
10.700000 -0.138038 0.170467
10.750000 -0.275659 0.144566
10.800000 -0.401603 0.119159
10.850000 -0.513521 0.094236
10.900000 -0.609416 0.069790
10.950000 -0.687686 0.045809
11.000000 -0.747159 0.022286
11.050000 -0.787123 -0.000789
11.100000 -0.807333 -0.023424
11.150000 -0.808020 -0.045628
11.200000 -0.789877 -0.067409
11.250000 -0.754040 -0.088775
11.300000 -0.702056 -0.109735
11.350000 -0.635844 -0.130295
11.400000 -0.557643 -0.150465
11.450000 -0.469957 -0.170251
11.500000 -0.375490 -0.189661
11.550000 -0.277079 -0.208702
11.600000 -0.177624 -0.227381
11.650000 -0.080020 -0.245706
11.700000 0.012921 -0.263682
11.750000 0.098528 -0.281317
11.800000 0.174342 -0.298618
11.850000 0.238172 -0.315590
11.900000 0.288144 -0.332240
11.950000 0.322747 -0.348574
12.000000 0.340866 -0.364599
12.050000 0.341801 -0.380320
12.100000 0.325289 -0.395743
12.150000 0.291498 -0.410874
12.200000 0.241026 -0.425718
12.250000 0.174878 -0.440281
12.300000 0.094441 -0.454569
12.350000 0.001444 -0.468586
12.400000 -0.102085 -0.482337
12.450000 -0.213871 -0.495829
12.500000 -0.331452 -0.509066
12.550000 -0.452237 -0.522052
12.600000 -0.573575 -0.534793
12.650000 -0.692814 -0.547293
12.700000 -0.807374 -0.559557
12.750000 -0.914801 -0.571589
12.800000 -1.012833 -0.583394
12.850000 -1.099448 -0.594976
12.900000 -1.172915 -0.606340
12.950000 -1.231833 -0.617489
13.000000 -1.275162 -0.628427
13.050000 -1.302244 -0.639160
13.100000 -1.312820 -0.649690
13.150000 -1.307029 -0.660021
13.200000 -1.285404 -0.670158
13.250000 -1.248855 -0.680104
13.300000 -1.198641 -0.689862
13.350000 -1.136343 -0.699437
13.400000 -1.063815 -0.708831
13.450000 -0.983142 -0.718048
13.500000 -0.896588 -0.727092
13.550000 -0.806533 -0.735966
13.600000 -0.715421 -0.744673
13.650000 -0.625696 -0.753216
13.700000 -0.539744 -0.761598
13.750000 -0.459835 -0.769823
13.800000 -0.388069 -0.777893
13.850000 -0.326326 -0.785811
13.900000 -0.276221 -0.793581
13.950000 -0.239069 -0.801204
14.000000 -0.215856 -0.808685
14.050000 -0.207213 -0.816025
14.100000 -0.213411 -0.823227
14.150000 -0.234349 -0.830294
14.200000 -0.269568 -0.837228
14.250000 -0.318260 -0.844033
14.300000 -0.379292 -0.850709
14.350000 -0.451235 -0.857261
14.400000 -0.532407 -0.863689
14.450000 -0.620907 -0.869997
14.500000 -0.714673 -0.876187
14.550000 -0.811526 -0.882261
14.600000 -0.909227 -0.888221
14.650000 -1.005535 -0.894069
14.700000 -1.098256 -0.899808
14.750000 -1.185302 -0.905439
14.800000 -1.264736 -0.910965
14.850000 -1.334820 -0.916387
14.900000 -1.394059 -0.921708
14.950000 -1.441229 -0.926930
15.000000 -1.475411 -0.932053
15.050000 -1.496005 -0.937081
15.100000 -1.502747 -0.942015
15.150000 -1.495711 -0.946857
15.200000 -1.475302 -0.951608
15.250000 -1.442247 -0.956270
15.300000 -1.397574 -0.960845
15.350000 -1.342580 -0.965335
15.400000 -1.278803 -0.969741
15.450000 -1.207982 -0.974064
15.500000 -1.132007 -0.978307
15.550000 -1.052879 -0.982470
15.600000 -0.972656 -0.986556
15.650000 -0.893402 -0.990566
15.700000 -0.817142 -0.994501
15.750000 -0.745805 -0.998362
15.800000 -0.681185 -1.002151
15.850000 -0.624894 -1.005870
15.900000 -0.578326 -1.009519
15.950000 -0.542624 -1.013101
16.000000 -0.518656 -1.016615
16.050000 -0.506993 -1.020064
16.100000 -0.507903 -1.023449
16.150000 -0.521339 -1.026770
16.200000 -0.546952 -1.030030
16.250000 -0.584094 -1.033229
16.300000 -0.631842 -1.036369
16.350000 -0.689021 -1.039450
16.400000 -0.754231 -1.042474
16.450000 -0.825892 -1.045441
16.500000 -0.902273 -1.048353
16.550000 -0.981545 -1.051211
16.600000 -1.061821 -1.054016
16.650000 -1.141205 -1.056769
16.700000 -1.217835 -1.059470
16.750000 -1.289934 -1.062121
16.800000 -1.355847 -1.064723
16.850000 -1.414082 -1.067277
16.900000 -1.463346 -1.069783
16.950000 -1.502576 -1.072242
17.000000 -1.530960 -1.074656
17.050000 -1.547956 -1.077025
17.100000 -1.553304 -1.079350
17.150000 -1.547027 -1.081632
17.200000 -1.529433 -1.083871
17.250000 -1.501101 -1.086069
17.300000 -1.462865 -1.088226
17.350000 -1.415794 -1.090343
17.400000 -1.361162 -1.092421
17.450000 -1.300415 -1.094460
17.500000 -1.235136 -1.096461
17.550000 -1.167003 -1.098426
17.600000 -1.097750 -1.100353
17.650000 -1.029122 -1.102245
17.700000 -0.962834 -1.104102
17.750000 -0.900527 -1.105925
17.800000 -0.843733 -1.107714
17.850000 -0.793833 -1.109469
17.900000 -0.752030 -1.111192
17.950000 -0.719316 -1.112883
18.000000 -0.696456 -1.114543
18.050000 -0.683964 -1.116172
18.100000 -0.682098 -1.117771
18.150000 -0.690854 -1.119340
18.200000 -0.709968 -1.120881
18.250000 -0.738923 -1.122392
18.300000 -0.776970 -1.123876
18.350000 -0.823141 -1.125332
18.400000 -0.876277 -1.126762
18.450000 -0.935060 -1.128165
18.500000 -0.998043 -1.129541
18.550000 -1.063690 -1.130893
18.600000 -1.130411 -1.132219
18.650000 -1.196602 -1.133521
18.700000 -1.260687 -1.134799
18.750000 -1.321152 -1.136053
18.800000 -1.376584 -1.137284
18.850000 -1.425704 -1.138493
18.900000 -1.467397 -1.139679
18.950000 -1.500738 -1.140843
19.000000 -1.525013 -1.141985
19.050000 -1.539734 -1.143107
19.100000 -1.544650 -1.144207
19.150000 -1.539751 -1.145288
19.200000 -1.525264 -1.146348
19.250000 -1.501650 -1.147389
19.300000 -1.469586 -1.148411
19.350000 -1.429951 -1.149413
19.400000 -1.383798 -1.150398
19.450000 -1.332332 -1.151364
19.500000 -1.276876 -1.152312
19.550000 -1.218839 -1.153243
19.600000 -1.159681 -1.154156
19.650000 -1.100875 -1.155053
19.700000 -1.043874 -1.155933
19.750000 -0.990075 -1.156797
19.800000 -0.940784 -1.157645
19.850000 -0.897185 -1.158478
19.900000 -0.860314 -1.159295
19.950000 -0.831034 -1.160097
20.000000 -0.810015 -1.160884
20.050000 -0.797718 -1.161657
20.100000 -0.794390 -1.162415
20.150000 -0.800056 -1.163160
20.200000 -0.814519 -1.163891
20.250000 -0.837371 -1.164608
20.300000 -0.868003 -1.165312
20.350000 -0.905619 -1.166003
20.400000 -0.949262 -1.166682
20.450000 -0.997832 -1.167348
20.500000 -1.050120 -1.168001
20.550000 -1.104838 -1.168643
20.600000 -1.160645 -1.169273
20.650000 -1.216189 -1.169891
20.700000 -1.270131 -1.170498
20.750000 -1.321185 -1.171094
20.800000 -1.368145 -1.171678
20.850000 -1.409915 -1.172252
20.900000 -1.445535 -1.172816
20.950000 -1.474201 -1.173369
21.000000 -1.495286 -1.173912
21.050000 -1.508354 -1.174445
21.100000 -1.513165 -1.174968
21.150000 -1.509685 -1.175481
21.200000 -1.498081 -1.175985
21.250000 -1.478716 -1.176480
21.300000 -1.452140 -1.176966
21.350000 -1.419074 -1.177443
21.400000 -1.380389 -1.177911
21.450000 -1.337087 -1.178370
21.500000 -1.290274 -1.178821
21.550000 -1.241132 -1.179264
21.600000 -1.190890 -1.179698
21.650000 -1.140793 -1.180125
21.700000 -1.092070 -1.180544
21.750000 -1.045909 -1.180955
21.800000 -1.003424 -1.181358
21.850000 -0.965630 -1.181755
21.900000 -0.933419 -1.182143
21.950000 -0.907538 -1.182525
22.000000 -0.888575 -1.182900
22.050000 -0.876943 -1.183268
22.100000 -0.872874 -1.183629
22.150000 -0.876411 -1.183983
22.200000 -0.887415 -1.184331
22.250000 -0.905562 -1.184673
22.300000 -0.930358 -1.185008
22.350000 -0.961151 -1.185337
22.400000 -0.997149 -1.185660
22.450000 -1.037437 -1.185978
22.500000 -1.081006 -1.186289
22.550000 -1.126772 -1.186595
22.600000 -1.173611 -1.186895
22.650000 -1.220377 -1.187189
22.700000 -1.265938 -1.187479
22.750000 -1.309202 -1.187763
22.800000 -1.349138 -1.188041
22.850000 -1.384809 -1.188315
22.900000 -1.415387 -1.188583
22.950000 -1.440177 -1.188847
23.000000 -1.458628 -1.189106
23.050000 -1.470350 -1.189360
23.100000 -1.475120 -1.189609
23.150000 -1.472887 -1.189854
23.200000 -1.463770 -1.190095
23.250000 -1.448055 -1.190331
23.300000 -1.426185 -1.190562
23.350000 -1.398752 -1.190790
23.400000 -1.366476 -1.191013
23.450000 -1.330191 -1.191232
23.500000 -1.290821 -1.191447
23.550000 -1.249356 -1.191659
23.600000 -1.206830 -1.191866
23.650000 -1.164294 -1.192070
23.700000 -1.122791 -1.192269
23.750000 -1.083327 -1.192466
23.800000 -1.046854 -1.192658
23.850000 -1.014240 -1.192847
23.900000 -0.986252 -1.193033
23.950000 -0.963539 -1.193215
24.000000 -0.946614 -1.193394
24.050000 -0.935847 -1.193570
24.100000 -0.931451 -1.193742
24.150000 -0.933486 -1.193911
24.200000 -0.941851 -1.194078
24.250000 -0.956294 -1.194241
24.300000 -0.976416 -1.194401
24.350000 -1.001682 -1.194558
24.400000 -1.031437 -1.194713
24.450000 -1.064921 -1.194864
24.500000 -1.101291 -1.195013
24.550000 -1.139639 -1.195159
24.600000 -1.179018 -1.195302
24.650000 -1.218462 -1.195443
24.700000 -1.257012 -1.195581
24.750000 -1.293740 -1.195717
24.800000 -1.327768 -1.195850
24.850000 -1.358293 -1.195981
24.900000 -1.384603 -1.196109
24.950000 -1.406096 -1.196235
25.000000 -1.422290 -1.196359
25.050000 -1.432838 -1.196481
25.100000 -1.437535 -1.196600
25.150000 -1.436316 -1.196717
25.200000 -1.429265 -1.196832
25.250000 -1.416605 -1.196945
25.300000 -1.398695 -1.197056
25.350000 -1.376017 -1.197164
25.400000 -1.349169 -1.197271
25.450000 -1.318841 -1.197376
25.500000 -1.285805 -1.197479
25.550000 -1.250892 -1.197580
25.600000 -1.214971 -1.197679
25.650000 -1.178929 -1.197777
25.700000 -1.143648 -1.197872
25.750000 -1.109984 -1.197966
25.800000 -1.078747 -1.198058
25.850000 -1.050680 -1.198149
25.900000 -1.026443 -1.198238
25.950000 -1.006598 -1.198325
26.000000 -0.991592 -1.198411
26.050000 -0.981754 -1.198495
26.100000 -0.977282 -1.198577
26.150000 -0.978242 -1.198658
26.200000 -0.984567 -1.198738
26.250000 -0.996061 -1.198816
26.300000 -1.012400 -1.198893
26.350000 -1.033148 -1.198968
26.400000 -1.057764 -1.199042
26.450000 -1.085618 -1.199114
26.500000 -1.116004 -1.199186
26.550000 -1.148162 -1.199256
26.600000 -1.181296 -1.199324
26.650000 -1.214590 -1.199392
26.700000 -1.247234 -1.199458
26.750000 -1.278439 -1.199523
26.800000 -1.307456 -1.199587
26.850000 -1.333600 -1.199650
26.900000 -1.356258 -1.199711
26.950000 -1.374908 -1.199771
27.000000 -1.389131 -1.199831
27.050000 -1.398619 -1.199889
27.100000 -1.403182 -1.199946
27.150000 -1.402750 -1.200002
27.200000 -1.397379 -1.200057
27.250000 -1.387241 -1.200112
27.300000 -1.372625 -1.200165
27.350000 -1.353927 -1.200217
27.400000 -1.331637 -1.200268
27.450000 -1.306331 -1.200318
27.500000 -1.278652 -1.200368
27.550000 -1.249297 -1.200416
27.600000 -1.218995 -1.200464
27.650000 -1.188496 -1.200510
27.700000 -1.158545 -1.200556
27.750000 -1.129869 -1.200601
27.800000 -1.103158 -1.200646
27.850000 -1.079047 -1.200689
27.900000 -1.058104 -1.200732
27.950000 -1.040814 -1.200773
28.000000 -1.027569 -1.200815
28.050000 -1.018658 -1.200855
28.100000 -1.014264 -1.200894
28.150000 -1.014456 -1.200933
28.200000 -1.019193 -1.200972
28.250000 -1.028322 -1.201009
28.300000 -1.041584 -1.201046
28.350000 -1.058622 -1.201082
28.400000 -1.078991 -1.201117
28.450000 -1.102165 -1.201152
28.500000 -1.127558 -1.201187
28.550000 -1.154533 -1.201220
28.600000 -1.182419 -1.201253
28.650000 -1.210531 -1.201285
28.700000 -1.238180 -1.201317
28.750000 -1.264699 -1.201348
28.800000 -1.289450 -1.201379
28.850000 -1.311846 -1.201409
28.900000 -1.331361 -1.201439
28.950000 -1.347544 -1.201468
29.000000 -1.360030 -1.201496
29.050000 -1.368545 -1.201524
29.100000 -1.372917 -1.201552
29.150000 -1.373074 -1.201579
29.200000 -1.369047 -1.201605
29.250000 -1.360972 -1.201631
29.300000 -1.349080 -1.201657
29.350000 -1.333693 -1.201682
29.400000 -1.315216 -1.201706
29.450000 -1.294126 -1.201730
29.500000 -1.270961 -1.201754
29.550000 -1.246302 -1.201777
29.600000 -1.220764 -1.201800
29.650000 -1.194979 -1.201823
29.700000 -1.169576 -1.201845
29.750000 -1.145173 -1.201866
29.800000 -1.122357 -1.201888
29.850000 -1.101671 -1.201909
29.900000 -1.083602 -1.201929
29.950000 -1.068570 -1.201949
30.000000 -1.056916 -1.201969
30.050000 -1.048896 -1.201988
30.100000 -1.044675 -1.202007
30.150000 -1.044326 -1.202026
30.200000 -1.047824 -1.202044
30.250000 -1.055053 -1.202062
30.300000 -1.065805 -1.202080
30.350000 -1.079789 -1.202098
30.400000 -1.096638 -1.202115
30.450000 -1.115917 -1.202131
30.500000 -1.137136 -1.202148
30.550000 -1.159762 -1.202164
30.600000 -1.183231 -1.202180
30.650000 -1.206965 -1.202195
30.700000 -1.230384 -1.202211
30.750000 -1.252919 -1.202226
30.800000 -1.274029 -1.202240
30.850000 -1.293212 -1.202255
30.900000 -1.310015 -1.202269
30.950000 -1.324051 -1.202283
31.000000 -1.334999 -1.202297
31.050000 -1.342621 -1.202310
31.100000 -1.346757 -1.202323
31.150000 -1.347337 -1.202336
31.200000 -1.344377 -1.202349
31.250000 -1.337978 -1.202362
31.300000 -1.328327 -1.202374
31.350000 -1.315686 -1.202386
31.400000 -1.300389 -1.202398
31.450000 -1.282830 -1.202410
31.500000 -1.263458 -1.202421
31.550000 -1.242761 -1.202432
31.600000 -1.221253 -1.202443
31.650000 -1.199468 -1.202454
31.700000 -1.177938 -1.202465
31.750000 -1.157187 -1.202475
31.800000 -1.137713 -1.202485
31.850000 -1.119983 -1.202495
31.900000 -1.104413 -1.202505
31.950000 -1.091365 -1.202515
32.000000 -1.081136 -1.202524
32.050000 -1.073953 -1.202534
32.100000 -1.069964 -1.202543
32.150000 -1.069242 -1.202552
32.200000 -1.071776 -1.202561
32.250000 -1.077477 -1.202569
32.300000 -1.086180 -1.202578
32.350000 -1.097648 -1.202586
32.400000 -1.111578 -1.202595
32.450000 -1.127610 -1.202603
32.500000 -1.145336 -1.202611
32.550000 -1.164309 -1.202618
32.600000 -1.184057 -1.202626
32.650000 -1.204093 -1.202633
32.700000 -1.223924 -1.202641
32.750000 -1.243070 -1.202648
32.800000 -1.261069 -1.202655
32.850000 -1.277494 -1.202662
32.900000 -1.291956 -1.202669
32.950000 -1.304119 -1.202676
33.000000 -1.313708 -1.202682
33.050000 -1.320508 -1.202689
33.100000 -1.324379 -1.202695
33.150000 -1.325251 -1.202701
33.200000 -1.323128 -1.202708
33.250000 -1.318086 -1.202714
33.300000 -1.310273 -1.202720
33.350000 -1.299904 -1.202725
33.400000 -1.287253 -1.202731
33.450000 -1.272647 -1.202737
33.500000 -1.256459 -1.202742
33.550000 -1.239097 -1.202748
33.600000 -1.220994 -1.202753
33.650000 -1.202599 -1.202758
33.700000 -1.184362 -1.202763
33.750000 -1.166726 -1.202768
33.800000 -1.150117 -1.202773
33.850000 -1.134932 -1.202778
33.900000 -1.121528 -1.202783
33.950000 -1.110217 -1.202787
34.000000 -1.101258 -1.202792
34.050000 -1.094850 -1.202797
34.100000 -1.091128 -1.202801
34.150000 -1.090159 -1.202805
34.200000 -1.091945 -1.202810
34.250000 -1.096419 -1.202814
34.300000 -1.103449 -1.202818
34.350000 -1.112843 -1.202822
34.400000 -1.124352 -1.202826
34.450000 -1.137677 -1.202830
34.500000 -1.152479 -1.202834
34.550000 -1.168385 -1.202837
34.600000 -1.184997 -1.202841
34.650000 -1.201905 -1.202845
34.700000 -1.218693 -1.202848
34.750000 -1.234955 -1.202852
34.800000 -1.250297 -1.202855
34.850000 -1.264354 -1.202859
34.900000 -1.276793 -1.202862
34.950000 -1.287325 -1.202865
35.000000 -1.295710 -1.202868
35.050000 -1.301761 -1.202871
35.100000 -1.305350 -1.202874
35.150000 -1.306410 -1.202878
35.200000 -1.304938 -1.202880
35.250000 -1.300989 -1.202883
35.300000 -1.294681 -1.202886
35.350000 -1.286189 -1.202889
35.400000 -1.275736 -1.202892
35.450000 -1.263596 -1.202895
35.500000 -1.250077 -1.202897
35.550000 -1.235521 -1.202900
35.600000 -1.220292 -1.202902
35.650000 -1.204767 -1.202905
35.700000 -1.189327 -1.202907
35.750000 -1.174348 -1.202910
35.800000 -1.160190 -1.202912
35.850000 -1.147193 -1.202914
35.900000 -1.135664 -1.202917
35.950000 -1.125870 -1.202919
36.000000 -1.118038 -1.202921
36.050000 -1.112341 -1.202923
36.100000 -1.108900 -1.202926
36.150000 -1.107780 -1.202928
36.200000 -1.108990 -1.202930
36.250000 -1.112480 -1.202932
36.300000 -1.118146 -1.202934
36.350000 -1.125831 -1.202936
36.400000 -1.135332 -1.202938
36.450000 -1.146401 -1.202940
36.500000 -1.158756 -1.202941
36.550000 -1.172085 -1.202943
36.600000 -1.186054 -1.202945
36.650000 -1.200317 -1.202947
36.700000 -1.214525 -1.202948
36.750000 -1.228331 -1.202950
36.800000 -1.241403 -1.202952
36.850000 -1.253428 -1.202953
36.900000 -1.264121 -1.202955
36.950000 -1.273233 -1.202957
37.000000 -1.280555 -1.202958
37.050000 -1.285923 -1.202960
37.100000 -1.289224 -1.202961
37.150000 -1.290394 -1.202963
37.200000 -1.289423 -1.202964
37.250000 -1.286352 -1.202965
37.300000 -1.281273 -1.202967
37.350000 -1.274328 -1.202968
37.400000 -1.265701 -1.202969
37.450000 -1.255617 -1.202971
37.500000 -1.244335 -1.202972
37.550000 -1.232138 -1.202973
37.600000 -1.219333 -1.202975
37.650000 -1.206236 -1.202976
37.700000 -1.193170 -1.202977
37.750000 -1.180452 -1.202978
37.800000 -1.168391 -1.202979
37.850000 -1.157274 -1.202980
37.900000 -1.147364 -1.202982
37.950000 -1.138894 -1.202983
38.000000 -1.132058 -1.202984
38.050000 -1.127008 -1.202985
38.100000 -1.123852 -1.202986
38.150000 -1.122653 -1.202987
38.200000 -1.123422 -1.202988
38.250000 -1.126125 -1.202989
38.300000 -1.130679 -1.202990
38.350000 -1.136958 -1.202991
38.400000 -1.144794 -1.202992
38.450000 -1.153983 -1.202993
38.500000 -1.164290 -1.202993
38.550000 -1.175454 -1.202994
38.600000 -1.187196 -1.202995
38.650000 -1.199224 -1.202996
38.700000 -1.211244 -1.202997
38.750000 -1.222962 -1.202998
38.800000 -1.234094 -1.202998
38.850000 -1.244375 -1.202999
38.900000 -1.253561 -1.203000
38.950000 -1.261437 -1.203001
39.000000 -1.267822 -1.203002
39.050000 -1.272573 -1.203002
39.100000 -1.275588 -1.203003
39.150000 -1.276808 -1.203004
39.200000 -1.276219 -1.203004
39.250000 -1.273849 -1.203005
39.300000 -1.269772 -1.203006
39.350000 -1.264101 -1.203006
39.400000 -1.256989 -1.203007
39.450000 -1.248620 -1.203008
39.500000 -1.239209 -1.203008
39.550000 -1.228994 -1.203009
39.600000 -1.218232 -1.203010
39.650000 -1.207189 -1.203010
39.700000 -1.196136 -1.203011
39.750000 -1.185344 -1.203011
39.800000 -1.175073 -1.203012
39.850000 -1.165570 -1.203012
39.900000 -1.157059 -1.203013
39.950000 -1.149740 -1.203013
40.000000 -1.143782 -1.203014
40.050000 -1.139317 -1.203014
40.100000 -1.136443 -1.203015
40.150000 -1.135216 -1.203015
40.200000 -1.135653 -1.203016
40.250000 -1.137728 -1.203016
40.300000 -1.141377 -1.203017
40.350000 -1.146499 -1.203017
40.400000 -1.152956 -1.203018
40.450000 -1.160579 -1.203018
40.500000 -1.169173 -1.203019
40.550000 -1.178520 -1.203019
40.600000 -1.188385 -1.203019
40.650000 -1.198525 -1.203020
40.700000 -1.208689 -1.203020
40.750000 -1.218630 -1.203021
40.800000 -1.228107 -1.203021
40.850000 -1.236893 -1.203021
40.900000 -1.244779 -1.203022
40.950000 -1.251580 -1.203022
41.000000 -1.257141 -1.203023
41.050000 -1.261336 -1.203023
41.100000 -1.264074 -1.203023
41.150000 -1.265300 -1.203024
41.200000 -1.264998 -1.203024
41.250000 -1.263187 -1.203024
41.300000 -1.259924 -1.203025
41.350000 -1.255302 -1.203025
41.400000 -1.249444 -1.203025
41.450000 -1.242503 -1.203026
41.500000 -1.234658 -1.203026
41.550000 -1.226108 -1.203026
41.600000 -1.217067 -1.203026
41.650000 -1.207759 -1.203027
41.700000 -1.198414 -1.203027
41.750000 -1.189260 -1.203027
41.800000 -1.180518 -1.203028
41.850000 -1.172398 -1.203028
41.900000 -1.165094 -1.203028
41.950000 -1.158775 -1.203028
42.000000 -1.153589 -1.203029
42.050000 -1.149651 -1.203029
42.100000 -1.147048 -1.203029
42.150000 -1.145832 -1.203029
42.200000 -1.146020 -1.203030
42.250000 -1.147597 -1.203030
42.300000 -1.150512 -1.203030
42.350000 -1.154683 -1.203030
42.400000 -1.159998 -1.203030
42.450000 -1.166317 -1.203031
42.500000 -1.173478 -1.203031
42.550000 -1.181300 -1.203031
42.600000 -1.189586 -1.203031
42.650000 -1.198130 -1.203031
42.700000 -1.206722 -1.203032
42.750000 -1.215152 -1.203032
42.800000 -1.223216 -1.203032
42.850000 -1.230720 -1.203032
42.900000 -1.237486 -1.203032
42.950000 -1.243355 -1.203033
43.000000 -1.248191 -1.203033
43.050000 -1.251887 -1.203033
43.100000 -1.254360 -1.203033
43.150000 -1.255560 -1.203033
43.200000 -1.255471 -1.203033
43.250000 -1.254103 -1.203034
43.300000 -1.251502 -1.203034
43.350000 -1.247741 -1.203034
43.400000 -1.242921 -1.203034
43.450000 -1.237170 -1.203034
43.500000 -1.230634 -1.203034
43.550000 -1.223480 -1.203034
43.600000 -1.215888 -1.203035
43.650000 -1.208046 -1.203035
43.700000 -1.200148 -1.203035
43.750000 -1.192387 -1.203035
43.800000 -1.184950 -1.203035
43.850000 -1.178017 -1.203035
43.900000 -1.171751 -1.203035
43.950000 -1.166302 -1.203036
44.000000 -1.161793 -1.203036
44.050000 -1.158328 -1.203036
44.100000 -1.155982 -1.203036
44.150000 -1.154803 -1.203036
44.200000 -1.154809 -1.203036
44.250000 -1.155992 -1.203036
44.300000 -1.158311 -1.203036
44.350000 -1.161702 -1.203036
44.400000 -1.166072 -1.203037
44.450000 -1.171306 -1.203037
44.500000 -1.177270 -1.203037
44.550000 -1.183812 -1.203037
44.600000 -1.190768 -1.203037
44.650000 -1.197965 -1.203037
44.700000 -1.205225 -1.203037
44.750000 -1.212371 -1.203037
44.800000 -1.219229 -1.203037
44.850000 -1.225635 -1.203037
44.900000 -1.231437 -1.203038
44.950000 -1.236497 -1.203038
45.000000 -1.240699 -1.203038
45.050000 -1.243947 -1.203038
45.100000 -1.246171 -1.203038
45.150000 -1.247324 -1.203038
45.200000 -1.247388 -1.203038
45.250000 -1.246370 -1.203038
45.300000 -1.244305 -1.203038
45.350000 -1.241250 -1.203038
45.400000 -1.237290 -1.203038
45.450000 -1.232527 -1.203038
45.500000 -1.227086 -1.203038
45.550000 -1.221104 -1.203039
45.600000 -1.214732 -1.203039
45.650000 -1.208128 -1.203039
45.700000 -1.201455 -1.203039
45.750000 -1.194877 -1.203039
45.800000 -1.188553 -1.203039
45.850000 -1.182636 -1.203039
45.900000 -1.177266 -1.203039
45.950000 -1.172569 -1.203039
46.000000 -1.168654 -1.203039
46.050000 -1.165611 -1.203039
46.100000 -1.163505 -1.203039
46.150000 -1.162381 -1.203039
46.200000 -1.162258 -1.203039
46.250000 -1.163131 -1.203039
46.300000 -1.164969 -1.203039
46.350000 -1.167719 -1.203040
46.400000 -1.171308 -1.203040
46.450000 -1.175640 -1.203040
46.500000 -1.180604 -1.203040
46.550000 -1.186074 -1.203040
46.600000 -1.191911 -1.203040
46.650000 -1.197970 -1.203040
46.700000 -1.204102 -1.203040
46.750000 -1.210157 -1.203040
46.800000 -1.215987 -1.203040
46.850000 -1.221453 -1.203040
46.900000 -1.226424 -1.203040
46.950000 -1.230784 -1.203040
47.000000 -1.234430 -1.203040
47.050000 -1.237280 -1.203040
47.100000 -1.239272 -1.203040
47.150000 -1.240363 -1.203040
47.200000 -1.240535 -1.203040
47.250000 -1.239792 -1.203040
47.300000 -1.238159 -1.203040
47.350000 -1.235684 -1.203040
47.400000 -1.232433 -1.203040
47.450000 -1.228493 -1.203040
47.500000 -1.223965 -1.203040
47.550000 -1.218966 -1.203041
47.600000 -1.213620 -1.203041
47.650000 -1.208061 -1.203041
47.700000 -1.202426 -1.203041
47.750000 -1.196853 -1.203041
47.800000 -1.191478 -1.203041
47.850000 -1.186430 -1.203041
47.900000 -1.181830 -1.203041
47.950000 -1.177785 -1.203041
48.000000 -1.174390 -1.203041
48.050000 -1.171722 -1.203041
48.100000 -1.169840 -1.203041
48.150000 -1.168783 -1.203041
48.200000 -1.168570 -1.203041
48.250000 -1.169200 -1.203041
48.300000 -1.170649 -1.203041
48.350000 -1.172876 -1.203041
48.400000 -1.175820 -1.203041
48.450000 -1.179402 -1.203041
48.500000 -1.183531 -1.203041
48.550000 -1.188101 -1.203041
48.600000 -1.192997 -1.203041
48.650000 -1.198096 -1.203041
48.700000 -1.203274 -1.203041
48.750000 -1.208402 -1.203041
48.800000 -1.213357 -1.203041
48.850000 -1.218018 -1.203041
48.900000 -1.222275 -1.203041
48.950000 -1.226028 -1.203041
49.000000 -1.229188 -1.203041
49.050000 -1.231685 -1.203041
49.100000 -1.233462 -1.203041
49.150000 -1.234483 -1.203041
49.200000 -1.234728 -1.203041
49.250000 -1.234199 -1.203041
49.300000 -1.232915 -1.203041
49.350000 -1.230913 -1.203041
49.400000 -1.228248 -1.203041
49.450000 -1.224991 -1.203041
49.500000 -1.221227 -1.203041
49.550000 -1.217050 -1.203041
49.600000 -1.212567 -1.203041
49.650000 -1.207890 -1.203042
49.700000 -1.203133 -1.203042
49.750000 -1.198414 -1.203042
49.800000 -1.193848 -1.203042
49.850000 -1.189544 -1.203042
49.900000 -1.185605 -1.203042
49.950000 -1.182125 -1.203042
50.000000 -1.179183 -1.203042
50.050000 -1.176848 -1.203042
50.100000 -1.175171 -1.203042
50.150000 -1.174188 -1.203042
50.200000 -1.173917 -1.203042
50.250000 -1.174358 -1.203042
50.300000 -1.175494 -1.203042
50.350000 -1.177293 -1.203042
50.400000 -1.179704 -1.203042
50.450000 -1.182664 -1.203042
50.500000 -1.186096 -1.203042
50.550000 -1.189913 -1.203042
50.600000 -1.194017 -1.203042
50.650000 -1.198307 -1.203042
50.700000 -1.202677 -1.203042
50.750000 -1.207018 -1.203042
50.800000 -1.211227 -1.203042
50.850000 -1.215200 -1.203042
50.900000 -1.218844 -1.203042
50.950000 -1.222072 -1.203042
51.000000 -1.224808 -1.203042
51.050000 -1.226992 -1.203042
51.100000 -1.228573 -1.203042
51.150000 -1.229518 -1.203042
51.200000 -1.229809 -1.203042
51.250000 -1.229446 -1.203042
51.300000 -1.228442 -1.203042
51.350000 -1.226827 -1.203042
51.400000 -1.224646 -1.203042
51.450000 -1.221956 -1.203042
51.500000 -1.218828 -1.203042
51.550000 -1.215341 -1.203042
51.600000 -1.211584 -1.203042
51.650000 -1.207649 -1.203042
51.700000 -1.203636 -1.203042
51.750000 -1.199641 -1.203042
51.800000 -1.195764 -1.203042
51.850000 -1.192096 -1.203042
51.900000 -1.188725 -1.203042
51.950000 -1.185733 -1.203042
52.000000 -1.183187 -1.203042
52.050000 -1.181147 -1.203042
52.100000 -1.179657 -1.203042
52.150000 -1.178751 -1.203042
52.200000 -1.178444 -1.203042
52.250000 -1.178739 -1.203042
52.300000 -1.179625 -1.203042
52.350000 -1.181074 -1.203042
52.400000 -1.183046 -1.203042
52.450000 -1.185490 -1.203042
52.500000 -1.188341 -1.203042
52.550000 -1.191526 -1.203042
52.600000 -1.194965 -1.203042
52.650000 -1.198573 -1.203042
52.700000 -1.202259 -1.203042
52.750000 -1.205933 -1.203042
52.800000 -1.209506 -1.203042
52.850000 -1.212892 -1.203042
52.900000 -1.216009 -1.203042
52.950000 -1.218783 -1.203042
53.000000 -1.221151 -1.203042
53.050000 -1.223057 -1.203042
53.100000 -1.224459 -1.203042
53.150000 -1.225327 -1.203042
53.200000 -1.225645 -1.203042
53.250000 -1.225409 -1.203042
53.300000 -1.224629 -1.203042
53.350000 -1.223330 -1.203042
53.400000 -1.221547 -1.203042
53.450000 -1.219328 -1.203042
53.500000 -1.216730 -1.203042
53.550000 -1.213821 -1.203042
53.600000 -1.210673 -1.203042
53.650000 -1.207365 -1.203042
53.700000 -1.203980 -1.203042
53.750000 -1.200600 -1.203042
53.800000 -1.197309 -1.203042
53.850000 -1.194184 -1.203042
53.900000 -1.191302 -1.203042
53.950000 -1.188730 -1.203042
54.000000 -1.186529 -1.203042
54.050000 -1.184749 -1.203042
54.100000 -1.183430 -1.203042
54.150000 -1.182600 -1.203042
54.200000 -1.182275 -1.203042
54.250000 -1.182460 -1.203042
54.300000 -1.183145 -1.203042
54.350000 -1.184309 -1.203042
54.400000 -1.185920 -1.203042
54.450000 -1.187935 -1.203042
54.500000 -1.190301 -1.203042
54.550000 -1.192959 -1.203042
54.600000 -1.195839 -1.203042
54.650000 -1.198872 -1.203042
54.700000 -1.201980 -1.203042
54.750000 -1.205088 -1.203042
54.800000 -1.208121 -1.203042
54.850000 -1.211004 -1.203042
54.900000 -1.213668 -1.203042
54.950000 -1.216052 -1.203042
55.000000 -1.218098 -1.203042
55.050000 -1.219760 -1.203042
55.100000 -1.221000 -1.203042
55.150000 -1.221792 -1.203042
55.200000 -1.222120 -1.203042
55.250000 -1.221981 -1.203042
55.300000 -1.221381 -1.203042
55.350000 -1.220338 -1.203042
55.400000 -1.218883 -1.203042
55.450000 -1.217054 -1.203042
55.500000 -1.214899 -1.203042
55.550000 -1.212472 -1.203042
55.600000 -1.209836 -1.203042
55.650000 -1.207057 -1.203042
55.700000 -1.204203 -1.203042
55.750000 -1.201344 -1.203042
55.800000 -1.198551 -1.203042
55.850000 -1.195891 -1.203042
55.900000 -1.193428 -1.203042
55.950000 -1.191219 -1.203042
56.000000 -1.189318 -1.203042
56.050000 -1.187767 -1.203042
56.100000 -1.186601 -1.203042
56.150000 -1.185847 -1.203042
56.200000 -1.185517 -1.203042
56.250000 -1.185618 -1.203042
56.300000 -1.186143 -1.203042
56.350000 -1.187075 -1.203042
56.400000 -1.188389 -1.203042
56.450000 -1.190049 -1.203042
56.500000 -1.192012 -1.203042
56.550000 -1.194227 -1.203042
56.600000 -1.196639 -1.203042
56.650000 -1.199186 -1.203042
56.700000 -1.201807 -1.203042
56.750000 -1.204435 -1.203042
56.800000 -1.207007 -1.203042
56.850000 -1.209461 -1.203042
56.900000 -1.211738 -1.203042
56.950000 -1.213784 -1.203042
57.000000 -1.215551 -1.203042
57.050000 -1.216998 -1.203042
57.100000 -1.218093 -1.203042
57.150000 -1.218811 -1.203042
57.200000 -1.219139 -1.203042
57.250000 -1.219072 -1.203042
57.300000 -1.218614 -1.203042
57.350000 -1.217781 -1.203042
57.400000 -1.216595 -1.203042
57.450000 -1.215089 -1.203042
57.500000 -1.213302 -1.203042
57.550000 -1.211280 -1.203042
57.600000 -1.209073 -1.203042
57.650000 -1.206739 -1.203042
57.700000 -1.204333 -1.203042
57.750000 -1.201917 -1.203042
57.800000 -1.199548 -1.203042
57.850000 -1.197284 -1.203042
57.900000 -1.195180 -1.203042
57.950000 -1.193285 -1.203042
58.000000 -1.191644 -1.203042
58.050000 -1.190294 -1.203042
58.100000 -1.189267 -1.203042
58.150000 -1.188584 -1.203042
58.200000 -1.188259 -1.203042
58.250000 -1.188298 -1.203042
58.300000 -1.188695 -1.203042
58.350000 -1.189439 -1.203042
58.400000 -1.190509 -1.203042
58.450000 -1.191875 -1.203042
58.500000 -1.193502 -1.203042
58.550000 -1.195348 -1.203042
58.600000 -1.197366 -1.203042
58.650000 -1.199505 -1.203042
58.700000 -1.201713 -1.203042
58.750000 -1.203935 -1.203042
58.800000 -1.206116 -1.203042
58.850000 -1.208204 -1.203042
58.900000 -1.210149 -1.203042
58.950000 -1.211904 -1.203042
59.000000 -1.213428 -1.203042
59.050000 -1.214686 -1.203042
59.100000 -1.215650 -1.203042
59.150000 -1.216298 -1.203042
59.200000 -1.216618 -1.203042
59.250000 -1.216604 -1.203042
59.300000 -1.216260 -1.203042
59.350000 -1.215596 -1.203042
59.400000 -1.214631 -1.203042
59.450000 -1.213393 -1.203042
59.500000 -1.211912 -1.203042
59.550000 -1.210227 -1.203042
59.600000 -1.208382 -1.203042
59.650000 -1.206421 -1.203042
59.700000 -1.204395 -1.203042
59.750000 -1.202353 -1.203042
59.800000 -1.200345 -1.203042
59.850000 -1.198419 -1.203042
59.900000 -1.196622 -1.203042
59.950000 -1.194997 -1.203042
60.000000 -1.193582 -1.203042
60.050000 -1.192409 -1.203042
60.100000 -1.191505 -1.203042
60.150000 -1.190890 -1.203042
60.200000 -1.190577 -1.203042
60.250000 -1.190570 -1.203042
60.300000 -1.190867 -1.203042
60.350000 -1.191459 -1.203042
60.400000 -1.192328 -1.203042
60.450000 -1.193451 -1.203042
60.500000 -1.194799 -1.203042
60.550000 -1.196336 -1.203042
60.600000 -1.198023 -1.203042
60.650000 -1.199819 -1.203042
60.700000 -1.201679 -1.203042
60.750000 -1.203556 -1.203042
60.800000 -1.205405 -1.203042
60.850000 -1.207180 -1.203042
60.900000 -1.208840 -1.203042
60.950000 -1.210345 -1.203042
61.000000 -1.211659 -1.203042
61.050000 -1.212752 -1.203042
61.100000 -1.213599 -1.203042
61.150000 -1.214181 -1.203042
61.200000 -1.214487 -1.203042
61.250000 -1.214512 -1.203042
61.300000 -1.214256 -1.203042
61.350000 -1.213729 -1.203042
61.400000 -1.212947 -1.203042
61.450000 -1.211929 -1.203042
61.500000 -1.210703 -1.203042
61.550000 -1.209301 -1.203042
61.600000 -1.207758 -1.203042
61.650000 -1.206112 -1.203042
61.700000 -1.204406 -1.203042
61.750000 -1.202681 -1.203042
61.800000 -1.200979 -1.203042
61.850000 -1.199342 -1.203042
61.900000 -1.197809 -1.203042
61.950000 -1.196416 -1.203042
62.000000 -1.195196 -1.203042
62.050000 -1.194178 -1.203042
62.100000 -1.193385 -1.203042
62.150000 -1.192834 -1.203042
62.200000 -1.192536 -1.203042
62.250000 -1.192497 -1.203042
62.300000 -1.192715 -1.203042
62.350000 -1.193183 -1.203042
62.400000 -1.193888 -1.203042
62.450000 -1.194810 -1.203042
62.500000 -1.195925 -1.203042
62.550000 -1.197204 -1.203042
62.600000 -1.198615 -1.203042
62.650000 -1.200122 -1.203042
62.700000 -1.201687 -1.203042
62.750000 -1.203273 -1.203042
62.800000 -1.204839 -1.203042
62.850000 -1.206349 -1.203042
62.900000 -1.207765 -1.203042
62.950000 -1.209054 -1.203042
63.000000 -1.210186 -1.203042
63.050000 -1.211134 -1.203042
63.100000 -1.211877 -1.203042
63.150000 -1.212398 -1.203042
63.200000 -1.212687 -1.203042
63.250000 -1.212738 -1.203042
63.300000 -1.212552 -1.203042
63.350000 -1.212136 -1.203042
63.400000 -1.211502 -1.203042
63.450000 -1.210667 -1.203042
63.500000 -1.209653 -1.203042
63.550000 -1.208487 -1.203042
63.600000 -1.207197 -1.203042
63.650000 -1.205817 -1.203042
63.700000 -1.204381 -1.203042
63.750000 -1.202924 -1.203042
63.800000 -1.201482 -1.203042
63.850000 -1.200091 -1.203042
63.900000 -1.198783 -1.203042
63.950000 -1.197590 -1.203042
64.000000 -1.196540 -1.203042
64.050000 -1.195657 -1.203042
64.100000 -1.194962 -1.203042
64.150000 -1.194470 -1.203042
64.200000 -1.194190 -1.203042
64.250000 -1.194129 -1.203042
64.300000 -1.194286 -1.203042
64.350000 -1.194655 -1.203042
64.400000 -1.195225 -1.203042
64.450000 -1.195981 -1.203042
64.500000 -1.196903 -1.203042
64.550000 -1.197967 -1.203042
64.600000 -1.199146 -1.203042
64.650000 -1.200409 -1.203042
64.700000 -1.201727 -1.203042
64.750000 -1.203065 -1.203042
64.800000 -1.204392 -1.203042
64.850000 -1.205674 -1.203042
64.900000 -1.206882 -1.203042
64.950000 -1.207986 -1.203042
65.000000 -1.208960 -1.203042
65.050000 -1.209782 -1.203042
65.100000 -1.210432 -1.203042
65.150000 -1.210897 -1.203042
65.200000 -1.211166 -1.203042
65.250000 -1.211235 -1.203042
65.300000 -1.211104 -1.203042
65.350000 -1.210777 -1.203042
65.400000 -1.210265 -1.203042
65.450000 -1.209580 -1.203042
65.500000 -1.208742 -1.203042
65.550000 -1.207773 -1.203042
65.600000 -1.206695 -1.203042
65.650000 -1.205538 -1.203042
65.700000 -1.204330 -1.203042
65.750000 -1.203100 -1.203042
65.800000 -1.201880 -1.203042
65.850000 -1.200698 -1.203042
65.900000 -1.199583 -1.203042
65.950000 -1.198562 -1.203042
66.000000 -1.197658 -1.203042
66.050000 -1.196893 -1.203042
66.100000 -1.196285 -1.203042
66.150000 -1.195847 -1.203042
66.200000 -1.195588 -1.203042
66.250000 -1.195512 -1.203042
66.300000 -1.195621 -1.203042
66.350000 -1.195910 -1.203042
66.400000 -1.196370 -1.203042
66.450000 -1.196989 -1.203042
66.500000 -1.197751 -1.203042
66.550000 -1.198635 -1.203042
66.600000 -1.199619 -1.203042
66.650000 -1.200679 -1.203042
66.700000 -1.201787 -1.203042
66.750000 -1.202916 -1.203042
66.800000 -1.204039 -1.203042
66.850000 -1.205129 -1.203042
66.900000 -1.206158 -1.203042
66.950000 -1.207103 -1.203042
67.000000 -1.207940 -1.203042
67.050000 -1.208652 -1.203042
67.100000 -1.209220 -1.203042
67.150000 -1.209634 -1.203042
67.200000 -1.209883 -1.203042
67.250000 -1.209963 -1.203042
67.300000 -1.209874 -1.203042
67.350000 -1.209618 -1.203042
67.400000 -1.209205 -1.203042
67.450000 -1.208645 -1.203042
67.500000 -1.207953 -1.203042
67.550000 -1.207147 -1.203042
67.600000 -1.206248 -1.203042
67.650000 -1.205278 -1.203042
67.700000 -1.204262 -1.203042
67.750000 -1.203225 -1.203042
67.800000 -1.202192 -1.203042
67.850000 -1.201188 -1.203042
67.900000 -1.200238 -1.203042
67.950000 -1.199364 -1.203042
68.000000 -1.198588 -1.203042
68.050000 -1.197926 -1.203042
68.100000 -1.197395 -1.203042
68.150000 -1.197005 -1.203042
68.200000 -1.196767 -1.203042
68.250000 -1.196683 -1.203042
68.300000 -1.196755 -1.203042
68.350000 -1.196980 -1.203042
68.400000 -1.197351 -1.203042
68.450000 -1.197857 -1.203042
68.500000 -1.198485 -1.203042
68.550000 -1.199220 -1.203042
68.600000 -1.200041 -1.203042
68.650000 -1.200929 -1.203042
68.700000 -1.201861 -1.203042
68.750000 -1.202813 -1.203042
68.800000 -1.203764 -1.203042
68.850000 -1.204688 -1.203042
68.900000 -1.205565 -1.203042
68.950000 -1.206373 -1.203042
69.000000 -1.207093 -1.203042
69.050000 -1.207708 -1.203042
69.100000 -1.208205 -1.203042
69.150000 -1.208571 -1.203042
69.200000 -1.208799 -1.203042
69.250000 -1.208885 -1.203042
69.300000 -1.208828 -1.203042
69.350000 -1.208631 -1.203042
69.400000 -1.208298 -1.203042
69.450000 -1.207841 -1.203042
69.500000 -1.207270 -1.203042
69.550000 -1.206601 -1.203042
69.600000 -1.205851 -1.203042
69.650000 -1.205038 -1.203042
69.700000 -1.204184 -1.203042
69.750000 -1.203309 -1.203042
69.800000 -1.202435 -1.203042
69.850000 -1.201583 -1.203042
69.900000 -1.200774 -1.203042
69.950000 -1.200027 -1.203042
70.000000 -1.199360 -1.203042
70.050000 -1.198788 -1.203042
70.100000 -1.198324 -1.203042
70.150000 -1.197980 -1.203042
70.200000 -1.197762 -1.203042
70.250000 -1.197674 -1.203042
70.300000 -1.197718 -1.203042
70.350000 -1.197892 -1.203042
70.400000 -1.198189 -1.203042
70.450000 -1.198603 -1.203042
70.500000 -1.199121 -1.203042
70.550000 -1.199730 -1.203042
70.600000 -1.200415 -1.203042
70.650000 -1.201159 -1.203042
70.700000 -1.201942 -1.203042
70.750000 -1.202745 -1.203042
70.800000 -1.203549 -1.203042
70.850000 -1.204334 -1.203042
70.900000 -1.205080 -1.203042
70.950000 -1.205771 -1.203042
71.000000 -1.206390 -1.203042
71.050000 -1.206921 -1.203042
71.100000 -1.207354 -1.203042
71.150000 -1.207678 -1.203042
71.200000 -1.207886 -1.203042
71.250000 -1.207974 -1.203042
71.300000 -1.207941 -1.203042
71.350000 -1.207789 -1.203042
71.400000 -1.207523 -1.203042
71.450000 -1.207150 -1.203042
71.500000 -1.206679 -1.203042
71.550000 -1.206124 -1.203042
71.600000 -1.205499 -1.203042
71.650000 -1.204818 -1.203042
71.700000 -1.204101 -1.203042
71.750000 -1.203363 -1.203042
71.800000 -1.202624 -1.203042
71.850000 -1.201901 -1.203042
71.900000 -1.201212 -1.203042
71.950000 -1.200574 -1.203042
72.000000 -1.200001 -1.203042
72.050000 -1.199507 -1.203042
72.100000 -1.199103 -1.203042
72.150000 -1.198799 -1.203042
72.200000 -1.198601 -1.203042
72.250000 -1.198513 -1.203042
72.300000 -1.198535 -1.203042
72.350000 -1.198668 -1.203042
72.400000 -1.198906 -1.203042
72.450000 -1.199243 -1.203042
72.500000 -1.199670 -1.203042
72.550000 -1.200176 -1.203042
72.600000 -1.200747 -1.203042
72.650000 -1.201369 -1.203042
72.700000 -1.202027 -1.203042
72.750000 -1.202704 -1.203042
72.800000 -1.203384 -1.203042
72.850000 -1.204049 -1.203042
72.900000 -1.204685 -1.203042
72.950000 -1.205275 -1.203042
73.000000 -1.205806 -1.203042
73.050000 -1.206265 -1.203042
73.100000 -1.206641 -1.203042
73.150000 -1.206927 -1.203042
73.200000 -1.207115 -1.203042
73.250000 -1.207203 -1.203042
73.300000 -1.207188 -1.203042
73.350000 -1.207073 -1.203042
73.400000 -1.206860 -1.203042
73.450000 -1.206556 -1.203042
73.500000 -1.206169 -1.203042
73.550000 -1.205709 -1.203042
73.600000 -1.205187 -1.203042
73.650000 -1.204618 -1.203042
73.700000 -1.204015 -1.203042
73.750000 -1.203394 -1.203042
73.800000 -1.202769 -1.203042
73.850000 -1.202156 -1.203042
73.900000 -1.201570 -1.203042
73.950000 -1.201024 -1.203042
74.000000 -1.200533 -1.203042
74.050000 -1.200106 -1.203042
74.100000 -1.199755 -1.203042
74.150000 -1.199487 -1.203042
74.200000 -1.199308 -1.203042
74.250000 -1.199222 -1.203042
74.300000 -1.199229 -1.203042
74.350000 -1.199329 -1.203042
74.400000 -1.199519 -1.203042
74.450000 -1.199793 -1.203042
74.500000 -1.200144 -1.203042
74.550000 -1.200563 -1.203042
74.600000 -1.201039 -1.203042
74.650000 -1.201560 -1.203042
74.700000 -1.202112 -1.203042
74.750000 -1.202683 -1.203042
74.800000 -1.203257 -1.203042
74.850000 -1.203822 -1.203042
74.900000 -1.204362 -1.203042
74.950000 -1.204866 -1.203042
75.000000 -1.205321 -1.203042
75.050000 -1.205717 -1.203042
75.100000 -1.206045 -1.203042
75.150000 -1.206296 -1.203042
75.200000 -1.206466 -1.203042
75.250000 -1.206551 -1.203042
75.300000 -1.206550 -1.203042
75.350000 -1.206463 -1.203042
75.400000 -1.206294 -1.203042
75.450000 -1.206046 -1.203042
75.500000 -1.205728 -1.203042
75.550000 -1.205347 -1.203042
75.600000 -1.204913 -1.203042
75.650000 -1.204437 -1.203042
75.700000 -1.203930 -1.203042
75.750000 -1.203407 -1.203042
75.800000 -1.202879 -1.203042
75.850000 -1.202359 -1.203042
75.900000 -1.201861 -1.203042
75.950000 -1.201395 -1.203042
76.000000 -1.200973 -1.203042
76.050000 -1.200606 -1.203042
76.100000 -1.200301 -1.203042
76.150000 -1.200065 -1.203042
76.200000 -1.199904 -1.203042
76.250000 -1.199821 -1.203042
76.300000 -1.199817 -1.203042
76.350000 -1.199892 -1.203042
76.400000 -1.200042 -1.203042
76.450000 -1.200265 -1.203042
76.500000 -1.200554 -1.203042
76.550000 -1.200901 -1.203042
76.600000 -1.201297 -1.203042
76.650000 -1.201732 -1.203042
76.700000 -1.202196 -1.203042
76.750000 -1.202676 -1.203042
76.800000 -1.203162 -1.203042
76.850000 -1.203640 -1.203042
76.900000 -1.204100 -1.203042
76.950000 -1.204530 -1.203042
77.000000 -1.204920 -1.203042
77.050000 -1.205261 -1.203042
77.100000 -1.205545 -1.203042
77.150000 -1.205766 -1.203042
77.200000 -1.205919 -1.203042
77.250000 -1.206000 -1.203042
77.300000 -1.206008 -1.203042
77.350000 -1.205944 -1.203042
77.400000 -1.205810 -1.203042
77.450000 -1.205609 -1.203042
77.500000 -1.205348 -1.203042
77.550000 -1.205032 -1.203042
77.600000 -1.204671 -1.203042
77.650000 -1.204273 -1.203042
77.700000 -1.203848 -1.203042
77.750000 -1.203407 -1.203042
77.800000 -1.202961 -1.203042
77.850000 -1.202521 -1.203042
77.900000 -1.202097 -1.203042
77.950000 -1.201700 -1.203042
78.000000 -1.201339 -1.203042
78.050000 -1.201022 -1.203042
78.100000 -1.200757 -1.203042
78.150000 -1.200551 -1.203042
78.200000 -1.200406 -1.203042
78.250000 -1.200327 -1.203042
78.300000 -1.200315 -1.203042
78.350000 -1.200370 -1.203042
78.400000 -1.200489 -1.203042
78.450000 -1.200670 -1.203042
78.500000 -1.200907 -1.203042
78.550000 -1.201194 -1.203042
78.600000 -1.201523 -1.203042
78.650000 -1.201887 -1.203042
78.700000 -1.202276 -1.203042
78.750000 -1.202681 -1.203042
78.800000 -1.203091 -1.203042
78.850000 -1.203496 -1.203042
78.900000 -1.203887 -1.203042
78.950000 -1.204253 -1.203042
79.000000 -1.204588 -1.203042
79.050000 -1.204882 -1.203042
79.100000 -1.205128 -1.203042
79.150000 -1.205322 -1.203042
79.200000 -1.205458 -1.203042
79.250000 -1.205534 -1.203042
79.300000 -1.205549 -1.203042
79.350000 -1.205503 -1.203042
79.400000 -1.205397 -1.203042
79.450000 -1.205235 -1.203042
79.500000 -1.205020 -1.203042
79.550000 -1.204759 -1.203042
79.600000 -1.204459 -1.203042
79.650000 -1.204126 -1.203042
79.700000 -1.203770 -1.203042
79.750000 -1.203399 -1.203042
79.800000 -1.203022 -1.203042
79.850000 -1.202649 -1.203042
79.900000 -1.202289 -1.203042
79.950000 -1.201950 -1.203042
80.000000 -1.201641 -1.203042
80.050000 -1.201368 -1.203042
80.100000 -1.201139 -1.203042
80.150000 -1.200958 -1.203042
80.200000 -1.200829 -1.203042
80.250000 -1.200755 -1.203042
80.300000 -1.200738 -1.203042
80.350000 -1.200777 -1.203042
80.400000 -1.200871 -1.203042
80.450000 -1.201017 -1.203042
80.500000 -1.201211 -1.203042
80.550000 -1.201448 -1.203042
80.600000 -1.201722 -1.203042
80.650000 -1.202026 -1.203042
80.700000 -1.202352 -1.203042
80.750000 -1.202693 -1.203042
80.800000 -1.203039 -1.203042
80.850000 -1.203382 -1.203042
80.900000 -1.203714 -1.203042
80.950000 -1.204027 -1.203042
81.000000 -1.204313 -1.203042
81.050000 -1.204566 -1.203042
81.100000 -1.204779 -1.203042
81.150000 -1.204949 -1.203042
81.200000 -1.205070 -1.203042
81.250000 -1.205141 -1.203042
81.300000 -1.205161 -1.203042
81.350000 -1.205128 -1.203042
81.400000 -1.205045 -1.203042
81.450000 -1.204914 -1.203042
81.500000 -1.204738 -1.203042
81.550000 -1.204523 -1.203042
81.600000 -1.204273 -1.203042
81.650000 -1.203995 -1.203042
81.700000 -1.203696 -1.203042
81.750000 -1.203384 -1.203042
81.800000 -1.203066 -1.203042
81.850000 -1.202751 -1.203042
81.900000 -1.202445 -1.203042
81.950000 -1.202156 -1.203042
82.000000 -1.201891 -1.203042
82.050000 -1.201656 -1.203042
82.100000 -1.201458 -1.203042
82.150000 -1.201299 -1.203042
82.200000 -1.201185 -1.203042
82.250000 -1.201116 -1.203042
82.300000 -1.201096 -1.203042
82.350000 -1.201122 -1.203042
82.400000 -1.201196 -1.203042
82.450000 -1.201314 -1.203042
82.500000 -1.201473 -1.203042
82.550000 -1.201668 -1.203042
82.600000 -1.201896 -1.203042
82.650000 -1.202150 -1.203042
82.700000 -1.202423 -1.203042
82.750000 -1.202710 -1.203042
82.800000 -1.203002 -1.203042
82.850000 -1.203292 -1.203042
82.900000 -1.203574 -1.203042
82.950000 -1.203841 -1.203042
83.000000 -1.204086 -1.203042
83.050000 -1.204303 -1.203042
83.100000 -1.204488 -1.203042
83.150000 -1.204636 -1.203042
83.200000 -1.204744 -1.203042
83.250000 -1.204810 -1.203042
83.300000 -1.204832 -1.203042
83.350000 -1.204810 -1.203042
83.400000 -1.204745 -1.203042
83.450000 -1.204639 -1.203042
83.500000 -1.204495 -1.203042
83.550000 -1.204317 -1.203042
83.600000 -1.204110 -1.203042
83.650000 -1.203878 -1.203042
83.700000 -1.203628 -1.203042
83.750000 -1.203365 -1.203042
83.800000 -1.203097 -1.203042
83.850000 -1.202830 -1.203042
83.900000 -1.202570 -1.203042
83.950000 -1.202324 -1.203042
84.000000 -1.202097 -1.203042
84.050000 -1.201896 -1.203042
84.100000 -1.201724 -1.203042
84.150000 -1.201586 -1.203042
84.200000 -1.201484 -1.203042
84.250000 -1.201421 -1.203042
84.300000 -1.201398 -1.203042
84.350000 -1.201416 -1.203042
84.400000 -1.201473 -1.203042
84.450000 -1.201568 -1.203042
84.500000 -1.201698 -1.203042
84.550000 -1.201859 -1.203042
84.600000 -1.202048 -1.203042
84.650000 -1.202260 -1.203042
84.700000 -1.202489 -1.203042
84.750000 -1.202730 -1.203042
84.800000 -1.202976 -1.203042
84.850000 -1.203222 -1.203042
84.900000 -1.203461 -1.203042
84.950000 -1.203688 -1.203042
85.000000 -1.203898 -1.203042
85.050000 -1.204085 -1.203042
85.100000 -1.204245 -1.203042
85.150000 -1.204374 -1.203042
85.200000 -1.204470 -1.203042
85.250000 -1.204530 -1.203042
85.300000 -1.204553 -1.203042
85.350000 -1.204539 -1.203042
85.400000 -1.204489 -1.203042
85.450000 -1.204404 -1.203042
85.500000 -1.204287 -1.203042
85.550000 -1.204140 -1.203042
85.600000 -1.203968 -1.203042
85.650000 -1.203774 -1.203042
85.700000 -1.203564 -1.203042
85.750000 -1.203344 -1.203042
85.800000 -1.203118 -1.203042
85.850000 -1.202892 -1.203042
85.900000 -1.202671 -1.203042
85.950000 -1.202462 -1.203042
86.000000 -1.202268 -1.203042
86.050000 -1.202095 -1.203042
86.100000 -1.201946 -1.203042
86.150000 -1.201826 -1.203042
86.200000 -1.201736 -1.203042
86.250000 -1.201678 -1.203042
86.300000 -1.201655 -1.203042
86.350000 -1.201665 -1.203042
86.400000 -1.201709 -1.203042
86.450000 -1.201785 -1.203042
86.500000 -1.201891 -1.203042
86.550000 -1.202024 -1.203042
86.600000 -1.202181 -1.203042
86.650000 -1.202358 -1.203042
86.700000 -1.202550 -1.203042
86.750000 -1.202752 -1.203042
86.800000 -1.202960 -1.203042
86.850000 -1.203168 -1.203042
86.900000 -1.203371 -1.203042
86.950000 -1.203564 -1.203042
87.000000 -1.203743 -1.203042
87.050000 -1.203904 -1.203042
87.100000 -1.204042 -1.203042
87.150000 -1.204154 -1.203042
87.200000 -1.204239 -1.203042
87.250000 -1.204293 -1.203042
87.300000 -1.204317 -1.203042
87.350000 -1.204310 -1.203042
87.400000 -1.204271 -1.203042
87.450000 -1.204203 -1.203042
87.500000 -1.204107 -1.203042
87.550000 -1.203986 -1.203042
87.600000 -1.203843 -1.203042
87.650000 -1.203682 -1.203042
87.700000 -1.203507 -1.203042
87.750000 -1.203321 -1.203042
87.800000 -1.203131 -1.203042
87.850000 -1.202939 -1.203042
87.900000 -1.202752 -1.203042
87.950000 -1.202574 -1.203042
88.000000 -1.202409 -1.203042
88.050000 -1.202260 -1.203042
88.100000 -1.202132 -1.203042
88.150000 -1.202027 -1.203042
88.200000 -1.201947 -1.203042
88.250000 -1.201895 -1.203042
88.300000 -1.201872 -1.203042
88.350000 -1.201877 -1.203042
88.400000 -1.201910 -1.203042
88.450000 -1.201971 -1.203042
88.500000 -1.202057 -1.203042
88.550000 -1.202167 -1.203042
88.600000 -1.202297 -1.203042
88.650000 -1.202445 -1.203042
88.700000 -1.202605 -1.203042
88.750000 -1.202775 -1.203042
88.800000 -1.202950 -1.203042
88.850000 -1.203126 -1.203042
88.900000 -1.203298 -1.203042
88.950000 -1.203463 -1.203042
89.000000 -1.203615 -1.203042
89.050000 -1.203753 -1.203042
89.100000 -1.203872 -1.203042
89.150000 -1.203970 -1.203042
89.200000 -1.204045 -1.203042
89.250000 -1.204094 -1.203042
89.300000 -1.204118 -1.203042
89.350000 -1.204115 -1.203042
89.400000 -1.204086 -1.203042
89.450000 -1.204031 -1.203042
89.500000 -1.203953 -1.203042
89.550000 -1.203854 -1.203042
89.600000 -1.203735 -1.203042
89.650000 -1.203601 -1.203042
89.700000 -1.203454 -1.203042
89.750000 -1.203298 -1.203042
89.800000 -1.203138 -1.203042
89.850000 -1.202976 -1.203042
89.900000 -1.202818 -1.203042
89.950000 -1.202666 -1.203042
90.000000 -1.202524 -1.203042
90.050000 -1.202397 -1.203042
90.100000 -1.202286 -1.203042
90.150000 -1.202195 -1.203042
90.200000 -1.202125 -1.203042
90.250000 -1.202078 -1.203042
90.300000 -1.202055 -1.203042
90.350000 -1.202056 -1.203042
90.400000 -1.202081 -1.203042
90.450000 -1.202130 -1.203042
90.500000 -1.202200 -1.203042
90.550000 -1.202290 -1.203042
90.600000 -1.202398 -1.203042
90.650000 -1.202521 -1.203042
90.700000 -1.202655 -1.203042
90.750000 -1.202798 -1.203042
90.800000 -1.202945 -1.203042
90.850000 -1.203094 -1.203042
90.900000 -1.203240 -1.203042
90.950000 -1.203380 -1.203042
91.000000 -1.203510 -1.203042
91.050000 -1.203628 -1.203042
91.100000 -1.203731 -1.203042
91.150000 -1.203816 -1.203042
91.200000 -1.203882 -1.203042
91.250000 -1.203927 -1.203042
91.300000 -1.203949 -1.203042
91.350000 -1.203949 -1.203042
91.400000 -1.203928 -1.203042
91.450000 -1.203884 -1.203042
91.500000 -1.203821 -1.203042
91.550000 -1.203739 -1.203042
91.600000 -1.203641 -1.203042
91.650000 -1.203529 -1.203042
91.700000 -1.203406 -1.203042
91.750000 -1.203276 -1.203042
91.800000 -1.203140 -1.203042
91.850000 -1.203004 -1.203042
91.900000 -1.202869 -1.203042
91.950000 -1.202740 -1.203042
92.000000 -1.202620 -1.203042
92.050000 -1.202510 -1.203042
92.100000 -1.202415 -1.203042
92.150000 -1.202336 -1.203042
92.200000 -1.202274 -1.203042
92.250000 -1.202232 -1.203042
92.300000 -1.202210 -1.203042
92.350000 -1.202208 -1.203042
92.400000 -1.202227 -1.203042
92.450000 -1.202265 -1.203042
92.500000 -1.202323 -1.203042
92.550000 -1.202397 -1.203042
92.600000 -1.202486 -1.203042
92.650000 -1.202588 -1.203042
92.700000 -1.202700 -1.203042
92.750000 -1.202820 -1.203042
92.800000 -1.202944 -1.203042
92.850000 -1.203070 -1.203042
92.900000 -1.203193 -1.203042
92.950000 -1.203313 -1.203042
93.000000 -1.203424 -1.203042
93.050000 -1.203525 -1.203042
93.100000 -1.203614 -1.203042
93.150000 -1.203688 -1.203042
93.200000 -1.203745 -1.203042
93.250000 -1.203785 -1.203042
93.300000 -1.203807 -1.203042
93.350000 -1.203809 -1.203042
93.400000 -1.203793 -1.203042
93.450000 -1.203759 -1.203042
93.500000 -1.203708 -1.203042
93.550000 -1.203641 -1.203042
93.600000 -1.203559 -1.203042
93.650000 -1.203466 -1.203042
93.700000 -1.203363 -1.203042
93.750000 -1.203254 -1.203042
93.800000 -1.203140 -1.203042
93.850000 -1.203025 -1.203042
93.900000 -1.202911 -1.203042
93.950000 -1.202801 -1.203042
94.000000 -1.202698 -1.203042
94.050000 -1.202604 -1.203042
94.100000 -1.202522 -1.203042
94.150000 -1.202453 -1.203042
94.200000 -1.202399 -1.203042
94.250000 -1.202362 -1.203042
94.300000 -1.202341 -1.203042
94.350000 -1.202337 -1.203042
94.400000 -1.202351 -1.203042
94.450000 -1.202381 -1.203042
94.500000 -1.202428 -1.203042
94.550000 -1.202488 -1.203042
94.600000 -1.202562 -1.203042
94.650000 -1.202647 -1.203042
94.700000 -1.202741 -1.203042
94.750000 -1.202841 -1.203042
94.800000 -1.202946 -1.203042
94.850000 -1.203052 -1.203042
94.900000 -1.203157 -1.203042
94.950000 -1.203258 -1.203042
95.000000 -1.203353 -1.203042
95.050000 -1.203440 -1.203042
95.100000 -1.203516 -1.203042
95.150000 -1.203580 -1.203042
95.200000 -1.203630 -1.203042
95.250000 -1.203666 -1.203042
95.300000 -1.203686 -1.203042
95.350000 -1.203691 -1.203042
95.400000 -1.203679 -1.203042
95.450000 -1.203652 -1.203042
95.500000 -1.203611 -1.203042
95.550000 -1.203555 -1.203042
95.600000 -1.203488 -1.203042
95.650000 -1.203411 -1.203042
95.700000 -1.203325 -1.203042
95.750000 -1.203233 -1.203042
95.800000 -1.203137 -1.203042
95.850000 -1.203040 -1.203042
95.900000 -1.202943 -1.203042
95.950000 -1.202850 -1.203042
96.000000 -1.202762 -1.203042
96.050000 -1.202682 -1.203042
96.100000 -1.202611 -1.203042
96.150000 -1.202552 -1.203042
96.200000 -1.202505 -1.203042
96.250000 -1.202471 -1.203042
96.300000 -1.202451 -1.203042
96.350000 -1.202447 -1.203042
96.400000 -1.202456 -1.203042
96.450000 -1.202480 -1.203042
96.500000 -1.202517 -1.203042
96.550000 -1.202567 -1.203042
96.600000 -1.202628 -1.203042
96.650000 -1.202699 -1.203042
96.700000 -1.202777 -1.203042
96.750000 -1.202862 -1.203042
96.800000 -1.202949 -1.203042
96.850000 -1.203039 -1.203042
96.900000 -1.203128 -1.203042
96.950000 -1.203214 -1.203042
97.000000 -1.203295 -1.203042
97.050000 -1.203369 -1.203042
97.100000 -1.203435 -1.203042
97.150000 -1.203490 -1.203042
97.200000 -1.203534 -1.203042
97.250000 -1.203566 -1.203042
97.300000 -1.203585 -1.203042
97.350000 -1.203590 -1.203042
97.400000 -1.203582 -1.203042
97.450000 -1.203561 -1.203042
97.500000 -1.203527 -1.203042
97.550000 -1.203482 -1.203042
97.600000 -1.203427 -1.203042
97.650000 -1.203362 -1.203042
97.700000 -1.203291 -1.203042
97.750000 -1.203214 -1.203042
97.800000 -1.203133 -1.203042
97.850000 -1.203051 -1.203042
97.900000 -1.202969 -1.203042
97.950000 -1.202890 -1.203042
98.000000 -1.202815 -1.203042
98.050000 -1.202747 -1.203042
98.100000 -1.202686 -1.203042
98.150000 -1.202634 -1.203042
98.200000 -1.202593 -1.203042
98.250000 -1.202563 -1.203042
98.300000 -1.202545 -1.203042
98.350000 -1.202539 -1.203042
98.400000 -1.202546 -1.203042
98.450000 -1.202564 -1.203042
98.500000 -1.202594 -1.203042
98.550000 -1.202635 -1.203042
98.600000 -1.202686 -1.203042
98.650000 -1.202744 -1.203042
98.700000 -1.202810 -1.203042
98.750000 -1.202880 -1.203042
98.800000 -1.202954 -1.203042
98.850000 -1.203030 -1.203042
98.900000 -1.203105 -1.203042
98.950000 -1.203178 -1.203042
99.000000 -1.203247 -1.203042
99.050000 -1.203310 -1.203042
99.100000 -1.203367 -1.203042
99.150000 -1.203415 -1.203042
99.200000 -1.203453 -1.203042
99.250000 -1.203482 -1.203042
99.300000 -1.203499 -1.203042
99.350000 -1.203505 -1.203042
99.400000 -1.203500 -1.203042
99.450000 -1.203483 -1.203042
99.500000 -1.203456 -1.203042
99.550000 -1.203419 -1.203042
99.600000 -1.203373 -1.203042
99.650000 -1.203320 -1.203042
99.700000 -1.203260 -1.203042
99.750000 -1.203196 -1.203042
99.800000 -1.203128 -1.203042
99.850000 -1.203058 -1.203042
99.900000 -1.202989 -1.203042
99.950000 -1.202922 -1.203042
100.000000 -1.202858 -1.203042
100.050000 -1.202800 -1.203042
100.100000 -1.202747 -1.203042
100.150000 -1.202703 -1.203042
100.200000 -1.202667 -1.203042
100.250000 -1.202640 -1.203042
100.300000 -1.202624 -1.203042
100.350000 -1.202617 -1.203042
100.400000 -1.202622 -1.203042
100.450000 -1.202636 -1.203042
100.500000 -1.202660 -1.203042
100.550000 -1.202694 -1.203042
100.600000 -1.202735 -1.203042
100.650000 -1.202784 -1.203042
100.700000 -1.202839 -1.203042
100.750000 -1.202898 -1.203042
100.800000 -1.202960 -1.203042
100.850000 -1.203024 -1.203042
100.900000 -1.203087 -1.203042
100.950000 -1.203149 -1.203042
101.000000 -1.203208 -1.203042
101.050000 -1.203262 -1.203042
101.100000 -1.203311 -1.203042
101.150000 -1.203352 -1.203042
101.200000 -1.203386 -1.203042
101.250000 -1.203411 -1.203042
101.300000 -1.203427 -1.203042
101.350000 -1.203433 -1.203042
101.400000 -1.203430 -1.203042
101.450000 -1.203417 -1.203042
101.500000 -1.203395 -1.203042
101.550000 -1.203365 -1.203042
101.600000 -1.203327 -1.203042
101.650000 -1.203283 -1.203042
101.700000 -1.203233 -1.203042
101.750000 -1.203179 -1.203042
101.800000 -1.203122 -1.203042
101.850000 -1.203064 -1.203042
101.900000 -1.203005 -1.203042
101.950000 -1.202948 -1.203042
102.000000 -1.202894 -1.203042
102.050000 -1.202844 -1.203042
102.100000 -1.202799 -1.203042
102.150000 -1.202760 -1.203042
102.200000 -1.202729 -1.203042
102.250000 -1.202705 -1.203042
102.300000 -1.202690 -1.203042
102.350000 -1.202684 -1.203042
102.400000 -1.202686 -1.203042
102.450000 -1.202697 -1.203042
102.500000 -1.202717 -1.203042
102.550000 -1.202744 -1.203042
102.600000 -1.202778 -1.203042
102.650000 -1.202819 -1.203042
102.700000 -1.202864 -1.203042
102.750000 -1.202914 -1.203042
102.800000 -1.202966 -1.203042
102.850000 -1.203020 -1.203042
102.900000 -1.203073 -1.203042
102.950000 -1.203126 -1.203042
103.000000 -1.203176 -1.203042
103.050000 -1.203222 -1.203042
103.100000 -1.203264 -1.203042
103.150000 -1.203300 -1.203042
103.200000 -1.203329 -1.203042
103.250000 -1.203351 -1.203042
103.300000 -1.203366 -1.203042
103.350000 -1.203372 -1.203042
103.400000 -1.203370 -1.203042
103.450000 -1.203360 -1.203042
103.500000 -1.203343 -1.203042
103.550000 -1.203318 -1.203042
103.600000 -1.203287 -1.203042
103.650000 -1.203251 -1.203042
103.700000 -1.203209 -1.203042
103.750000 -1.203164 -1.203042
103.800000 -1.203116 -1.203042
103.850000 -1.203067 -1.203042
103.900000 -1.203017 -1.203042
103.950000 -1.202969 -1.203042
104.000000 -1.202923 -1.203042
104.050000 -1.202880 -1.203042
104.100000 -1.202841 -1.203042
104.150000 -1.202808 -1.203042
104.200000 -1.202780 -1.203042
104.250000 -1.202760 -1.203042
104.300000 -1.202746 -1.203042
104.350000 -1.202740 -1.203042
104.400000 -1.202741 -1.203042
104.450000 -1.202749 -1.203042
104.500000 -1.202765 -1.203042
104.550000 -1.202787 -1.203042
104.600000 -1.202815 -1.203042
104.650000 -1.202849 -1.203042
104.700000 -1.202887 -1.203042
104.750000 -1.202928 -1.203042
104.800000 -1.202972 -1.203042
104.850000 -1.203017 -1.203042
104.900000 -1.203063 -1.203042
104.950000 -1.203107 -1.203042
105.000000 -1.203150 -1.203042
105.050000 -1.203189 -1.203042
105.100000 -1.203225 -1.203042
105.150000 -1.203256 -1.203042
105.200000 -1.203282 -1.203042
105.250000 -1.203301 -1.203042
105.300000 -1.203314 -1.203042
105.350000 -1.203320 -1.203042
105.400000 -1.203320 -1.203042
105.450000 -1.203312 -1.203042
105.500000 -1.203299 -1.203042
105.550000 -1.203279 -1.203042
105.600000 -1.203253 -1.203042
105.650000 -1.203222 -1.203042
105.700000 -1.203188 -1.203042
105.750000 -1.203150 -1.203042
105.800000 -1.203110 -1.203042
105.850000 -1.203068 -1.203042
105.900000 -1.203026 -1.203042
105.950000 -1.202985 -1.203042
106.000000 -1.202946 -1.203042
106.050000 -1.202909 -1.203042
106.100000 -1.202876 -1.203042
106.150000 -1.202848 -1.203042
106.200000 -1.202824 -1.203042
106.250000 -1.202806 -1.203042
106.300000 -1.202793 -1.203042
106.350000 -1.202787 -1.203042
106.400000 -1.202787 -1.203042
106.450000 -1.202794 -1.203042
106.500000 -1.202806 -1.203042
106.550000 -1.202824 -1.203042
106.600000 -1.202847 -1.203042
106.650000 -1.202875 -1.203042
106.700000 -1.202907 -1.203042
106.750000 -1.202941 -1.203042
106.800000 -1.202978 -1.203042
106.850000 -1.203016 -1.203042
106.900000 -1.203055 -1.203042
106.950000 -1.203092 -1.203042
107.000000 -1.203129 -1.203042
107.050000 -1.203162 -1.203042
107.100000 -1.203193 -1.203042
107.150000 -1.203220 -1.203042
107.200000 -1.203242 -1.203042
107.250000 -1.203259 -1.203042
107.300000 -1.203271 -1.203042
107.350000 -1.203277 -1.203042
107.400000 -1.203277 -1.203042
107.450000 -1.203271 -1.203042
107.500000 -1.203260 -1.203042
107.550000 -1.203244 -1.203042
107.600000 -1.203223 -1.203042
107.650000 -1.203198 -1.203042
107.700000 -1.203169 -1.203042
107.750000 -1.203137 -1.203042
107.800000 -1.203104 -1.203042
107.850000 -1.203069 -1.203042
107.900000 -1.203033 -1.203042
107.950000 -1.202999 -1.203042
108.000000 -1.202965 -1.203042
108.050000 -1.202934 -1.203042
108.100000 -1.202906 -1.203042
108.150000 -1.202881 -1.203042
108.200000 -1.202860 -1.203042
108.250000 -1.202844 -1.203042
108.300000 -1.202833 -1.203042
108.350000 -1.202827 -1.203042
108.400000 -1.202827 -1.203042
108.450000 -1.202831 -1.203042
108.500000 -1.202841 -1.203042
108.550000 -1.202856 -1.203042
108.600000 -1.202875 -1.203042
108.650000 -1.202898 -1.203042
108.700000 -1.202924 -1.203042
108.750000 -1.202953 -1.203042
108.800000 -1.202984 -1.203042
108.850000 -1.203016 -1.203042
108.900000 -1.203049 -1.203042
108.950000 -1.203081 -1.203042
109.000000 -1.203111 -1.203042
109.050000 -1.203140 -1.203042
109.100000 -1.203167 -1.203042
109.150000 -1.203190 -1.203042
109.200000 -1.203209 -1.203042
109.250000 -1.203224 -1.203042
109.300000 -1.203234 -1.203042
109.350000 -1.203240 -1.203042
109.400000 -1.203241 -1.203042
109.450000 -1.203237 -1.203042
109.500000 -1.203228 -1.203042
109.550000 -1.203215 -1.203042
109.600000 -1.203198 -1.203042
109.650000 -1.203177 -1.203042
109.700000 -1.203153 -1.203042
109.750000 -1.203126 -1.203042
109.800000 -1.203098 -1.203042
109.850000 -1.203068 -1.203042
109.900000 -1.203039 -1.203042
109.950000 -1.203009 -1.203042
110.000000 -1.202981 -1.203042
110.050000 -1.202954 -1.203042
110.100000 -1.202930 -1.203042
110.150000 -1.202908 -1.203042
110.200000 -1.202891 -1.203042
110.250000 -1.202876 -1.203042
110.300000 -1.202867 -1.203042
110.350000 -1.202861 -1.203042
110.400000 -1.202860 -1.203042
110.450000 -1.202863 -1.203042
110.500000 -1.202871 -1.203042
110.550000 -1.202883 -1.203042
110.600000 -1.202899 -1.203042
110.650000 -1.202918 -1.203042
110.700000 -1.202940 -1.203042
110.750000 -1.202964 -1.203042
110.800000 -1.202990 -1.203042
110.850000 -1.203017 -1.203042
110.900000 -1.203044 -1.203042
110.950000 -1.203071 -1.203042
111.000000 -1.203097 -1.203042
111.050000 -1.203122 -1.203042
111.100000 -1.203144 -1.203042
111.150000 -1.203164 -1.203042
111.200000 -1.203181 -1.203042
111.250000 -1.203194 -1.203042
111.300000 -1.203203 -1.203042
111.350000 -1.203209 -1.203042
111.400000 -1.203210 -1.203042
111.450000 -1.203207 -1.203042
111.500000 -1.203200 -1.203042
111.550000 -1.203190 -1.203042
111.600000 -1.203175 -1.203042
111.650000 -1.203158 -1.203042
111.700000 -1.203138 -1.203042
111.750000 -1.203116 -1.203042
111.800000 -1.203092 -1.203042
111.850000 -1.203068 -1.203042
111.900000 -1.203042 -1.203042
111.950000 -1.203017 -1.203042
112.000000 -1.202993 -1.203042
112.050000 -1.202971 -1.203042
112.100000 -1.202950 -1.203042
112.150000 -1.202931 -1.203042
112.200000 -1.202916 -1.203042
112.250000 -1.202904 -1.203042
112.300000 -1.202895 -1.203042
112.350000 -1.202890 -1.203042
112.400000 -1.202888 -1.203042
112.450000 -1.202891 -1.203042
112.500000 -1.202897 -1.203042
112.550000 -1.202906 -1.203042
112.600000 -1.202919 -1.203042
112.650000 -1.202935 -1.203042
112.700000 -1.202953 -1.203042
112.750000 -1.202973 -1.203042
112.800000 -1.202995 -1.203042
112.850000 -1.203018 -1.203042
112.900000 -1.203041 -1.203042
112.950000 -1.203064 -1.203042
113.000000 -1.203086 -1.203042
113.050000 -1.203107 -1.203042
113.100000 -1.203126 -1.203042
113.150000 -1.203143 -1.203042
113.200000 -1.203158 -1.203042
113.250000 -1.203169 -1.203042
113.300000 -1.203178 -1.203042
113.350000 -1.203182 -1.203042
113.400000 -1.203184 -1.203042
113.450000 -1.203182 -1.203042
113.500000 -1.203177 -1.203042
113.550000 -1.203168 -1.203042
113.600000 -1.203156 -1.203042
113.650000 -1.203142 -1.203042
113.700000 -1.203126 -1.203042
113.750000 -1.203107 -1.203042
113.800000 -1.203087 -1.203042
113.850000 -1.203066 -1.203042
113.900000 -1.203045 -1.203042
113.950000 -1.203024 -1.203042
114.000000 -1.203004 -1.203042
114.050000 -1.202984 -1.203042
114.100000 -1.202966 -1.203042
114.150000 -1.202951 -1.203042
114.200000 -1.202937 -1.203042
114.250000 -1.202926 -1.203042
114.300000 -1.202919 -1.203042
114.350000 -1.202914 -1.203042
114.400000 -1.202912 -1.203042
114.450000 -1.202914 -1.203042
114.500000 -1.202919 -1.203042
114.550000 -1.202926 -1.203042
114.600000 -1.202937 -1.203042
114.650000 -1.202950 -1.203042
114.700000 -1.202965 -1.203042
114.750000 -1.202982 -1.203042
114.800000 -1.203000 -1.203042
114.850000 -1.203019 -1.203042
114.900000 -1.203039 -1.203042
114.950000 -1.203058 -1.203042
115.000000 -1.203077 -1.203042
115.050000 -1.203095 -1.203042
115.100000 -1.203111 -1.203042
115.150000 -1.203126 -1.203042
115.200000 -1.203138 -1.203042
115.250000 -1.203148 -1.203042
115.300000 -1.203156 -1.203042
115.350000 -1.203160 -1.203042
115.400000 -1.203162 -1.203042
115.450000 -1.203161 -1.203042
115.500000 -1.203156 -1.203042
115.550000 -1.203150 -1.203042
115.600000 -1.203140 -1.203042
115.650000 -1.203128 -1.203042
115.700000 -1.203115 -1.203042
115.750000 -1.203099 -1.203042
115.800000 -1.203082 -1.203042
115.850000 -1.203065 -1.203042
115.900000 -1.203047 -1.203042
115.950000 -1.203029 -1.203042
116.000000 -1.203012 -1.203042
116.050000 -1.202995 -1.203042
116.100000 -1.202980 -1.203042
116.150000 -1.202966 -1.203042
116.200000 -1.202955 -1.203042
116.250000 -1.202945 -1.203042
116.300000 -1.202939 -1.203042
116.350000 -1.202934 -1.203042
116.400000 -1.202933 -1.203042
116.450000 -1.202934 -1.203042
116.500000 -1.202937 -1.203042
116.550000 -1.202943 -1.203042
116.600000 -1.202952 -1.203042
116.650000 -1.202963 -1.203042
116.700000 -1.202975 -1.203042
116.750000 -1.202989 -1.203042
116.800000 -1.203005 -1.203042
116.850000 -1.203021 -1.203042
116.900000 -1.203037 -1.203042
116.950000 -1.203053 -1.203042
117.000000 -1.203070 -1.203042
117.050000 -1.203085 -1.203042
117.100000 -1.203099 -1.203042
117.150000 -1.203111 -1.203042
117.200000 -1.203122 -1.203042
117.250000 -1.203131 -1.203042
117.300000 -1.203137 -1.203042
117.350000 -1.203142 -1.203042
117.400000 -1.203143 -1.203042
117.450000 -1.203143 -1.203042
117.500000 -1.203139 -1.203042
117.550000 -1.203134 -1.203042
117.600000 -1.203126 -1.203042
117.650000 -1.203116 -1.203042
117.700000 -1.203105 -1.203042
117.750000 -1.203092 -1.203042
117.800000 -1.203078 -1.203042
117.850000 -1.203063 -1.203042
117.900000 -1.203048 -1.203042
117.950000 -1.203033 -1.203042
118.000000 -1.203018 -1.203042
118.050000 -1.203004 -1.203042
118.100000 -1.202991 -1.203042
118.150000 -1.202980 -1.203042
118.200000 -1.202970 -1.203042
118.250000 -1.202961 -1.203042
118.300000 -1.202955 -1.203042
118.350000 -1.202951 -1.203042
118.400000 -1.202950 -1.203042
118.450000 -1.202950 -1.203042
118.500000 -1.202953 -1.203042
118.550000 -1.202958 -1.203042
118.600000 -1.202965 -1.203042
118.650000 -1.202974 -1.203042
118.700000 -1.202984 -1.203042
118.750000 -1.202996 -1.203042
118.800000 -1.203009 -1.203042
118.850000 -1.203022 -1.203042
118.900000 -1.203036 -1.203042
118.950000 -1.203050 -1.203042
119.000000 -1.203064 -1.203042
119.050000 -1.203077 -1.203042
119.100000 -1.203089 -1.203042
119.150000 -1.203099 -1.203042
119.200000 -1.203109 -1.203042
119.250000 -1.203116 -1.203042
119.300000 -1.203122 -1.203042
119.350000 -1.203126 -1.203042
119.400000 -1.203128 -1.203042
119.450000 -1.203127 -1.203042
119.500000 -1.203125 -1.203042
119.550000 -1.203120 -1.203042
119.600000 -1.203114 -1.203042
119.650000 -1.203106 -1.203042
119.700000 -1.203096 -1.203042
119.750000 -1.203086 -1.203042
119.800000 -1.203074 -1.203042
119.850000 -1.203062 -1.203042
119.900000 -1.203049 -1.203042
119.950000 -1.203036 -1.203042
120.000000 -1.203024 -1.203042
120.050000 -1.203012 -1.203042
120.100000 -1.203001 -1.203042
120.150000 -1.202991 -1.203042
120.200000 -1.202982 -1.203042
120.250000 -1.202975 -1.203042
120.300000 -1.202969 -1.203042
120.350000 -1.202966 -1.203042
120.400000 -1.202964 -1.203042
120.450000 -1.202964 -1.203042
120.500000 -1.202967 -1.203042
120.550000 -1.202971 -1.203042
120.600000 -1.202976 -1.203042
120.650000 -1.202983 -1.203042
120.700000 -1.202992 -1.203042
120.750000 -1.203002 -1.203042
120.800000 -1.203013 -1.203042
120.850000 -1.203024 -1.203042
120.900000 -1.203036 -1.203042
120.950000 -1.203047 -1.203042
121.000000 -1.203059 -1.203042
121.050000 -1.203070 -1.203042
121.100000 -1.203080 -1.203042
121.150000 -1.203089 -1.203042
121.200000 -1.203097 -1.203042
121.250000 -1.203104 -1.203042
121.300000 -1.203109 -1.203042
121.350000 -1.203113 -1.203042
121.400000 -1.203114 -1.203042
121.450000 -1.203114 -1.203042
121.500000 -1.203112 -1.203042
121.550000 -1.203109 -1.203042
121.600000 -1.203104 -1.203042
121.650000 -1.203097 -1.203042
121.700000 -1.203089 -1.203042
121.750000 -1.203080 -1.203042
121.800000 -1.203070 -1.203042
121.850000 -1.203060 -1.203042
121.900000 -1.203049 -1.203042
121.950000 -1.203039 -1.203042
122.000000 -1.203028 -1.203042
122.050000 -1.203018 -1.203042
122.100000 -1.203008 -1.203042
122.150000 -1.203000 -1.203042
122.200000 -1.202992 -1.203042
122.250000 -1.202986 -1.203042
122.300000 -1.202981 -1.203042
122.350000 -1.202978 -1.203042
122.400000 -1.202976 -1.203042
122.450000 -1.202976 -1.203042
122.500000 -1.202978 -1.203042
122.550000 -1.202981 -1.203042
122.600000 -1.202986 -1.203042
122.650000 -1.202992 -1.203042
122.700000 -1.202999 -1.203042
122.750000 -1.203007 -1.203042
122.800000 -1.203016 -1.203042
122.850000 -1.203025 -1.203042
122.900000 -1.203035 -1.203042
122.950000 -1.203045 -1.203042
123.000000 -1.203055 -1.203042
123.050000 -1.203064 -1.203042
123.100000 -1.203073 -1.203042
123.150000 -1.203081 -1.203042
123.200000 -1.203088 -1.203042
123.250000 -1.203094 -1.203042
123.300000 -1.203098 -1.203042
123.350000 -1.203101 -1.203042
123.400000 -1.203103 -1.203042
123.450000 -1.203103 -1.203042
123.500000 -1.203102 -1.203042
123.550000 -1.203099 -1.203042
123.600000 -1.203095 -1.203042
123.650000 -1.203089 -1.203042
123.700000 -1.203083 -1.203042
123.750000 -1.203075 -1.203042
123.800000 -1.203067 -1.203042
123.850000 -1.203058 -1.203042
123.900000 -1.203049 -1.203042
123.950000 -1.203040 -1.203042
124.000000 -1.203031 -1.203042
124.050000 -1.203023 -1.203042
124.100000 -1.203015 -1.203042
124.150000 -1.203007 -1.203042
124.200000 -1.203001 -1.203042
124.250000 -1.202995 -1.203042
124.300000 -1.202991 -1.203042
124.350000 -1.202988 -1.203042
124.400000 -1.202987 -1.203042
124.450000 -1.202987 -1.203042
124.500000 -1.202988 -1.203042
124.550000 -1.202990 -1.203042
124.600000 -1.202994 -1.203042
124.650000 -1.202999 -1.203042
124.700000 -1.203005 -1.203042
124.750000 -1.203012 -1.203042
124.800000 -1.203019 -1.203042
124.850000 -1.203027 -1.203042
124.900000 -1.203035 -1.203042
124.950000 -1.203044 -1.203042
125.000000 -1.203052 -1.203042
125.050000 -1.203060 -1.203042
125.100000 -1.203067 -1.203042
125.150000 -1.203074 -1.203042
125.200000 -1.203080 -1.203042
125.250000 -1.203085 -1.203042
125.300000 -1.203089 -1.203042
125.350000 -1.203092 -1.203042
125.400000 -1.203093 -1.203042
125.450000 -1.203094 -1.203042
125.500000 -1.203093 -1.203042
125.550000 -1.203090 -1.203042
125.600000 -1.203087 -1.203042
125.650000 -1.203083 -1.203042
125.700000 -1.203077 -1.203042
125.750000 -1.203071 -1.203042
125.800000 -1.203064 -1.203042
125.850000 -1.203057 -1.203042
125.900000 -1.203049 -1.203042
125.950000 -1.203042 -1.203042
126.000000 -1.203034 -1.203042
126.050000 -1.203027 -1.203042
126.100000 -1.203020 -1.203042
126.150000 -1.203013 -1.203042
126.200000 -1.203008 -1.203042
126.250000 -1.203003 -1.203042
126.300000 -1.203000 -1.203042
126.350000 -1.202997 -1.203042
126.400000 -1.202996 -1.203042
126.450000 -1.202995 -1.203042
126.500000 -1.202996 -1.203042
126.550000 -1.202998 -1.203042
126.600000 -1.203001 -1.203042
126.650000 -1.203005 -1.203042
126.700000 -1.203010 -1.203042
126.750000 -1.203016 -1.203042
126.800000 -1.203022 -1.203042
126.850000 -1.203029 -1.203042
126.900000 -1.203036 -1.203042
126.950000 -1.203043 -1.203042
127.000000 -1.203050 -1.203042
127.050000 -1.203056 -1.203042
127.100000 -1.203063 -1.203042
127.150000 -1.203069 -1.203042
127.200000 -1.203074 -1.203042
127.250000 -1.203078 -1.203042
127.300000 -1.203082 -1.203042
127.350000 -1.203084 -1.203042
127.400000 -1.203085 -1.203042
127.450000 -1.203086 -1.203042
127.500000 -1.203085 -1.203042
127.550000 -1.203083 -1.203042
127.600000 -1.203081 -1.203042
127.650000 -1.203077 -1.203042
127.700000 -1.203072 -1.203042
127.750000 -1.203067 -1.203042
127.800000 -1.203062 -1.203042
127.850000 -1.203055 -1.203042
127.900000 -1.203049 -1.203042
127.950000 -1.203043 -1.203042
128.000000 -1.203036 -1.203042
128.050000 -1.203030 -1.203042
128.100000 -1.203024 -1.203042
128.150000 -1.203019 -1.203042
128.200000 -1.203014 -1.203042
128.250000 -1.203010 -1.203042
128.300000 -1.203007 -1.203042
128.350000 -1.203004 -1.203042
128.400000 -1.203003 -1.203042
128.450000 -1.203003 -1.203042
128.500000 -1.203003 -1.203042
128.550000 -1.203005 -1.203042
128.600000 -1.203007 -1.203042
128.650000 -1.203010 -1.203042
128.700000 -1.203014 -1.203042
128.750000 -1.203019 -1.203042
128.800000 -1.203024 -1.203042
128.850000 -1.203030 -1.203042
128.900000 -1.203036 -1.203042
128.950000 -1.203042 -1.203042
129.000000 -1.203048 -1.203042
129.050000 -1.203054 -1.203042
129.100000 -1.203059 -1.203042
129.150000 -1.203064 -1.203042
129.200000 -1.203068 -1.203042
129.250000 -1.203072 -1.203042
129.300000 -1.203075 -1.203042
129.350000 -1.203077 -1.203042
129.400000 -1.203079 -1.203042
129.450000 -1.203079 -1.203042
129.500000 -1.203079 -1.203042
129.550000 -1.203077 -1.203042
129.600000 -1.203075 -1.203042
129.650000 -1.203072 -1.203042
129.700000 -1.203068 -1.203042
129.750000 -1.203064 -1.203042
129.800000 -1.203059 -1.203042
129.850000 -1.203054 -1.203042
129.900000 -1.203049 -1.203042
129.950000 -1.203043 -1.203042
130.000000 -1.203038 -1.203042
130.050000 -1.203032 -1.203042
130.100000 -1.203027 -1.203042
130.150000 -1.203023 -1.203042
130.200000 -1.203019 -1.203042
130.250000 -1.203015 -1.203042
130.300000 -1.203012 -1.203042
130.350000 -1.203010 -1.203042
130.400000 -1.203009 -1.203042
130.450000 -1.203009 -1.203042
130.500000 -1.203009 -1.203042
130.550000 -1.203010 -1.203042
130.600000 -1.203012 -1.203042
130.650000 -1.203015 -1.203042
130.700000 -1.203018 -1.203042
130.750000 -1.203022 -1.203042
130.800000 -1.203027 -1.203042
130.850000 -1.203031 -1.203042
130.900000 -1.203036 -1.203042
130.950000 -1.203041 -1.203042
131.000000 -1.203046 -1.203042
131.050000 -1.203051 -1.203042
131.100000 -1.203056 -1.203042
131.150000 -1.203060 -1.203042
131.200000 -1.203064 -1.203042
131.250000 -1.203067 -1.203042
131.300000 -1.203070 -1.203042
131.350000 -1.203072 -1.203042
131.400000 -1.203073 -1.203042
131.450000 -1.203073 -1.203042
131.500000 -1.203073 -1.203042
131.550000 -1.203072 -1.203042
131.600000 -1.203070 -1.203042
131.650000 -1.203068 -1.203042
131.700000 -1.203065 -1.203042
131.750000 -1.203061 -1.203042
131.800000 -1.203057 -1.203042
131.850000 -1.203053 -1.203042
131.900000 -1.203048 -1.203042
131.950000 -1.203044 -1.203042
132.000000 -1.203039 -1.203042
132.050000 -1.203035 -1.203042
132.100000 -1.203030 -1.203042
132.150000 -1.203026 -1.203042
132.200000 -1.203023 -1.203042
132.250000 -1.203020 -1.203042
132.300000 -1.203017 -1.203042
132.350000 -1.203016 -1.203042
132.400000 -1.203014 -1.203042
132.450000 -1.203014 -1.203042
132.500000 -1.203014 -1.203042
132.550000 -1.203015 -1.203042
132.600000 -1.203017 -1.203042
132.650000 -1.203019 -1.203042
132.700000 -1.203022 -1.203042
132.750000 -1.203025 -1.203042
132.800000 -1.203029 -1.203042
132.850000 -1.203032 -1.203042
132.900000 -1.203037 -1.203042
132.950000 -1.203041 -1.203042
133.000000 -1.203045 -1.203042
133.050000 -1.203049 -1.203042
133.100000 -1.203053 -1.203042
133.150000 -1.203057 -1.203042
133.200000 -1.203060 -1.203042
133.250000 -1.203063 -1.203042
133.300000 -1.203065 -1.203042
133.350000 -1.203067 -1.203042
133.400000 -1.203068 -1.203042
133.450000 -1.203068 -1.203042
133.500000 -1.203068 -1.203042
133.550000 -1.203067 -1.203042
133.600000 -1.203066 -1.203042
133.650000 -1.203064 -1.203042
133.700000 -1.203062 -1.203042
133.750000 -1.203059 -1.203042
133.800000 -1.203055 -1.203042
133.850000 -1.203052 -1.203042
133.900000 -1.203048 -1.203042
133.950000 -1.203044 -1.203042
134.000000 -1.203040 -1.203042
134.050000 -1.203036 -1.203042
134.100000 -1.203033 -1.203042
134.150000 -1.203029 -1.203042
134.200000 -1.203026 -1.203042
134.250000 -1.203024 -1.203042
134.300000 -1.203022 -1.203042
134.350000 -1.203020 -1.203042
134.400000 -1.203019 -1.203042
134.450000 -1.203018 -1.203042
134.500000 -1.203019 -1.203042
134.550000 -1.203019 -1.203042
134.600000 -1.203021 -1.203042
134.650000 -1.203022 -1.203042
134.700000 -1.203025 -1.203042
134.750000 -1.203027 -1.203042
134.800000 -1.203030 -1.203042
134.850000 -1.203034 -1.203042
134.900000 -1.203037 -1.203042
134.950000 -1.203041 -1.203042
135.000000 -1.203044 -1.203042
135.050000 -1.203048 -1.203042
135.100000 -1.203051 -1.203042
135.150000 -1.203054 -1.203042
135.200000 -1.203057 -1.203042
135.250000 -1.203059 -1.203042
135.300000 -1.203061 -1.203042
135.350000 -1.203063 -1.203042
135.400000 -1.203064 -1.203042
135.450000 -1.203064 -1.203042
135.500000 -1.203064 -1.203042
135.550000 -1.203064 -1.203042
135.600000 -1.203063 -1.203042
135.650000 -1.203061 -1.203042
135.700000 -1.203059 -1.203042
135.750000 -1.203056 -1.203042
135.800000 -1.203054 -1.203042
135.850000 -1.203051 -1.203042
135.900000 -1.203047 -1.203042
135.950000 -1.203044 -1.203042
136.000000 -1.203041 -1.203042
136.050000 -1.203038 -1.203042
136.100000 -1.203035 -1.203042
136.150000 -1.203032 -1.203042
136.200000 -1.203029 -1.203042
136.250000 -1.203027 -1.203042
136.300000 -1.203025 -1.203042
136.350000 -1.203024 -1.203042
136.400000 -1.203023 -1.203042
136.450000 -1.203022 -1.203042
136.500000 -1.203022 -1.203042
136.550000 -1.203023 -1.203042
136.600000 -1.203024 -1.203042
136.650000 -1.203025 -1.203042
136.700000 -1.203027 -1.203042
136.750000 -1.203029 -1.203042
136.800000 -1.203032 -1.203042
136.850000 -1.203035 -1.203042
136.900000 -1.203038 -1.203042
136.950000 -1.203041 -1.203042
137.000000 -1.203044 -1.203042
137.050000 -1.203047 -1.203042
137.100000 -1.203049 -1.203042
137.150000 -1.203052 -1.203042
137.200000 -1.203054 -1.203042
137.250000 -1.203057 -1.203042
137.300000 -1.203058 -1.203042
137.350000 -1.203060 -1.203042
137.400000 -1.203061 -1.203042
137.450000 -1.203061 -1.203042
137.500000 -1.203061 -1.203042
137.550000 -1.203060 -1.203042
137.600000 -1.203060 -1.203042
137.650000 -1.203058 -1.203042
137.700000 -1.203057 -1.203042
137.750000 -1.203055 -1.203042
137.800000 -1.203052 -1.203042
137.850000 -1.203050 -1.203042
137.900000 -1.203047 -1.203042
137.950000 -1.203044 -1.203042
138.000000 -1.203041 -1.203042
138.050000 -1.203039 -1.203042
138.100000 -1.203036 -1.203042
138.150000 -1.203034 -1.203042
138.200000 -1.203031 -1.203042
138.250000 -1.203029 -1.203042
138.300000 -1.203028 -1.203042
138.350000 -1.203027 -1.203042
138.400000 -1.203026 -1.203042
138.450000 -1.203025 -1.203042
138.500000 -1.203025 -1.203042
138.550000 -1.203026 -1.203042
138.600000 -1.203027 -1.203042
138.650000 -1.203028 -1.203042
138.700000 -1.203029 -1.203042
138.750000 -1.203031 -1.203042
138.800000 -1.203033 -1.203042
138.850000 -1.203035 -1.203042
138.900000 -1.203038 -1.203042
138.950000 -1.203040 -1.203042
139.000000 -1.203043 -1.203042
139.050000 -1.203046 -1.203042
139.100000 -1.203048 -1.203042
139.150000 -1.203050 -1.203042
139.200000 -1.203052 -1.203042
139.250000 -1.203054 -1.203042
139.300000 -1.203056 -1.203042
139.350000 -1.203057 -1.203042
139.400000 -1.203058 -1.203042
139.450000 -1.203058 -1.203042
139.500000 -1.203058 -1.203042
139.550000 -1.203058 -1.203042
139.600000 -1.203057 -1.203042
139.650000 -1.203056 -1.203042
139.700000 -1.203055 -1.203042
139.750000 -1.203053 -1.203042
139.800000 -1.203051 -1.203042
139.850000 -1.203049 -1.203042
139.900000 -1.203047 -1.203042
139.950000 -1.203044 -1.203042
140.000000 -1.203042 -1.203042
140.050000 -1.203040 -1.203042
140.100000 -1.203037 -1.203042
140.150000 -1.203035 -1.203042
140.200000 -1.203033 -1.203042
140.250000 -1.203032 -1.203042
140.300000 -1.203030 -1.203042
140.350000 -1.203029 -1.203042
140.400000 -1.203028 -1.203042
140.450000 -1.203028 -1.203042
140.500000 -1.203028 -1.203042
140.550000 -1.203028 -1.203042
140.600000 -1.203029 -1.203042
140.650000 -1.203030 -1.203042
140.700000 -1.203031 -1.203042
140.750000 -1.203033 -1.203042
140.800000 -1.203034 -1.203042
140.850000 -1.203036 -1.203042
140.900000 -1.203038 -1.203042
140.950000 -1.203041 -1.203042
141.000000 -1.203043 -1.203042
141.050000 -1.203045 -1.203042
141.100000 -1.203047 -1.203042
141.150000 -1.203049 -1.203042
141.200000 -1.203051 -1.203042
141.250000 -1.203052 -1.203042
141.300000 -1.203053 -1.203042
141.350000 -1.203054 -1.203042
141.400000 -1.203055 -1.203042
141.450000 -1.203056 -1.203042
141.500000 -1.203056 -1.203042
141.550000 -1.203055 -1.203042
141.600000 -1.203055 -1.203042
141.650000 -1.203054 -1.203042
141.700000 -1.203053 -1.203042
141.750000 -1.203051 -1.203042
141.800000 -1.203050 -1.203042
141.850000 -1.203048 -1.203042
141.900000 -1.203046 -1.203042
141.950000 -1.203044 -1.203042
142.000000 -1.203042 -1.203042
142.050000 -1.203040 -1.203042
142.100000 -1.203038 -1.203042
142.150000 -1.203037 -1.203042
142.200000 -1.203035 -1.203042
142.250000 -1.203034 -1.203042
142.300000 -1.203032 -1.203042
142.350000 -1.203031 -1.203042
142.400000 -1.203031 -1.203042
142.450000 -1.203030 -1.203042
142.500000 -1.203030 -1.203042
142.550000 -1.203030 -1.203042
142.600000 -1.203031 -1.203042
142.650000 -1.203032 -1.203042
142.700000 -1.203033 -1.203042
142.750000 -1.203034 -1.203042
142.800000 -1.203035 -1.203042
142.850000 -1.203037 -1.203042
142.900000 -1.203039 -1.203042
142.950000 -1.203041 -1.203042
143.000000 -1.203042 -1.203042
143.050000 -1.203044 -1.203042
143.100000 -1.203046 -1.203042
143.150000 -1.203048 -1.203042
143.200000 -1.203049 -1.203042
143.250000 -1.203050 -1.203042
143.300000 -1.203052 -1.203042
143.350000 -1.203052 -1.203042
143.400000 -1.203053 -1.203042
143.450000 -1.203053 -1.203042
143.500000 -1.203054 -1.203042
143.550000 -1.203053 -1.203042
143.600000 -1.203053 -1.203042
143.650000 -1.203052 -1.203042
143.700000 -1.203051 -1.203042
143.750000 -1.203050 -1.203042
143.800000 -1.203049 -1.203042
143.850000 -1.203047 -1.203042
143.900000 -1.203046 -1.203042
143.950000 -1.203044 -1.203042
144.000000 -1.203042 -1.203042
144.050000 -1.203041 -1.203042
144.100000 -1.203039 -1.203042
144.150000 -1.203038 -1.203042
144.200000 -1.203036 -1.203042
144.250000 -1.203035 -1.203042
144.300000 -1.203034 -1.203042
144.350000 -1.203033 -1.203042
144.400000 -1.203033 -1.203042
144.450000 -1.203032 -1.203042
144.500000 -1.203032 -1.203042
144.550000 -1.203032 -1.203042
144.600000 -1.203033 -1.203042
144.650000 -1.203033 -1.203042
144.700000 -1.203034 -1.203042
144.750000 -1.203035 -1.203042
144.800000 -1.203036 -1.203042
144.850000 -1.203038 -1.203042
144.900000 -1.203039 -1.203042
144.950000 -1.203041 -1.203042
145.000000 -1.203042 -1.203042
145.050000 -1.203044 -1.203042
145.100000 -1.203045 -1.203042
145.150000 -1.203047 -1.203042
145.200000 -1.203048 -1.203042
145.250000 -1.203049 -1.203042
145.300000 -1.203050 -1.203042
145.350000 -1.203051 -1.203042
145.400000 -1.203051 -1.203042
145.450000 -1.203052 -1.203042
145.500000 -1.203052 -1.203042
145.550000 -1.203052 -1.203042
145.600000 -1.203051 -1.203042
145.650000 -1.203051 -1.203042
145.700000 -1.203050 -1.203042
145.750000 -1.203049 -1.203042
145.800000 -1.203048 -1.203042
145.850000 -1.203047 -1.203042
145.900000 -1.203045 -1.203042
145.950000 -1.203044 -1.203042
146.000000 -1.203043 -1.203042
146.050000 -1.203041 -1.203042
146.100000 -1.203040 -1.203042
146.150000 -1.203039 -1.203042
146.200000 -1.203037 -1.203042
146.250000 -1.203036 -1.203042
146.300000 -1.203035 -1.203042
146.350000 -1.203035 -1.203042
146.400000 -1.203034 -1.203042
146.450000 -1.203034 -1.203042
146.500000 -1.203034 -1.203042
146.550000 -1.203034 -1.203042
146.600000 -1.203034 -1.203042
146.650000 -1.203035 -1.203042
146.700000 -1.203035 -1.203042
146.750000 -1.203036 -1.203042
146.800000 -1.203037 -1.203042
146.850000 -1.203038 -1.203042
146.900000 -1.203039 -1.203042
146.950000 -1.203041 -1.203042
147.000000 -1.203042 -1.203042
147.050000 -1.203043 -1.203042
147.100000 -1.203045 -1.203042
147.150000 -1.203046 -1.203042
147.200000 -1.203047 -1.203042
147.250000 -1.203048 -1.203042
147.300000 -1.203049 -1.203042
147.350000 -1.203049 -1.203042
147.400000 -1.203050 -1.203042
147.450000 -1.203050 -1.203042
147.500000 -1.203050 -1.203042
147.550000 -1.203050 -1.203042
147.600000 -1.203050 -1.203042
147.650000 -1.203050 -1.203042
147.700000 -1.203049 -1.203042
147.750000 -1.203048 -1.203042
147.800000 -1.203047 -1.203042
147.850000 -1.203046 -1.203042
147.900000 -1.203045 -1.203042
147.950000 -1.203044 -1.203042
148.000000 -1.203043 -1.203042
148.050000 -1.203042 -1.203042
148.100000 -1.203040 -1.203042
148.150000 -1.203039 -1.203042
148.200000 -1.203038 -1.203042
148.250000 -1.203037 -1.203042
148.300000 -1.203037 -1.203042
148.350000 -1.203036 -1.203042
148.400000 -1.203035 -1.203042
148.450000 -1.203035 -1.203042
148.500000 -1.203035 -1.203042
148.550000 -1.203035 -1.203042
148.600000 -1.203035 -1.203042
148.650000 -1.203036 -1.203042
148.700000 -1.203036 -1.203042
148.750000 -1.203037 -1.203042
148.800000 -1.203038 -1.203042
148.850000 -1.203039 -1.203042
148.900000 -1.203040 -1.203042
148.950000 -1.203041 -1.203042
149.000000 -1.203042 -1.203042
149.050000 -1.203043 -1.203042
149.100000 -1.203044 -1.203042
149.150000 -1.203045 -1.203042
149.200000 -1.203046 -1.203042
149.250000 -1.203047 -1.203042
149.300000 -1.203048 -1.203042
149.350000 -1.203048 -1.203042
149.400000 -1.203049 -1.203042
149.450000 -1.203049 -1.203042
149.500000 -1.203049 -1.203042
149.550000 -1.203049 -1.203042
149.600000 -1.203049 -1.203042
149.650000 -1.203049 -1.203042
149.700000 -1.203048 -1.203042
149.750000 -1.203047 -1.203042
149.800000 -1.203047 -1.203042
149.850000 -1.203046 -1.203042
149.900000 -1.203045 -1.203042
149.950000 -1.203044 -1.203042
150.000000 -1.203043 -1.203042
150.050000 -1.203042 -1.203042
150.100000 -1.203041 -1.203042
150.150000 -1.203040 -1.203042
150.200000 -1.203039 -1.203042
150.250000 -1.203038 -1.203042
150.300000 -1.203038 -1.203042
150.350000 -1.203037 -1.203042
150.400000 -1.203037 -1.203042
150.450000 -1.203036 -1.203042
150.500000 -1.203036 -1.203042
150.550000 -1.203036 -1.203042
150.600000 -1.203036 -1.203042
150.650000 -1.203037 -1.203042
150.700000 -1.203037 -1.203042
150.750000 -1.203038 -1.203042
150.800000 -1.203038 -1.203042
150.850000 -1.203039 -1.203042
150.900000 -1.203040 -1.203042
150.950000 -1.203041 -1.203042
151.000000 -1.203042 -1.203042
151.050000 -1.203043 -1.203042
151.100000 -1.203044 -1.203042
151.150000 -1.203045 -1.203042
151.200000 -1.203045 -1.203042
151.250000 -1.203046 -1.203042
151.300000 -1.203047 -1.203042
151.350000 -1.203047 -1.203042
151.400000 -1.203048 -1.203042
151.450000 -1.203048 -1.203042
151.500000 -1.203048 -1.203042
151.550000 -1.203048 -1.203042
151.600000 -1.203048 -1.203042
151.650000 -1.203048 -1.203042
151.700000 -1.203047 -1.203042
151.750000 -1.203047 -1.203042
151.800000 -1.203046 -1.203042
151.850000 -1.203045 -1.203042
151.900000 -1.203045 -1.203042
151.950000 -1.203044 -1.203042
152.000000 -1.203043 -1.203042
152.050000 -1.203042 -1.203042
152.100000 -1.203041 -1.203042
152.150000 -1.203040 -1.203042
152.200000 -1.203040 -1.203042
152.250000 -1.203039 -1.203042
152.300000 -1.203038 -1.203042
152.350000 -1.203038 -1.203042
152.400000 -1.203038 -1.203042
152.450000 -1.203037 -1.203042
152.500000 -1.203037 -1.203042
152.550000 -1.203037 -1.203042
152.600000 -1.203037 -1.203042
152.650000 -1.203038 -1.203042
152.700000 -1.203038 -1.203042
152.750000 -1.203038 -1.203042
152.800000 -1.203039 -1.203042
152.850000 -1.203040 -1.203042
152.900000 -1.203040 -1.203042
152.950000 -1.203041 -1.203042
153.000000 -1.203042 -1.203042
153.050000 -1.203043 -1.203042
153.100000 -1.203043 -1.203042
153.150000 -1.203044 -1.203042
153.200000 -1.203045 -1.203042
153.250000 -1.203045 -1.203042
153.300000 -1.203046 -1.203042
153.350000 -1.203046 -1.203042
153.400000 -1.203047 -1.203042
153.450000 -1.203047 -1.203042
153.500000 -1.203047 -1.203042
153.550000 -1.203047 -1.203042
153.600000 -1.203047 -1.203042
153.650000 -1.203047 -1.203042
153.700000 -1.203046 -1.203042
153.750000 -1.203046 -1.203042
153.800000 -1.203046 -1.203042
153.850000 -1.203045 -1.203042
153.900000 -1.203044 -1.203042
153.950000 -1.203044 -1.203042
154.000000 -1.203043 -1.203042
154.050000 -1.203042 -1.203042
154.100000 -1.203041 -1.203042
154.150000 -1.203041 -1.203042
154.200000 -1.203040 -1.203042
154.250000 -1.203040 -1.203042
154.300000 -1.203039 -1.203042
154.350000 -1.203039 -1.203042
154.400000 -1.203038 -1.203042
154.450000 -1.203038 -1.203042
154.500000 -1.203038 -1.203042
154.550000 -1.203038 -1.203042
154.600000 -1.203038 -1.203042
154.650000 -1.203038 -1.203042
154.700000 -1.203039 -1.203042
154.750000 -1.203039 -1.203042
154.800000 -1.203039 -1.203042
154.850000 -1.203040 -1.203042
154.900000 -1.203041 -1.203042
154.950000 -1.203041 -1.203042
155.000000 -1.203042 -1.203042
155.050000 -1.203043 -1.203042
155.100000 -1.203043 -1.203042
155.150000 -1.203044 -1.203042
155.200000 -1.203044 -1.203042
155.250000 -1.203045 -1.203042
155.300000 -1.203045 -1.203042
155.350000 -1.203046 -1.203042
155.400000 -1.203046 -1.203042
155.450000 -1.203046 -1.203042
155.500000 -1.203046 -1.203042
155.550000 -1.203046 -1.203042
155.600000 -1.203046 -1.203042
155.650000 -1.203046 -1.203042
155.700000 -1.203046 -1.203042
155.750000 -1.203046 -1.203042
155.800000 -1.203045 -1.203042
155.850000 -1.203045 -1.203042
155.900000 -1.203044 -1.203042
155.950000 -1.203043 -1.203042
156.000000 -1.203043 -1.203042
156.050000 -1.203042 -1.203042
156.100000 -1.203042 -1.203042
156.150000 -1.203041 -1.203042
156.200000 -1.203041 -1.203042
156.250000 -1.203040 -1.203042
156.300000 -1.203040 -1.203042
156.350000 -1.203039 -1.203042
156.400000 -1.203039 -1.203042
156.450000 -1.203039 -1.203042
156.500000 -1.203039 -1.203042
156.550000 -1.203039 -1.203042
156.600000 -1.203039 -1.203042
156.650000 -1.203039 -1.203042
156.700000 -1.203039 -1.203042
156.750000 -1.203039 -1.203042
156.800000 -1.203040 -1.203042
156.850000 -1.203040 -1.203042
156.900000 -1.203041 -1.203042
156.950000 -1.203041 -1.203042
157.000000 -1.203042 -1.203042
157.050000 -1.203042 -1.203042
157.100000 -1.203043 -1.203042
157.150000 -1.203044 -1.203042
157.200000 -1.203044 -1.203042
157.250000 -1.203044 -1.203042
157.300000 -1.203045 -1.203042
157.350000 -1.203045 -1.203042
157.400000 -1.203045 -1.203042
157.450000 -1.203046 -1.203042
157.500000 -1.203046 -1.203042
157.550000 -1.203046 -1.203042
157.600000 -1.203046 -1.203042
157.650000 -1.203046 -1.203042
157.700000 -1.203045 -1.203042
157.750000 -1.203045 -1.203042
157.800000 -1.203045 -1.203042
157.850000 -1.203044 -1.203042
157.900000 -1.203044 -1.203042
157.950000 -1.203043 -1.203042
158.000000 -1.203043 -1.203042
158.050000 -1.203042 -1.203042
158.100000 -1.203042 -1.203042
158.150000 -1.203041 -1.203042
158.200000 -1.203041 -1.203042
158.250000 -1.203040 -1.203042
158.300000 -1.203040 -1.203042
158.350000 -1.203040 -1.203042
158.400000 -1.203040 -1.203042
158.450000 -1.203039 -1.203042
158.500000 -1.203039 -1.203042
158.550000 -1.203039 -1.203042
158.600000 -1.203039 -1.203042
158.650000 -1.203039 -1.203042
158.700000 -1.203040 -1.203042
158.750000 -1.203040 -1.203042
158.800000 -1.203040 -1.203042
158.850000 -1.203041 -1.203042
158.900000 -1.203041 -1.203042
158.950000 -1.203041 -1.203042
159.000000 -1.203042 -1.203042
159.050000 -1.203042 -1.203042
159.100000 -1.203043 -1.203042
159.150000 -1.203043 -1.203042
159.200000 -1.203044 -1.203042
159.250000 -1.203044 -1.203042
159.300000 -1.203044 -1.203042
159.350000 -1.203045 -1.203042
159.400000 -1.203045 -1.203042
159.450000 -1.203045 -1.203042
159.500000 -1.203045 -1.203042
159.550000 -1.203045 -1.203042
159.600000 -1.203045 -1.203042
159.650000 -1.203045 -1.203042
159.700000 -1.203045 -1.203042
159.750000 -1.203045 -1.203042
159.800000 -1.203044 -1.203042
159.850000 -1.203044 -1.203042
159.900000 -1.203044 -1.203042
159.950000 -1.203043 -1.203042
160.000000 -1.203043 -1.203042
160.050000 -1.203042 -1.203042
160.100000 -1.203042 -1.203042
160.150000 -1.203042 -1.203042
160.200000 -1.203041 -1.203042
160.250000 -1.203041 -1.203042
160.300000 -1.203040 -1.203042
160.350000 -1.203040 -1.203042
160.400000 -1.203040 -1.203042
160.450000 -1.203040 -1.203042
160.500000 -1.203040 -1.203042
160.550000 -1.203040 -1.203042
160.600000 -1.203040 -1.203042
160.650000 -1.203040 -1.203042
160.700000 -1.203040 -1.203042
160.750000 -1.203040 -1.203042
160.800000 -1.203041 -1.203042
160.850000 -1.203041 -1.203042
160.900000 -1.203041 -1.203042
160.950000 -1.203042 -1.203042
161.000000 -1.203042 -1.203042
161.050000 -1.203042 -1.203042
161.100000 -1.203043 -1.203042
161.150000 -1.203043 -1.203042
161.200000 -1.203043 -1.203042
161.250000 -1.203044 -1.203042
161.300000 -1.203044 -1.203042
161.350000 -1.203044 -1.203042
161.400000 -1.203045 -1.203042
161.450000 -1.203045 -1.203042
161.500000 -1.203045 -1.203042
161.550000 -1.203045 -1.203042
161.600000 -1.203045 -1.203042
161.650000 -1.203045 -1.203042
161.700000 -1.203045 -1.203042
161.750000 -1.203044 -1.203042
161.800000 -1.203044 -1.203042
161.850000 -1.203044 -1.203042
161.900000 -1.203044 -1.203042
161.950000 -1.203043 -1.203042
162.000000 -1.203043 -1.203042
162.050000 -1.203042 -1.203042
162.100000 -1.203042 -1.203042
162.150000 -1.203042 -1.203042
162.200000 -1.203041 -1.203042
162.250000 -1.203041 -1.203042
162.300000 -1.203041 -1.203042
162.350000 -1.203041 -1.203042
162.400000 -1.203040 -1.203042
162.450000 -1.203040 -1.203042
162.500000 -1.203040 -1.203042
162.550000 -1.203040 -1.203042
162.600000 -1.203040 -1.203042
162.650000 -1.203040 -1.203042
162.700000 -1.203040 -1.203042
162.750000 -1.203041 -1.203042
162.800000 -1.203041 -1.203042
162.850000 -1.203041 -1.203042
162.900000 -1.203041 -1.203042
162.950000 -1.203042 -1.203042
163.000000 -1.203042 -1.203042
163.050000 -1.203042 -1.203042
163.100000 -1.203043 -1.203042
163.150000 -1.203043 -1.203042
163.200000 -1.203043 -1.203042
163.250000 -1.203044 -1.203042
163.300000 -1.203044 -1.203042
163.350000 -1.203044 -1.203042
163.400000 -1.203044 -1.203042
163.450000 -1.203044 -1.203042
163.500000 -1.203044 -1.203042
163.550000 -1.203044 -1.203042
163.600000 -1.203044 -1.203042
163.650000 -1.203044 -1.203042
163.700000 -1.203044 -1.203042
163.750000 -1.203044 -1.203042
163.800000 -1.203044 -1.203042
163.850000 -1.203044 -1.203042
163.900000 -1.203043 -1.203042
163.950000 -1.203043 -1.203042
164.000000 -1.203043 -1.203042
164.050000 -1.203042 -1.203042
164.100000 -1.203042 -1.203042
164.150000 -1.203042 -1.203042
164.200000 -1.203042 -1.203042
164.250000 -1.203041 -1.203042
164.300000 -1.203041 -1.203042
164.350000 -1.203041 -1.203042
164.400000 -1.203041 -1.203042
164.450000 -1.203041 -1.203042
164.500000 -1.203041 -1.203042
164.550000 -1.203040 -1.203042
164.600000 -1.203040 -1.203042
164.650000 -1.203041 -1.203042
164.700000 -1.203041 -1.203042
164.750000 -1.203041 -1.203042
164.800000 -1.203041 -1.203042
164.850000 -1.203041 -1.203042
164.900000 -1.203041 -1.203042
164.950000 -1.203042 -1.203042
165.000000 -1.203042 -1.203042
165.050000 -1.203042 -1.203042
165.100000 -1.203043 -1.203042
165.150000 -1.203043 -1.203042
165.200000 -1.203043 -1.203042
165.250000 -1.203043 -1.203042
165.300000 -1.203044 -1.203042
165.350000 -1.203044 -1.203042
165.400000 -1.203044 -1.203042
165.450000 -1.203044 -1.203042
165.500000 -1.203044 -1.203042
165.550000 -1.203044 -1.203042
165.600000 -1.203044 -1.203042
165.650000 -1.203044 -1.203042
165.700000 -1.203044 -1.203042
165.750000 -1.203044 -1.203042
165.800000 -1.203044 -1.203042
165.850000 -1.203043 -1.203042
165.900000 -1.203043 -1.203042
165.950000 -1.203043 -1.203042
166.000000 -1.203043 -1.203042
166.050000 -1.203043 -1.203042
166.100000 -1.203042 -1.203042
166.150000 -1.203042 -1.203042
166.200000 -1.203042 -1.203042
166.250000 -1.203042 -1.203042
166.300000 -1.203041 -1.203042
166.350000 -1.203041 -1.203042
166.400000 -1.203041 -1.203042
166.450000 -1.203041 -1.203042
166.500000 -1.203041 -1.203042
166.550000 -1.203041 -1.203042
166.600000 -1.203041 -1.203042
166.650000 -1.203041 -1.203042
166.700000 -1.203041 -1.203042
166.750000 -1.203041 -1.203042
166.800000 -1.203041 -1.203042
166.850000 -1.203041 -1.203042
166.900000 -1.203042 -1.203042
166.950000 -1.203042 -1.203042
167.000000 -1.203042 -1.203042
167.050000 -1.203042 -1.203042
167.100000 -1.203042 -1.203042
167.150000 -1.203043 -1.203042
167.200000 -1.203043 -1.203042
167.250000 -1.203043 -1.203042
167.300000 -1.203043 -1.203042
167.350000 -1.203044 -1.203042
167.400000 -1.203044 -1.203042
167.450000 -1.203044 -1.203042
167.500000 -1.203044 -1.203042
167.550000 -1.203044 -1.203042
167.600000 -1.203044 -1.203042
167.650000 -1.203044 -1.203042
167.700000 -1.203044 -1.203042
167.750000 -1.203044 -1.203042
167.800000 -1.203043 -1.203042
167.850000 -1.203043 -1.203042
167.900000 -1.203043 -1.203042
167.950000 -1.203043 -1.203042
168.000000 -1.203043 -1.203042
168.050000 -1.203043 -1.203042
168.100000 -1.203042 -1.203042
168.150000 -1.203042 -1.203042
168.200000 -1.203042 -1.203042
168.250000 -1.203042 -1.203042
168.300000 -1.203042 -1.203042
168.350000 -1.203041 -1.203042
168.400000 -1.203041 -1.203042
168.450000 -1.203041 -1.203042
168.500000 -1.203041 -1.203042
168.550000 -1.203041 -1.203042
168.600000 -1.203041 -1.203042
168.650000 -1.203041 -1.203042
168.700000 -1.203041 -1.203042
168.750000 -1.203041 -1.203042
168.800000 -1.203041 -1.203042
168.850000 -1.203042 -1.203042
168.900000 -1.203042 -1.203042
168.950000 -1.203042 -1.203042
169.000000 -1.203042 -1.203042
169.050000 -1.203042 -1.203042
169.100000 -1.203042 -1.203042
169.150000 -1.203043 -1.203042
169.200000 -1.203043 -1.203042
169.250000 -1.203043 -1.203042
169.300000 -1.203043 -1.203042
169.350000 -1.203043 -1.203042
169.400000 -1.203043 -1.203042
169.450000 -1.203044 -1.203042
169.500000 -1.203044 -1.203042
169.550000 -1.203044 -1.203042
169.600000 -1.203044 -1.203042
169.650000 -1.203044 -1.203042
169.700000 -1.203044 -1.203042
169.750000 -1.203043 -1.203042
169.800000 -1.203043 -1.203042
169.850000 -1.203043 -1.203042
169.900000 -1.203043 -1.203042
169.950000 -1.203043 -1.203042
170.000000 -1.203043 -1.203042
170.050000 -1.203043 -1.203042
170.100000 -1.203042 -1.203042
170.150000 -1.203042 -1.203042
170.200000 -1.203042 -1.203042
170.250000 -1.203042 -1.203042
170.300000 -1.203042 -1.203042
170.350000 -1.203042 -1.203042
170.400000 -1.203041 -1.203042
170.450000 -1.203041 -1.203042
170.500000 -1.203041 -1.203042
170.550000 -1.203041 -1.203042
170.600000 -1.203041 -1.203042
170.650000 -1.203041 -1.203042
170.700000 -1.203041 -1.203042
170.750000 -1.203041 -1.203042
170.800000 -1.203041 -1.203042
170.850000 -1.203042 -1.203042
170.900000 -1.203042 -1.203042
170.950000 -1.203042 -1.203042
171.000000 -1.203042 -1.203042
171.050000 -1.203042 -1.203042
171.100000 -1.203042 -1.203042
171.150000 -1.203043 -1.203042
171.200000 -1.203043 -1.203042
171.250000 -1.203043 -1.203042
171.300000 -1.203043 -1.203042
171.350000 -1.203043 -1.203042
171.400000 -1.203043 -1.203042
171.450000 -1.203043 -1.203042
171.500000 -1.203043 -1.203042
171.550000 -1.203043 -1.203042
171.600000 -1.203043 -1.203042
171.650000 -1.203043 -1.203042
171.700000 -1.203043 -1.203042
171.750000 -1.203043 -1.203042
171.800000 -1.203043 -1.203042
171.850000 -1.203043 -1.203042
171.900000 -1.203043 -1.203042
171.950000 -1.203043 -1.203042
172.000000 -1.203043 -1.203042
172.050000 -1.203043 -1.203042
172.100000 -1.203042 -1.203042
172.150000 -1.203042 -1.203042
172.200000 -1.203042 -1.203042
172.250000 -1.203042 -1.203042
172.300000 -1.203042 -1.203042
172.350000 -1.203042 -1.203042
172.400000 -1.203042 -1.203042
172.450000 -1.203042 -1.203042
172.500000 -1.203041 -1.203042
172.550000 -1.203041 -1.203042
172.600000 -1.203041 -1.203042
172.650000 -1.203041 -1.203042
172.700000 -1.203041 -1.203042
172.750000 -1.203042 -1.203042
172.800000 -1.203042 -1.203042
172.850000 -1.203042 -1.203042
172.900000 -1.203042 -1.203042
172.950000 -1.203042 -1.203042
173.000000 -1.203042 -1.203042
173.050000 -1.203042 -1.203042
173.100000 -1.203042 -1.203042
173.150000 -1.203043 -1.203042
173.200000 -1.203043 -1.203042
173.250000 -1.203043 -1.203042
173.300000 -1.203043 -1.203042
173.350000 -1.203043 -1.203042
173.400000 -1.203043 -1.203042
173.450000 -1.203043 -1.203042
173.500000 -1.203043 -1.203042
173.550000 -1.203043 -1.203042
173.600000 -1.203043 -1.203042
173.650000 -1.203043 -1.203042
173.700000 -1.203043 -1.203042
173.750000 -1.203043 -1.203042
173.800000 -1.203043 -1.203042
173.850000 -1.203043 -1.203042
173.900000 -1.203043 -1.203042
173.950000 -1.203043 -1.203042
174.000000 -1.203043 -1.203042
174.050000 -1.203043 -1.203042
174.100000 -1.203042 -1.203042
174.150000 -1.203042 -1.203042
174.200000 -1.203042 -1.203042
174.250000 -1.203042 -1.203042
174.300000 -1.203042 -1.203042
174.350000 -1.203042 -1.203042
174.400000 -1.203042 -1.203042
174.450000 -1.203042 -1.203042
174.500000 -1.203042 -1.203042
174.550000 -1.203042 -1.203042
174.600000 -1.203042 -1.203042
174.650000 -1.203042 -1.203042
174.700000 -1.203042 -1.203042
174.750000 -1.203042 -1.203042
174.800000 -1.203042 -1.203042
174.850000 -1.203042 -1.203042
174.900000 -1.203042 -1.203042
174.950000 -1.203042 -1.203042
175.000000 -1.203042 -1.203042
175.050000 -1.203042 -1.203042
175.100000 -1.203042 -1.203042
175.150000 -1.203042 -1.203042
175.200000 -1.203043 -1.203042
175.250000 -1.203043 -1.203042
175.300000 -1.203043 -1.203042
175.350000 -1.203043 -1.203042
175.400000 -1.203043 -1.203042
175.450000 -1.203043 -1.203042
175.500000 -1.203043 -1.203042
175.550000 -1.203043 -1.203042
175.600000 -1.203043 -1.203042
175.650000 -1.203043 -1.203042
175.700000 -1.203043 -1.203042
175.750000 -1.203043 -1.203042
175.800000 -1.203043 -1.203042
175.850000 -1.203043 -1.203042
175.900000 -1.203043 -1.203042
175.950000 -1.203043 -1.203042
176.000000 -1.203043 -1.203042
176.050000 -1.203043 -1.203042
176.100000 -1.203042 -1.203042
176.150000 -1.203042 -1.203042
176.200000 -1.203042 -1.203042
176.250000 -1.203042 -1.203042
176.300000 -1.203042 -1.203042
176.350000 -1.203042 -1.203042
176.400000 -1.203042 -1.203042
176.450000 -1.203042 -1.203042
176.500000 -1.203042 -1.203042
176.550000 -1.203042 -1.203042
176.600000 -1.203042 -1.203042
176.650000 -1.203042 -1.203042
176.700000 -1.203042 -1.203042
176.750000 -1.203042 -1.203042
176.800000 -1.203042 -1.203042
176.850000 -1.203042 -1.203042
176.900000 -1.203042 -1.203042
176.950000 -1.203042 -1.203042
177.000000 -1.203042 -1.203042
177.050000 -1.203042 -1.203042
177.100000 -1.203042 -1.203042
177.150000 -1.203042 -1.203042
177.200000 -1.203043 -1.203042
177.250000 -1.203043 -1.203042
177.300000 -1.203043 -1.203042
177.350000 -1.203043 -1.203042
177.400000 -1.203043 -1.203042
177.450000 -1.203043 -1.203042
177.500000 -1.203043 -1.203042
177.550000 -1.203043 -1.203042
177.600000 -1.203043 -1.203042
177.650000 -1.203043 -1.203042
177.700000 -1.203043 -1.203042
177.750000 -1.203043 -1.203042
177.800000 -1.203043 -1.203042
177.850000 -1.203043 -1.203042
177.900000 -1.203043 -1.203042
177.950000 -1.203043 -1.203042
178.000000 -1.203043 -1.203042
178.050000 -1.203043 -1.203042
178.100000 -1.203042 -1.203042
178.150000 -1.203042 -1.203042
178.200000 -1.203042 -1.203042
178.250000 -1.203042 -1.203042
178.300000 -1.203042 -1.203042
178.350000 -1.203042 -1.203042
178.400000 -1.203042 -1.203042
178.450000 -1.203042 -1.203042
178.500000 -1.203042 -1.203042
178.550000 -1.203042 -1.203042
178.600000 -1.203042 -1.203042
178.650000 -1.203042 -1.203042
178.700000 -1.203042 -1.203042
178.750000 -1.203042 -1.203042
178.800000 -1.203042 -1.203042
178.850000 -1.203042 -1.203042
178.900000 -1.203042 -1.203042
178.950000 -1.203042 -1.203042
179.000000 -1.203042 -1.203042
179.050000 -1.203042 -1.203042
179.100000 -1.203042 -1.203042
179.150000 -1.203042 -1.203042
179.200000 -1.203043 -1.203042
179.250000 -1.203043 -1.203042
179.300000 -1.203043 -1.203042
179.350000 -1.203043 -1.203042
179.400000 -1.203043 -1.203042
179.450000 -1.203043 -1.203042
179.500000 -1.203043 -1.203042
179.550000 -1.203043 -1.203042
179.600000 -1.203043 -1.203042
179.650000 -1.203043 -1.203042
179.700000 -1.203043 -1.203042
179.750000 -1.203043 -1.203042
179.800000 -1.203043 -1.203042
179.850000 -1.203043 -1.203042
179.900000 -1.203043 -1.203042
179.950000 -1.203043 -1.203042
180.000000 -1.203043 -1.203042
180.050000 -1.203042 -1.203042
180.100000 -1.203042 -1.203042
180.150000 -1.203042 -1.203042
180.200000 -1.203042 -1.203042
180.250000 -1.203042 -1.203042
180.300000 -1.203042 -1.203042
180.350000 -1.203042 -1.203042
180.400000 -1.203042 -1.203042
180.450000 -1.203042 -1.203042
180.500000 -1.203042 -1.203042
180.550000 -1.203042 -1.203042
180.600000 -1.203042 -1.203042
180.650000 -1.203042 -1.203042
180.700000 -1.203042 -1.203042
180.750000 -1.203042 -1.203042
180.800000 -1.203042 -1.203042
180.850000 -1.203042 -1.203042
180.900000 -1.203042 -1.203042
180.950000 -1.203042 -1.203042
181.000000 -1.203042 -1.203042
181.050000 -1.203042 -1.203042
181.100000 -1.203042 -1.203042
181.150000 -1.203042 -1.203042
181.200000 -1.203042 -1.203042
181.250000 -1.203043 -1.203042
181.300000 -1.203043 -1.203042
181.350000 -1.203043 -1.203042
181.400000 -1.203043 -1.203042
181.450000 -1.203043 -1.203042
181.500000 -1.203043 -1.203042
181.550000 -1.203043 -1.203042
181.600000 -1.203043 -1.203042
181.650000 -1.203043 -1.203042
181.700000 -1.203043 -1.203042
181.750000 -1.203043 -1.203042
181.800000 -1.203043 -1.203042
181.850000 -1.203043 -1.203042
181.900000 -1.203043 -1.203042
181.950000 -1.203043 -1.203042
182.000000 -1.203043 -1.203042
182.050000 -1.203042 -1.203042
182.100000 -1.203042 -1.203042
182.150000 -1.203042 -1.203042
182.200000 -1.203042 -1.203042
182.250000 -1.203042 -1.203042
182.300000 -1.203042 -1.203042
182.350000 -1.203042 -1.203042
182.400000 -1.203042 -1.203042
182.450000 -1.203042 -1.203042
182.500000 -1.203042 -1.203042
182.550000 -1.203042 -1.203042
182.600000 -1.203042 -1.203042
182.650000 -1.203042 -1.203042
182.700000 -1.203042 -1.203042
182.750000 -1.203042 -1.203042
182.800000 -1.203042 -1.203042
182.850000 -1.203042 -1.203042
182.900000 -1.203042 -1.203042
182.950000 -1.203042 -1.203042
183.000000 -1.203042 -1.203042
183.050000 -1.203042 -1.203042
183.100000 -1.203042 -1.203042
183.150000 -1.203042 -1.203042
183.200000 -1.203042 -1.203042
183.250000 -1.203043 -1.203042
183.300000 -1.203043 -1.203042
183.350000 -1.203043 -1.203042
183.400000 -1.203043 -1.203042
183.450000 -1.203043 -1.203042
183.500000 -1.203043 -1.203042
183.550000 -1.203043 -1.203042
183.600000 -1.203043 -1.203042
183.650000 -1.203043 -1.203042
183.700000 -1.203043 -1.203042
183.750000 -1.203043 -1.203042
183.800000 -1.203043 -1.203042
183.850000 -1.203043 -1.203042
183.900000 -1.203043 -1.203042
183.950000 -1.203043 -1.203042
184.000000 -1.203043 -1.203042
184.050000 -1.203042 -1.203042
184.100000 -1.203042 -1.203042
184.150000 -1.203042 -1.203042
184.200000 -1.203042 -1.203042
184.250000 -1.203042 -1.203042
184.300000 -1.203042 -1.203042
184.350000 -1.203042 -1.203042
184.400000 -1.203042 -1.203042
184.450000 -1.203042 -1.203042
184.500000 -1.203042 -1.203042
184.550000 -1.203042 -1.203042
184.600000 -1.203042 -1.203042
184.650000 -1.203042 -1.203042
184.700000 -1.203042 -1.203042
184.750000 -1.203042 -1.203042
184.800000 -1.203042 -1.203042
184.850000 -1.203042 -1.203042
184.900000 -1.203042 -1.203042
184.950000 -1.203042 -1.203042
185.000000 -1.203042 -1.203042
185.050000 -1.203042 -1.203042
185.100000 -1.203042 -1.203042
185.150000 -1.203042 -1.203042
185.200000 -1.203042 -1.203042
185.250000 -1.203043 -1.203042
185.300000 -1.203043 -1.203042
185.350000 -1.203043 -1.203042
185.400000 -1.203043 -1.203042
185.450000 -1.203043 -1.203042
185.500000 -1.203043 -1.203042
185.550000 -1.203043 -1.203042
185.600000 -1.203043 -1.203042
185.650000 -1.203043 -1.203042
185.700000 -1.203043 -1.203042
185.750000 -1.203043 -1.203042
185.800000 -1.203043 -1.203042
185.850000 -1.203043 -1.203042
185.900000 -1.203043 -1.203042
185.950000 -1.203043 -1.203042
186.000000 -1.203043 -1.203042
186.050000 -1.203042 -1.203042
186.100000 -1.203042 -1.203042
186.150000 -1.203042 -1.203042
186.200000 -1.203042 -1.203042
186.250000 -1.203042 -1.203042
186.300000 -1.203042 -1.203042
186.350000 -1.203042 -1.203042
186.400000 -1.203042 -1.203042
186.450000 -1.203042 -1.203042
186.500000 -1.203042 -1.203042
186.550000 -1.203042 -1.203042
186.600000 -1.203042 -1.203042
186.650000 -1.203042 -1.203042
186.700000 -1.203042 -1.203042
186.750000 -1.203042 -1.203042
186.800000 -1.203042 -1.203042
186.850000 -1.203042 -1.203042
186.900000 -1.203042 -1.203042
186.950000 -1.203042 -1.203042
