fit_time[ns] Functional_fit[mV] Thermal_fit[mV]
3.200000 6.777179 7.309487
3.250000 6.779760 7.203647
3.300000 6.791171 7.099436
3.350000 6.808693 6.996828
3.400000 6.829563 6.895794
3.450000 6.851032 6.796311
3.500000 6.870426 6.698352
3.550000 6.885205 6.601893
3.600000 6.893012 6.506910
3.650000 6.891725 6.413377
3.700000 6.879495 6.321273
3.750000 6.854782 6.230572
3.800000 6.816383 6.141254
3.850000 6.763452 6.053294
3.900000 6.695508 5.966673
3.950000 6.612442 5.881366
4.000000 6.514508 5.797355
4.050000 6.402312 5.714617
4.100000 6.276789 5.633132
4.150000 6.139180 5.552881
4.200000 5.990993 5.473843
4.250000 5.833966 5.395998
4.300000 5.670024 5.319329
4.350000 5.501232 5.243815
4.400000 5.329748 5.169439
4.450000 5.157769 5.096182
4.500000 4.987487 5.024027
4.550000 4.821036 4.952956
4.600000 4.660447 4.882952
4.650000 4.507605 4.813998
4.700000 4.364211 4.746077
4.750000 4.231746 4.679173
4.800000 4.111443 4.613271
4.850000 4.004266 4.548353
4.900000 3.910889 4.484405
4.950000 3.831694 4.421411
5.000000 3.766759 4.359356
5.050000 3.715872 4.298226
5.100000 3.678531 4.238006
5.150000 3.653968 4.178682
5.200000 3.641168 4.120240
5.250000 3.638896 4.062665
5.300000 3.645726 4.005946
5.350000 3.660083 3.950067
5.400000 3.680272 3.895016
5.450000 3.704522 3.840780
5.500000 3.731026 3.787347
5.550000 3.757980 3.734704
5.600000 3.783625 3.682838
5.650000 3.806280 3.631738
5.700000 3.824381 3.581392
5.750000 3.836514 3.531788
5.800000 3.841438 3.482914
5.850000 3.838112 3.434761
5.900000 3.825716 3.387315
5.950000 3.803658 3.340567
6.000000 3.771588 3.294505
6.050000 3.729399 3.249120
6.100000 3.677224 3.204400
6.150000 3.615428 3.160336
6.200000 3.544594 3.116917
6.250000 3.465509 3.074134
6.300000 3.379140 3.031977
6.350000 3.286607 2.990436
6.400000 3.189160 2.949502
6.450000 3.088144 2.909166
6.500000 2.984972 2.869418
6.550000 2.881086 2.830249
6.600000 2.777930 2.791652
6.650000 2.676916 2.753616
6.700000 2.579392 2.716134
6.750000 2.486615 2.679198
6.800000 2.399726 2.642798
6.850000 2.319724 2.606927
6.900000 2.247447 2.571576
6.950000 2.183560 2.536739
7.000000 2.128539 2.502407
7.050000 2.082668 2.468572
7.100000 2.046033 2.435227
7.150000 2.018526 2.402365
7.200000 1.999851 2.369978
7.250000 1.989534 2.338060
7.300000 1.986934 2.306602
7.350000 1.991266 2.275599
7.400000 2.001615 2.245044
7.450000 2.016962 2.214929
7.500000 2.036209 2.185248
7.550000 2.058202 2.155995
7.600000 2.081758 2.127163
7.650000 2.105694 2.098746
7.700000 2.128850 2.070738
7.750000 2.150116 2.043132
7.800000 2.168453 2.015924
7.850000 2.182916 1.989106
7.900000 2.192675 1.962673
7.950000 2.197027 1.936619
8.000000 2.195409 1.910938
8.050000 2.187412 1.885626
8.100000 2.172781 1.860676
8.150000 2.151422 1.836084
8.200000 2.123399 1.811843
8.250000 2.088928 1.787949
8.300000 2.048373 1.764397
8.350000 2.002229 1.741181
8.400000 1.951115 1.718297
8.450000 1.895753 1.695739
8.500000 1.836952 1.673503
8.550000 1.775588 1.651584
8.600000 1.712582 1.629978
8.650000 1.648882 1.608679
8.700000 1.585438 1.587684
8.750000 1.523182 1.566987
8.800000 1.463008 1.546585
8.850000 1.405753 1.526473
8.900000 1.352180 1.506647
8.950000 1.302963 1.487103
9.000000 1.258669 1.467836
9.050000 1.219756 1.448842
9.100000 1.186556 1.430118
9.150000 1.159279 1.411659
9.200000 1.138002 1.393463
9.250000 1.122675 1.375523
9.300000 1.113126 1.357838
9.350000 1.109061 1.340404
9.400000 1.110079 1.323215
9.450000 1.115679 1.306270
9.500000 1.125275 1.289565
9.550000 1.138208 1.273096
9.600000 1.153767 1.256859
9.650000 1.171199 1.240851
9.700000 1.189730 1.225070
9.750000 1.208585 1.209511
9.800000 1.226999 1.194171
9.850000 1.244238 1.179048
9.900000 1.259612 1.164138
9.950000 1.272492 1.149437
10.000000 1.282321 1.134944
10.050000 1.288623 1.120655
10.100000 1.291016 1.106566
10.150000 1.289214 1.092676
10.200000 1.283036 1.078981
10.250000 1.272402 1.065478
10.300000 1.257339 1.052165
10.350000 1.237974 1.039039
10.400000 1.214530 1.026098
10.450000 1.187322 1.013337
10.500000 1.156742 1.000756
10.550000 1.123256 0.988351
10.600000 1.087386 0.976120
10.650000 1.049702 0.964060
10.700000 1.010806 0.952169
10.750000 0.971317 0.940445
10.800000 0.931861 0.928884
10.850000 0.893053 0.917485
10.900000 0.855485 0.906246
10.950000 0.819714 0.895164
11.000000 0.786250 0.884236
11.050000 0.755545 0.873461
11.100000 0.727984 0.862837
11.150000 0.703879 0.852361
11.200000 0.683464 0.842031
11.250000 0.666888 0.831845
11.300000 0.654217 0.821801
11.350000 0.645434 0.811897
11.400000 0.640436 0.802132
11.450000 0.639045 0.792502
11.500000 0.641008 0.783006
11.550000 0.646007 0.773642
11.600000 0.653667 0.764409
11.650000 0.663562 0.755304
11.700000 0.675231 0.746326
11.750000 0.688183 0.737472
11.800000 0.701914 0.728742
11.850000 0.715914 0.720133
11.900000 0.729679 0.711643
11.950000 0.742724 0.703271
12.000000 0.754591 0.695016
12.050000 0.764862 0.686875
12.100000 0.773162 0.678847
12.150000 0.779170 0.670930
12.200000 0.782627 0.663123
12.250000 0.783335 0.655424
12.300000 0.781162 0.647832
12.350000 0.776048 0.640344
12.400000 0.767999 0.632961
12.450000 0.757088 0.625680
12.500000 0.743452 0.618499
12.550000 0.727289 0.611418
12.600000 0.708848 0.604435
12.650000 0.688429 0.597548
12.700000 0.666368 0.590756
12.750000 0.643037 0.584058
12.800000 0.618826 0.577453
12.850000 0.594143 0.570939
12.900000 0.569398 0.564515
12.950000 0.544996 0.558179
13.000000 0.521330 0.551931
13.050000 0.498768 0.545769
13.100000 0.477653 0.539692
13.150000 0.458286 0.533698
13.200000 0.440929 0.527788
13.250000 0.425795 0.521958
13.300000 0.413046 0.516209
13.350000 0.402788 0.510539
13.400000 0.395075 0.504948
13.450000 0.389903 0.499433
13.500000 0.387216 0.493994
13.550000 0.386902 0.488629
13.600000 0.388805 0.483339
13.650000 0.392723 0.478121
13.700000 0.398415 0.472975
13.750000 0.405607 0.467900
13.800000 0.413999 0.462894
13.850000 0.423273 0.457957
13.900000 0.433098 0.453088
13.950000 0.443141 0.448286
14.000000 0.453069 0.443549
14.050000 0.462561 0.438878
14.100000 0.471316 0.434270
14.150000 0.479053 0.429726
14.200000 0.485521 0.425244
14.250000 0.490506 0.420823
14.300000 0.493828 0.416463
14.350000 0.495353 0.412163
14.400000 0.494987 0.407922
14.450000 0.492683 0.403738
14.500000 0.488438 0.399612
14.550000 0.482294 0.395542
14.600000 0.474334 0.391528
14.650000 0.464681 0.387569
14.700000 0.453494 0.383664
14.750000 0.440966 0.379813
14.800000 0.427313 0.376014
14.850000 0.412776 0.372267
14.900000 0.397611 0.368571
14.950000 0.382083 0.364925
15.000000 0.366461 0.361330
15.050000 0.351014 0.357783
15.100000 0.335999 0.354285
15.150000 0.321663 0.350834
15.200000 0.308232 0.347431
15.250000 0.295911 0.344074
15.300000 0.284874 0.340763
15.350000 0.275268 0.337497
15.400000 0.267203 0.334275
15.450000 0.260757 0.331097
15.500000 0.255970 0.327963
15.550000 0.252845 0.324871
15.600000 0.251351 0.321822
15.650000 0.251421 0.318813
15.700000 0.252957 0.315846
15.750000 0.255832 0.312919
15.800000 0.259889 0.310032
15.850000 0.264955 0.307185
15.900000 0.270833 0.304376
15.950000 0.277317 0.301605
16.000000 0.284192 0.298872
16.050000 0.291237 0.296176
16.100000 0.298235 0.293516
16.150000 0.304974 0.290893
16.200000 0.311253 0.288305
16.250000 0.316886 0.285753
16.300000 0.321705 0.283235
16.350000 0.325565 0.280751
16.400000 0.328345 0.278301
16.450000 0.329952 0.275885
16.500000 0.330320 0.273501
16.550000 0.329413 0.271149
16.600000 0.327225 0.268829
16.650000 0.323778 0.266541
16.700000 0.319123 0.264284
16.750000 0.313337 0.262057
16.800000 0.306521 0.259860
16.850000 0.298798 0.257693
16.900000 0.290307 0.255556
16.950000 0.281205 0.253447
17.000000 0.271658 0.251367
17.050000 0.261840 0.249316
17.100000 0.251926 0.247291
17.150000 0.242094 0.245295
17.200000 0.232515 0.243325
17.250000 0.223351 0.241382
17.300000 0.214753 0.239465
17.350000 0.206859 0.237574
17.400000 0.199786 0.235709
17.450000 0.193633 0.233869
17.500000 0.188477 0.232054
17.550000 0.184373 0.230263
17.600000 0.181351 0.228496
17.650000 0.179416 0.226754
17.700000 0.178553 0.225035
17.750000 0.178721 0.223339
17.800000 0.179858 0.221666
17.850000 0.181884 0.220015
17.900000 0.184701 0.218387
17.950000 0.188194 0.216781
18.000000 0.192238 0.215196
18.050000 0.196698 0.213633
18.100000 0.201434 0.212090
18.150000 0.206301 0.210569
18.200000 0.211156 0.209068
18.250000 0.215860 0.207588
18.300000 0.220279 0.206127
18.350000 0.224290 0.204686
18.400000 0.227779 0.203264
18.450000 0.230651 0.201862
18.500000 0.232822 0.200478
18.550000 0.234228 0.199113
18.600000 0.234823 0.197766
18.650000 0.234581 0.196438
18.700000 0.233495 0.195127
18.750000 0.231576 0.193834
18.800000 0.228855 0.192559
18.850000 0.225379 0.191300
18.900000 0.221212 0.190059
18.950000 0.216434 0.188834
19.000000 0.211133 0.187625
19.050000 0.205411 0.186433
19.100000 0.199377 0.185257
19.150000 0.193143 0.184097
19.200000 0.186826 0.182952
19.250000 0.180541 0.181823
19.300000 0.174401 0.180708
19.350000 0.168515 0.179609
19.400000 0.162983 0.178525
19.450000 0.157896 0.177455
19.500000 0.153334 0.176399
19.550000 0.149364 0.175358
19.600000 0.146039 0.174330
19.650000 0.143397 0.173317
19.700000 0.141461 0.172316
19.750000 0.140236 0.171330
19.800000 0.139716 0.170356
19.850000 0.139874 0.169396
19.900000 0.140675 0.168448
19.950000 0.142065 0.167513
20.000000 0.143984 0.166591
20.050000 0.146357 0.165681
20.100000 0.149103 0.164783
20.150000 0.152135 0.163898
20.200000 0.155361 0.163024
20.250000 0.158686 0.162162
20.300000 0.162016 0.161311
20.350000 0.165260 0.160472
20.400000 0.168329 0.159644
20.450000 0.171140 0.158827
20.500000 0.173618 0.158021
20.550000 0.175699 0.157225
20.600000 0.177326 0.156441
20.650000 0.178456 0.155666
20.700000 0.179055 0.154903
20.750000 0.179106 0.154149
20.800000 0.178600 0.153406
20.850000 0.177544 0.152672
20.900000 0.175956 0.151948
20.950000 0.173866 0.151234
21.000000 0.171313 0.150530
21.050000 0.168348 0.149834
21.100000 0.165029 0.149149
21.150000 0.161421 0.148472
21.200000 0.157595 0.147804
21.250000 0.153624 0.147145
21.300000 0.149584 0.146495
21.350000 0.145553 0.145854
21.400000 0.141603 0.145221
21.450000 0.137808 0.144597
21.500000 0.134233 0.143981
21.550000 0.130939 0.143373
21.600000 0.127982 0.142774
21.650000 0.125405 0.142182
21.700000 0.123245 0.141598
21.750000 0.121528 0.141022
21.800000 0.120272 0.140454
21.850000 0.119481 0.139893
21.900000 0.119153 0.139340
21.950000 0.119273 0.138794
22.000000 0.119817 0.138256
22.050000 0.120754 0.137724
22.100000 0.122043 0.137200
22.150000 0.123637 0.136682
22.200000 0.125483 0.136172
22.250000 0.127526 0.135668
22.300000 0.129704 0.135171
22.350000 0.131957 0.134681
22.400000 0.134222 0.134197
22.450000 0.136438 0.133719
22.500000 0.138548 0.133248
22.550000 0.140496 0.132784
22.600000 0.142232 0.132325
22.650000 0.143713 0.131872
22.700000 0.144900 0.131426
22.750000 0.145764 0.130985
22.800000 0.146282 0.130551
22.850000 0.146441 0.130122
22.900000 0.146233 0.129698
22.950000 0.145662 0.129281
23.000000 0.144739 0.128869
23.050000 0.143482 0.128462
23.100000 0.141915 0.128061
23.150000 0.140072 0.127665
23.200000 0.137988 0.127275
23.250000 0.135708 0.126889
23.300000 0.133275 0.126509
23.350000 0.130739 0.126134
23.400000 0.128149 0.125763
23.450000 0.125556 0.125398
23.500000 0.123007 0.125038
23.550000 0.120552 0.124682
23.600000 0.118234 0.124331
23.650000 0.116094 0.123985
23.700000 0.114168 0.123643
23.750000 0.112486 0.123306
23.800000 0.111075 0.122973
23.850000 0.109951 0.122645
23.900000 0.109127 0.122321
23.950000 0.108609 0.122001
24.000000 0.108394 0.121685
24.050000 0.108474 0.121374
24.100000 0.108835 0.121067
24.150000 0.109456 0.120764
24.200000 0.110312 0.120465
24.250000 0.111374 0.120170
24.300000 0.112606 0.119879
24.350000 0.113973 0.119591
24.400000 0.115434 0.119308
24.450000 0.116950 0.119028
24.500000 0.118480 0.118752
24.550000 0.119984 0.118480
24.600000 0.121423 0.118211
24.650000 0.122762 0.117946
24.700000 0.123965 0.117684
24.750000 0.125005 0.117426
24.800000 0.125856 0.117171
24.850000 0.126496 0.116919
24.900000 0.126911 0.116671
24.950000 0.127091 0.116426
25.000000 0.127030 0.116185
25.050000 0.126729 0.115946
25.100000 0.126196 0.115711
25.150000 0.125440 0.115479
25.200000 0.124478 0.115250
25.250000 0.123330 0.115024
25.300000 0.122020 0.114801
25.350000 0.120575 0.114580
25.400000 0.119026 0.114363
25.450000 0.117403 0.114149
25.500000 0.115738 0.113937
25.550000 0.114066 0.113729
25.600000 0.112418 0.113523
25.650000 0.110825 0.113319
25.700000 0.109318 0.113119
25.750000 0.107923 0.112921
25.800000 0.106664 0.112726
25.850000 0.105563 0.112533
25.900000 0.104636 0.112343
25.950000 0.103895 0.112155
26.000000 0.103351 0.111970
26.050000 0.103006 0.111787
26.100000 0.102860 0.111607
26.150000 0.102909 0.111429
26.200000 0.103143 0.111253
26.250000 0.103550 0.111080
26.300000 0.104115 0.110909
26.350000 0.104816 0.110740
26.400000 0.105634 0.110574
26.450000 0.106543 0.110409
26.500000 0.107518 0.110247
26.550000 0.108533 0.110087
26.600000 0.109561 0.109929
26.650000 0.110576 0.109773
26.700000 0.111552 0.109620
26.750000 0.112465 0.109468
26.800000 0.113293 0.109318
26.850000 0.114016 0.109170
26.900000 0.114617 0.109025
26.950000 0.115082 0.108881
27.000000 0.115400 0.108739
27.050000 0.115563 0.108598
27.100000 0.115569 0.108460
27.150000 0.115418 0.108324
27.200000 0.115112 0.108189
27.250000 0.114658 0.108056
27.300000 0.114067 0.107925
27.350000 0.113352 0.107796
27.400000 0.112527 0.107668
27.450000 0.111611 0.107542
27.500000 0.110622 0.107417
27.550000 0.109581 0.107295
27.600000 0.108510 0.107174
27.650000 0.107429 0.107054
27.700000 0.106361 0.106936
27.750000 0.105326 0.106820
27.800000 0.104344 0.106705
27.850000 0.103432 0.106591
27.900000 0.102607 0.106479
27.950000 0.101883 0.106369
28.000000 0.101272 0.106260
28.050000 0.100782 0.106153
28.100000 0.100419 0.106046
28.150000 0.100187 0.105942
28.200000 0.100086 0.105838
28.250000 0.100113 0.105736
28.300000 0.100262 0.105636
28.350000 0.100527 0.105536
28.400000 0.100896 0.105438
28.450000 0.101357 0.105342
28.500000 0.101896 0.105246
28.550000 0.102498 0.105152
28.600000 0.103146 0.105059
28.650000 0.103823 0.104967
28.700000 0.104510 0.104877
28.750000 0.105192 0.104788
28.800000 0.105851 0.104699
28.850000 0.106471 0.104612
28.900000 0.107036 0.104526
28.950000 0.107535 0.104442
29.000000 0.107955 0.104358
29.050000 0.108287 0.104276
29.100000 0.108524 0.104194
29.150000 0.108660 0.104114
29.200000 0.108692 0.104034
29.250000 0.108620 0.103956
29.300000 0.108447 0.103879
29.350000 0.108176 0.103803
29.400000 0.107813 0.103727
29.450000 0.107367 0.103653
29.500000 0.106847 0.103580
29.550000 0.106265 0.103507
29.600000 0.105633 0.103436
29.650000 0.104965 0.103366
29.700000 0.104274 0.103296
29.750000 0.103575 0.103228
29.800000 0.102882 0.103160
29.850000 0.102208 0.103093
29.900000 0.101566 0.103027
29.950000 0.100969 0.102962
30.000000 0.100427 0.102898
30.050000 0.099950 0.102834
30.100000 0.099546 0.102772
30.150000 0.099220 0.102710
30.200000 0.098977 0.102649
30.250000 0.098820 0.102589
30.300000 0.098748 0.102530
30.350000 0.098761 0.102471
30.400000 0.098855 0.102413
30.450000 0.099025 0.102356
30.500000 0.099265 0.102300
30.550000 0.099567 0.102245
30.600000 0.099921 0.102190
30.650000 0.100318 0.102136
30.700000 0.100747 0.102082
30.750000 0.101196 0.102029
30.800000 0.101655 0.101977
30.850000 0.102111 0.101926
30.900000 0.102554 0.101875
30.950000 0.102973 0.101825
31.000000 0.103358 0.101776
31.050000 0.103700 0.101727
31.100000 0.103991 0.101679
31.150000 0.104225 0.101632
31.200000 0.104398 0.101585
31.250000 0.104504 0.101539
31.300000 0.104543 0.101493
31.350000 0.104513 0.101448
31.400000 0.104416 0.101404
31.450000 0.104255 0.101360
31.500000 0.104032 0.101317
31.550000 0.103754 0.101274
31.600000 0.103426 0.101232
31.650000 0.103056 0.101190
31.700000 0.102652 0.101149
31.750000 0.102223 0.101109
31.800000 0.101777 0.101069
31.850000 0.101324 0.101030
31.900000 0.100873 0.100991
31.950000 0.100434 0.100952
32.000000 0.100014 0.100914
32.050000 0.099623 0.100877
32.100000 0.099266 0.100840
32.150000 0.098951 0.100803
32.200000 0.098683 0.100767
32.250000 0.098466 0.100732
32.300000 0.098303 0.100697
32.350000 0.098195 0.100662
32.400000 0.098144 0.100628
32.450000 0.098149 0.100595
32.500000 0.098207 0.100561
32.550000 0.098315 0.100528
32.600000 0.098470 0.100496
32.650000 0.098667 0.100464
32.700000 0.098899 0.100433
32.750000 0.099160 0.100401
32.800000 0.099443 0.100371
32.850000 0.099740 0.100340
32.900000 0.100045 0.100310
32.950000 0.100349 0.100281
33.000000 0.100646 0.100252
33.050000 0.100928 0.100223
33.100000 0.101188 0.100195
33.150000 0.101422 0.100167
33.200000 0.101623 0.100139
33.250000 0.101787 0.100112
33.300000 0.101910 0.100085
33.350000 0.101991 0.100058
33.400000 0.102027 0.100032
33.450000 0.102019 0.100006
33.500000 0.101966 0.099980
33.550000 0.101870 0.099955
33.600000 0.101734 0.099930
33.650000 0.101560 0.099906
33.700000 0.101353 0.099881
33.750000 0.101118 0.099857
33.800000 0.100860 0.099834
33.850000 0.100583 0.099810
33.900000 0.100295 0.099787
33.950000 0.100002 0.099765
34.000000 0.099708 0.099742
34.050000 0.099422 0.099720
34.100000 0.099147 0.099698
34.150000 0.098890 0.099677
34.200000 0.098655 0.099655
34.250000 0.098446 0.099634
34.300000 0.098268 0.099614
34.350000 0.098123 0.099593
34.400000 0.098013 0.099573
34.450000 0.097939 0.099553
34.500000 0.097903 0.099533
34.550000 0.097902 0.099514
34.600000 0.097938 0.099495
34.650000 0.098007 0.099476
34.700000 0.098106 0.099457
34.750000 0.098234 0.099439
34.800000 0.098385 0.099421
34.850000 0.098556 0.099403
34.900000 0.098742 0.099385
34.950000 0.098939 0.099368
35.000000 0.099141 0.099350
35.050000 0.099343 0.099333
35.100000 0.099541 0.099317
35.150000 0.099731 0.099300
35.200000 0.099906 0.099284
35.250000 0.100065 0.099267
35.300000 0.100203 0.099251
35.350000 0.100317 0.099236
35.400000 0.100404 0.099220
35.450000 0.100464 0.099205
35.500000 0.100495 0.099190
35.550000 0.100496 0.099175
35.600000 0.100468 0.099160
35.650000 0.100412 0.099145
35.700000 0.100328 0.099131
35.750000 0.100220 0.099117
35.800000 0.100090 0.099103
35.850000 0.099940 0.099089
35.900000 0.099774 0.099075
35.950000 0.099597 0.099062
36.000000 0.099410 0.099049
36.050000 0.099220 0.099036
36.100000 0.099029 0.099023
36.150000 0.098842 0.099010
36.200000 0.098661 0.098997
36.250000 0.098492 0.098985
36.300000 0.098337 0.098973
36.350000 0.098199 0.098961
36.400000 0.098081 0.098949
36.450000 0.097983 0.098937
36.500000 0.097909 0.098925
36.550000 0.097858 0.098914
36.600000 0.097832 0.098902
36.650000 0.097830 0.098891
36.700000 0.097851 0.098880
36.750000 0.097894 0.098869
36.800000 0.097958 0.098858
36.850000 0.098040 0.098848
36.900000 0.098139 0.098837
36.950000 0.098250 0.098827
37.000000 0.098373 0.098817
37.050000 0.098502 0.098807
37.100000 0.098636 0.098797
37.150000 0.098770 0.098787
37.200000 0.098902 0.098777
37.250000 0.099029 0.098767
37.300000 0.099147 0.098758
37.350000 0.099255 0.098749
37.400000 0.099349 0.098739
37.450000 0.099427 0.098730
37.500000 0.099489 0.098721
37.550000 0.099532 0.098713
37.600000 0.099557 0.098704
37.650000 0.099562 0.098695
37.700000 0.099548 0.098687
37.750000 0.099515 0.098678
37.800000 0.099464 0.098670
37.850000 0.099397 0.098662
37.900000 0.099314 0.098654
37.950000 0.099219 0.098646
38.000000 0.099113 0.098638
38.050000 0.098999 0.098630
38.100000 0.098878 0.098622
38.150000 0.098755 0.098615
38.200000 0.098630 0.098607
38.250000 0.098508 0.098600
38.300000 0.098390 0.098593
38.350000 0.098278 0.098586
38.400000 0.098176 0.098578
38.450000 0.098084 0.098571
38.500000 0.098005 0.098565
38.550000 0.097940 0.098558
38.600000 0.097890 0.098551
38.650000 0.097855 0.098544
38.700000 0.097836 0.098538
38.750000 0.097833 0.098531
38.800000 0.097845 0.098525
38.850000 0.097872 0.098519
38.900000 0.097913 0.098512
38.950000 0.097966 0.098506
39.000000 0.098030 0.098500
39.050000 0.098103 0.098494
39.100000 0.098183 0.098488
39.150000 0.098268 0.098482
39.200000 0.098356 0.098477
39.250000 0.098445 0.098471
39.300000 0.098533 0.098465
39.350000 0.098617 0.098460
39.400000 0.098697 0.098454
39.450000 0.098769 0.098449
39.500000 0.098833 0.098444
39.550000 0.098887 0.098438
39.600000 0.098930 0.098433
39.650000 0.098961 0.098428
39.700000 0.098980 0.098423
39.750000 0.098986 0.098418
39.800000 0.098980 0.098413
39.850000 0.098961 0.098408
39.900000 0.098930 0.098404
39.950000 0.098888 0.098399
40.000000 0.098836 0.098394
40.050000 0.098776 0.098390
40.100000 0.098708 0.098385
40.150000 0.098634 0.098381
40.200000 0.098556 0.098376
40.250000 0.098476 0.098372
40.300000 0.098395 0.098367
40.350000 0.098314 0.098363
40.400000 0.098237 0.098359
40.450000 0.098164 0.098355
40.500000 0.098096 0.098351
40.550000 0.098035 0.098347
40.600000 0.097983 0.098343
40.650000 0.097939 0.098339
40.700000 0.097905 0.098335
40.750000 0.097881 0.098331
40.800000 0.097867 0.098327
40.850000 0.097864 0.098323
40.900000 0.097871 0.098320
40.950000 0.097888 0.098316
41.000000 0.097913 0.098312
41.050000 0.097947 0.098309
41.100000 0.097989 0.098305
41.150000 0.098036 0.098302
41.200000 0.098089 0.098298
41.250000 0.098144 0.098295
41.300000 0.098203 0.098292
41.350000 0.098261 0.098289
41.400000 0.098320 0.098285
41.450000 0.098376 0.098282
41.500000 0.098429 0.098279
41.550000 0.098478 0.098276
41.600000 0.098521 0.098273
41.650000 0.098558 0.098270
41.700000 0.098588 0.098267
41.750000 0.098610 0.098264
41.800000 0.098624 0.098261
41.850000 0.098630 0.098258
41.900000 0.098628 0.098255
41.950000 0.098617 0.098252
42.000000 0.098598 0.098249
42.050000 0.098572 0.098247
42.100000 0.098540 0.098244
42.150000 0.098501 0.098241
42.200000 0.098457 0.098239
42.250000 0.098410 0.098236
42.300000 0.098360 0.098234
42.350000 0.098307 0.098231
42.400000 0.098254 0.098228
42.450000 0.098202 0.098226
42.500000 0.098151 0.098224
42.550000 0.098103 0.098221
42.600000 0.098058 0.098219
42.650000 0.098018 0.098216
42.700000 0.097983 0.098214
42.750000 0.097953 0.098212
42.800000 0.097930 0.098210
42.850000 0.097914 0.098207
42.900000 0.097904 0.098205
42.950000 0.097901 0.098203
43.000000 0.097905 0.098201
43.050000 0.097915 0.098199
43.100000 0.097931 0.098197
43.150000 0.097953 0.098195
43.200000 0.097980 0.098193
43.250000 0.098011 0.098191
43.300000 0.098045 0.098189
43.350000 0.098081 0.098187
43.400000 0.098120 0.098185
43.450000 0.098159 0.098183
43.500000 0.098197 0.098181
43.550000 0.098235 0.098179
43.600000 0.098270 0.098177
43.650000 0.098303 0.098175
43.700000 0.098332 0.098174
43.750000 0.098357 0.098172
43.800000 0.098378 0.098170
43.850000 0.098394 0.098168
43.900000 0.098404 0.098167
43.950000 0.098409 0.098165
44.000000 0.098408 0.098163
44.050000 0.098402 0.098162
44.100000 0.098391 0.098160
44.150000 0.098375 0.098159
44.200000 0.098354 0.098157
44.250000 0.098330 0.098155
44.300000 0.098302 0.098154
44.350000 0.098271 0.098152
44.400000 0.098239 0.098151
44.450000 0.098205 0.098149
44.500000 0.098170 0.098148
44.550000 0.098136 0.098147
44.600000 0.098103 0.098145
44.650000 0.098071 0.098144
44.700000 0.098041 0.098142
44.750000 0.098014 0.098141
44.800000 0.097991 0.098140
44.850000 0.097971 0.098138
44.900000 0.097956 0.098137
44.950000 0.097944 0.098136
45.000000 0.097937 0.098135
45.050000 0.097935 0.098133
45.100000 0.097937 0.098132
45.150000 0.097943 0.098131
45.200000 0.097953 0.098130
45.250000 0.097967 0.098128
45.300000 0.097984 0.098127
45.350000 0.098004 0.098126
45.400000 0.098027 0.098125
45.450000 0.098051 0.098124
45.500000 0.098076 0.098123
45.550000 0.098101 0.098122
45.600000 0.098127 0.098120
45.650000 0.098152 0.098119
45.700000 0.098176 0.098118
45.750000 0.098198 0.098117
45.800000 0.098217 0.098116
45.850000 0.098234 0.098115
45.900000 0.098249 0.098114
45.950000 0.098259 0.098113
46.000000 0.098267 0.098112
46.050000 0.098271 0.098111
46.100000 0.098271 0.098110
46.150000 0.098268 0.098109
46.200000 0.098261 0.098108
46.250000 0.098251 0.098108
46.300000 0.098238 0.098107
46.350000 0.098223 0.098106
46.400000 0.098205 0.098105
46.450000 0.098185 0.098104
46.500000 0.098164 0.098103
46.550000 0.098142 0.098102
46.600000 0.098120 0.098101
46.650000 0.098097 0.098101
46.700000 0.098075 0.098100
46.750000 0.098054 0.098099
46.800000 0.098035 0.098098
46.850000 0.098017 0.098097
46.900000 0.098001 0.098097
46.950000 0.097988 0.098096
47.000000 0.097977 0.098095
47.050000 0.097969 0.098094
47.100000 0.097965 0.098094
47.150000 0.097963 0.098093
47.200000 0.097963 0.098092
47.250000 0.097967 0.098091
47.300000 0.097974 0.098091
47.350000 0.097982 0.098090
47.400000 0.097993 0.098089
47.450000 0.098006 0.098089
47.500000 0.098021 0.098088
47.550000 0.098037 0.098087
47.600000 0.098053 0.098087
47.650000 0.098070 0.098086
47.700000 0.098087 0.098085
47.750000 0.098103 0.098085
47.800000 0.098119 0.098084
47.850000 0.098134 0.098084
47.900000 0.098147 0.098083
47.950000 0.098159 0.098082
48.000000 0.098168 0.098082
48.050000 0.098176 0.098081
48.100000 0.098181 0.098081
48.150000 0.098184 0.098080
48.200000 0.098185 0.098080
48.250000 0.098183 0.098079
48.300000 0.098179 0.098078
48.350000 0.098173 0.098078
48.400000 0.098165 0.098077
48.450000 0.098155 0.098077
48.500000 0.098144 0.098076
48.550000 0.098131 0.098076
48.600000 0.098118 0.098075
48.650000 0.098103 0.098075
48.700000 0.098089 0.098074
48.750000 0.098074 0.098074
48.800000 0.098059 0.098073
48.850000 0.098046 0.098073
48.900000 0.098033 0.098072
48.950000 0.098021 0.098072
49.000000 0.098010 0.098072
49.050000 0.098001 0.098071
49.100000 0.097994 0.098071
49.150000 0.097989 0.098070
49.200000 0.097985 0.098070
49.250000 0.097984 0.098069
49.300000 0.097984 0.098069
49.350000 0.097986 0.098069
49.400000 0.097990 0.098068
49.450000 0.097996 0.098068
49.500000 0.098003 0.098067
49.550000 0.098011 0.098067
49.600000 0.098021 0.098067
49.650000 0.098031 0.098066
49.700000 0.098042 0.098066
49.750000 0.098053 0.098065
49.800000 0.098064 0.098065
49.850000 0.098075 0.098065
49.900000 0.098086 0.098064
49.950000 0.098095 0.098064
50.000000 0.098104 0.098064
50.050000 0.098112 0.098063
50.100000 0.098119 0.098063
50.150000 0.098124 0.098063
50.200000 0.098128 0.098062
50.250000 0.098130 0.098062
50.300000 0.098131 0.098062
50.350000 0.098130 0.098061
50.400000 0.098128 0.098061
50.450000 0.098124 0.098061
50.500000 0.098119 0.098060
50.550000 0.098113 0.098060
50.600000 0.098105 0.098060
50.650000 0.098097 0.098059
50.700000 0.098088 0.098059
50.750000 0.098079 0.098059
50.800000 0.098069 0.098059
50.850000 0.098060 0.098058
50.900000 0.098050 0.098058
50.950000 0.098041 0.098058
51.000000 0.098033 0.098058
51.050000 0.098025 0.098057
51.100000 0.098018 0.098057
51.150000 0.098012 0.098057
51.200000 0.098007 0.098056
51.250000 0.098003 0.098056
51.300000 0.098001 0.098056
51.350000 0.098000 0.098056
51.400000 0.098000 0.098055
51.450000 0.098001 0.098055
51.500000 0.098003 0.098055
51.550000 0.098007 0.098055
51.600000 0.098012 0.098055
51.650000 0.098017 0.098054
51.700000 0.098023 0.098054
51.750000 0.098030 0.098054
51.800000 0.098037 0.098054
51.850000 0.098044 0.098053
51.900000 0.098051 0.098053
51.950000 0.098059 0.098053
52.000000 0.098066 0.098053
52.050000 0.098072 0.098053
52.100000 0.098078 0.098052
52.150000 0.098084 0.098052
52.200000 0.098088 0.098052
52.250000 0.098092 0.098052
52.300000 0.098094 0.098052
52.350000 0.098096 0.098051
52.400000 0.098097 0.098051
52.450000 0.098096 0.098051
52.500000 0.098095 0.098051
52.550000 0.098093 0.098051
52.600000 0.098089 0.098051
52.650000 0.098086 0.098050
52.700000 0.098081 0.098050
52.750000 0.098076 0.098050
52.800000 0.098070 0.098050
52.850000 0.098064 0.098050
52.900000 0.098058 0.098049
52.950000 0.098051 0.098049
53.000000 0.098045 0.098049
53.050000 0.098039 0.098049
53.100000 0.098033 0.098049
53.150000 0.098028 0.098049
53.200000 0.098024 0.098049
53.250000 0.098019 0.098048
53.300000 0.098016 0.098048
53.350000 0.098014 0.098048
53.400000 0.098012 0.098048
53.450000 0.098011 0.098048
53.500000 0.098011 0.098048
53.550000 0.098012 0.098048
53.600000 0.098013 0.098047
53.650000 0.098015 0.098047
53.700000 0.098018 0.098047
53.750000 0.098022 0.098047
53.800000 0.098026 0.098047
53.850000 0.098030 0.098047
53.900000 0.098035 0.098047
53.950000 0.098040 0.098046
54.000000 0.098044 0.098046
54.050000 0.098049 0.098046
54.100000 0.098054 0.098046
54.150000 0.098058 0.098046
54.200000 0.098062 0.098046
54.250000 0.098066 0.098046
54.300000 0.098069 0.098046
54.350000 0.098071 0.098046
54.400000 0.098073 0.098045
54.450000 0.098074 0.098045
54.500000 0.098075 0.098045
54.550000 0.098075 0.098045
54.600000 0.098074 0.098045
54.650000 0.098073 0.098045
54.700000 0.098071 0.098045
54.750000 0.098068 0.098045
54.800000 0.098065 0.098045
54.850000 0.098062 0.098044
54.900000 0.098058 0.098044
54.950000 0.098054 0.098044
55.000000 0.098050 0.098044
55.050000 0.098046 0.098044
55.100000 0.098042 0.098044
55.150000 0.098038 0.098044
55.200000 0.098034 0.098044
55.250000 0.098031 0.098044
55.300000 0.098028 0.098044
55.350000 0.098025 0.098044
55.400000 0.098023 0.098043
55.450000 0.098021 0.098043
55.500000 0.098020 0.098043
55.550000 0.098019 0.098043
55.600000 0.098019 0.098043
55.650000 0.098019 0.098043
55.700000 0.098020 0.098043
55.750000 0.098022 0.098043
55.800000 0.098024 0.098043
55.850000 0.098026 0.098043
55.900000 0.098028 0.098043
55.950000 0.098031 0.098043
56.000000 0.098034 0.098042
56.050000 0.098037 0.098042
56.100000 0.098041 0.098042
56.150000 0.098044 0.098042
56.200000 0.098047 0.098042
56.250000 0.098050 0.098042
56.300000 0.098052 0.098042
56.350000 0.098055 0.098042
56.400000 0.098057 0.098042
56.450000 0.098059 0.098042
56.500000 0.098060 0.098042
56.550000 0.098061 0.098042
56.600000 0.098061 0.098042
56.650000 0.098061 0.098042
56.700000 0.098061 0.098042
56.750000 0.098060 0.098041
56.800000 0.098059 0.098041
56.850000 0.098057 0.098041
56.900000 0.098055 0.098041
56.950000 0.098053 0.098041
57.000000 0.098051 0.098041
57.050000 0.098048 0.098041
57.100000 0.098045 0.098041
57.150000 0.098043 0.098041
57.200000 0.098040 0.098041
57.250000 0.098037 0.098041
57.300000 0.098035 0.098041
57.350000 0.098033 0.098041
57.400000 0.098031 0.098041
57.450000 0.098029 0.098041
57.500000 0.098027 0.098041
57.550000 0.098026 0.098041
57.600000 0.098025 0.098041
57.650000 0.098025 0.098041
57.700000 0.098025 0.098040
57.750000 0.098025 0.098040
57.800000 0.098025 0.098040
57.850000 0.098026 0.098040
57.900000 0.098027 0.098040
57.950000 0.098029 0.098040
58.000000 0.098031 0.098040
58.050000 0.098032 0.098040
58.100000 0.098034 0.098040
58.150000 0.098036 0.098040
58.200000 0.098038 0.098040
58.250000 0.098041 0.098040
58.300000 0.098043 0.098040
58.350000 0.098045 0.098040
58.400000 0.098046 0.098040
58.450000 0.098048 0.098040
58.500000 0.098049 0.098040
58.550000 0.098051 0.098040
58.600000 0.098051 0.098040
58.650000 0.098052 0.098040
58.700000 0.098052 0.098040
58.750000 0.098052 0.098040
58.800000 0.098052 0.098040
58.850000 0.098052 0.098040
58.900000 0.098051 0.098039
58.950000 0.098050 0.098039
59.000000 0.098049 0.098039
59.050000 0.098047 0.098039
59.100000 0.098046 0.098039
59.150000 0.098044 0.098039
59.200000 0.098042 0.098039
59.250000 0.098041 0.098039
59.300000 0.098039 0.098039
59.350000 0.098037 0.098039
59.400000 0.098036 0.098039
59.450000 0.098034 0.098039
59.500000 0.098033 0.098039
59.550000 0.098031 0.098039
59.600000 0.098030 0.098039
59.650000 0.098030 0.098039
59.700000 0.098029 0.098039
59.750000 0.098029 0.098039
59.800000 0.098029 0.098039
59.850000 0.098029 0.098039
59.900000 0.098029 0.098039
59.950000 0.098030 0.098039
60.000000 0.098030 0.098039
60.050000 0.098031 0.098039
60.100000 0.098032 0.098039
60.150000 0.098033 0.098039
60.200000 0.098035 0.098039
60.250000 0.098036 0.098039
60.300000 0.098037 0.098039
60.350000 0.098039 0.098039
60.400000 0.098040 0.098039
60.450000 0.098041 0.098039
60.500000 0.098043 0.098039
60.550000 0.098044 0.098039
60.600000 0.098045 0.098039
60.650000 0.098045 0.098039
60.700000 0.098046 0.098038
60.750000 0.098047 0.098038
60.800000 0.098047 0.098038
60.850000 0.098047 0.098038
60.900000 0.098047 0.098038
60.950000 0.098046 0.098038
61.000000 0.098046 0.098038
61.050000 0.098045 0.098038
61.100000 0.098045 0.098038
61.150000 0.098044 0.098038
61.200000 0.098043 0.098038
61.250000 0.098042 0.098038
61.300000 0.098040 0.098038
61.350000 0.098039 0.098038
61.400000 0.098038 0.098038
61.450000 0.098037 0.098038
61.500000 0.098036 0.098038
61.550000 0.098035 0.098038
61.600000 0.098034 0.098038
61.650000 0.098033 0.098038
61.700000 0.098033 0.098038
61.750000 0.098032 0.098038
61.800000 0.098032 0.098038
61.850000 0.098031 0.098038
61.900000 0.098031 0.098038
61.950000 0.098031 0.098038
62.000000 0.098031 0.098038
62.050000 0.098032 0.098038
62.100000 0.098032 0.098038
62.150000 0.098033 0.098038
62.200000 0.098034 0.098038
62.250000 0.098034 0.098038
62.300000 0.098035 0.098038
62.350000 0.098036 0.098038
62.400000 0.098037 0.098038
62.450000 0.098038 0.098038
62.500000 0.098039 0.098038
62.550000 0.098040 0.098038
62.600000 0.098040 0.098038
62.650000 0.098041 0.098038
62.700000 0.098042 0.098038
62.750000 0.098042 0.098038
62.800000 0.098043 0.098038
62.850000 0.098043 0.098038
62.900000 0.098043 0.098038
62.950000 0.098043 0.098038
63.000000 0.098043 0.098038
63.050000 0.098043 0.098038
63.100000 0.098043 0.098038
63.150000 0.098042 0.098038
63.200000 0.098042 0.098038
63.250000 0.098041 0.098038
63.300000 0.098041 0.098038
63.350000 0.098040 0.098038
63.400000 0.098039 0.098038
63.450000 0.098038 0.098038
63.500000 0.098038 0.098038
63.550000 0.098037 0.098038
63.600000 0.098036 0.098038
63.650000 0.098036 0.098038
63.700000 0.098035 0.098038
63.750000 0.098034 0.098038
63.800000 0.098034 0.098038
63.850000 0.098034 0.098038
63.900000 0.098033 0.098038
63.950000 0.098033 0.098038
64.000000 0.098033 0.098038
64.050000 0.098033 0.098037
64.100000 0.098033 0.098037
64.150000 0.098033 0.098037
64.200000 0.098034 0.098037
64.250000 0.098034 0.098037
64.300000 0.098034 0.098037
64.350000 0.098035 0.098037
64.400000 0.098036 0.098037
64.450000 0.098036 0.098037
64.500000 0.098037 0.098037
64.550000 0.098037 0.098037
64.600000 0.098038 0.098037
64.650000 0.098038 0.098037
64.700000 0.098039 0.098037
64.750000 0.098039 0.098037
64.800000 0.098040 0.098037
64.850000 0.098040 0.098037
64.900000 0.098041 0.098037
64.950000 0.098041 0.098037
65.000000 0.098041 0.098037
65.050000 0.098041 0.098037
65.100000 0.098041 0.098037
65.150000 0.098041 0.098037
65.200000 0.098041 0.098037
65.250000 0.098040 0.098037
65.300000 0.098040 0.098037
65.350000 0.098040 0.098037
65.400000 0.098039 0.098037
65.450000 0.098039 0.098037
65.500000 0.098038 0.098037
65.550000 0.098038 0.098037
65.600000 0.098037 0.098037
65.650000 0.098037 0.098037
65.700000 0.098036 0.098037
65.750000 0.098036 0.098037
65.800000 0.098036 0.098037
65.850000 0.098035 0.098037
65.900000 0.098035 0.098037
65.950000 0.098035 0.098037
66.000000 0.098034 0.098037
66.050000 0.098034 0.098037
66.100000 0.098034 0.098037
66.150000 0.098034 0.098037
66.200000 0.098034 0.098037
66.250000 0.098034 0.098037
66.300000 0.098035 0.098037
66.350000 0.098035 0.098037
66.400000 0.098035 0.098037
66.450000 0.098035 0.098037
66.500000 0.098036 0.098037
66.550000 0.098036 0.098037
66.600000 0.098037 0.098037
66.650000 0.098037 0.098037
66.700000 0.098037 0.098037
66.750000 0.098038 0.098037
66.800000 0.098038 0.098037
66.850000 0.098038 0.098037
66.900000 0.098039 0.098037
66.950000 0.098039 0.098037
67.000000 0.098039 0.098037
67.050000 0.098039 0.098037
67.100000 0.098039 0.098037
67.150000 0.098039 0.098037
67.200000 0.098039 0.098037
67.250000 0.098039 0.098037
67.300000 0.098039 0.098037
67.350000 0.098039 0.098037
67.400000 0.098039 0.098037
67.450000 0.098039 0.098037
67.500000 0.098038 0.098037
67.550000 0.098038 0.098037
67.600000 0.098038 0.098037
67.650000 0.098038 0.098037
67.700000 0.098037 0.098037
67.750000 0.098037 0.098037
67.800000 0.098037 0.098037
67.850000 0.098036 0.098037
67.900000 0.098036 0.098037
67.950000 0.098036 0.098037
68.000000 0.098036 0.098037
68.050000 0.098035 0.098037
68.100000 0.098035 0.098037
68.150000 0.098035 0.098037
68.200000 0.098035 0.098037
68.250000 0.098035 0.098037
68.300000 0.098035 0.098037
68.350000 0.098035 0.098037
68.400000 0.098035 0.098037
68.450000 0.098035 0.098037
68.500000 0.098036 0.098037
68.550000 0.098036 0.098037
68.600000 0.098036 0.098037
68.650000 0.098036 0.098037
68.700000 0.098037 0.098037
68.750000 0.098037 0.098037
68.800000 0.098037 0.098037
68.850000 0.098037 0.098037
68.900000 0.098038 0.098037
68.950000 0.098038 0.098037
69.000000 0.098038 0.098037
69.050000 0.098038 0.098037
69.100000 0.098038 0.098037
69.150000 0.098038 0.098037
69.200000 0.098038 0.098037
69.250000 0.098039 0.098037
69.300000 0.098039 0.098037
69.350000 0.098038 0.098037
69.400000 0.098038 0.098037
69.450000 0.098038 0.098037
69.500000 0.098038 0.098037
69.550000 0.098038 0.098037
69.600000 0.098038 0.098037
69.650000 0.098038 0.098037
69.700000 0.098037 0.098037
69.750000 0.098037 0.098037
69.800000 0.098037 0.098037
69.850000 0.098037 0.098037
69.900000 0.098037 0.098037
69.950000 0.098036 0.098037
70.000000 0.098036 0.098037
70.050000 0.098036 0.098037
70.100000 0.098036 0.098037
70.150000 0.098036 0.098037
70.200000 0.098036 0.098037
70.250000 0.098036 0.098037
70.300000 0.098036 0.098037
70.350000 0.098036 0.098037
70.400000 0.098036 0.098037
70.450000 0.098036 0.098037
70.500000 0.098036 0.098037
70.550000 0.098036 0.098037
70.600000 0.098036 0.098037
70.650000 0.098036 0.098037
70.700000 0.098036 0.098037
70.750000 0.098036 0.098037
70.800000 0.098037 0.098037
70.850000 0.098037 0.098037
70.900000 0.098037 0.098037
70.950000 0.098037 0.098037
71.000000 0.098037 0.098037
71.050000 0.098037 0.098037
71.100000 0.098038 0.098037
71.150000 0.098038 0.098037
71.200000 0.098038 0.098037
71.250000 0.098038 0.098037
71.300000 0.098038 0.098037
71.350000 0.098038 0.098037
71.400000 0.098038 0.098037
71.450000 0.098038 0.098037
71.500000 0.098038 0.098037
71.550000 0.098038 0.098037
71.600000 0.098038 0.098037
71.650000 0.098038 0.098037
71.700000 0.098038 0.098037
71.750000 0.098037 0.098037
71.800000 0.098037 0.098037
71.850000 0.098037 0.098037
71.900000 0.098037 0.098037
71.950000 0.098037 0.098037
72.000000 0.098037 0.098037
72.050000 0.098037 0.098037
72.100000 0.098036 0.098037
72.150000 0.098036 0.098037
72.200000 0.098036 0.098037
72.250000 0.098036 0.098037
72.300000 0.098036 0.098037
72.350000 0.098036 0.098037
72.400000 0.098036 0.098037
72.450000 0.098036 0.098037
72.500000 0.098036 0.098037
72.550000 0.098036 0.098037
72.600000 0.098036 0.098037
72.650000 0.098036 0.098037
72.700000 0.098036 0.098037
72.750000 0.098036 0.098037
72.800000 0.098036 0.098037
72.850000 0.098037 0.098037
72.900000 0.098037 0.098037
72.950000 0.098037 0.098037
73.000000 0.098037 0.098037
73.050000 0.098037 0.098037
73.100000 0.098037 0.098037
73.150000 0.098037 0.098037
73.200000 0.098037 0.098037
73.250000 0.098037 0.098037
73.300000 0.098037 0.098037
73.350000 0.098037 0.098037
73.400000 0.098037 0.098037
73.450000 0.098038 0.098037
73.500000 0.098038 0.098037
73.550000 0.098037 0.098037
73.600000 0.098037 0.098037
73.650000 0.098037 0.098037
73.700000 0.098037 0.098037
73.750000 0.098037 0.098037
73.800000 0.098037 0.098037
73.850000 0.098037 0.098037
73.900000 0.098037 0.098037
73.950000 0.098037 0.098037
74.000000 0.098037 0.098037
74.050000 0.098037 0.098037
74.100000 0.098037 0.098037
74.150000 0.098037 0.098037
74.200000 0.098037 0.098037
74.250000 0.098036 0.098037
74.300000 0.098036 0.098037
74.350000 0.098036 0.098037
74.400000 0.098036 0.098037
74.450000 0.098036 0.098037
74.500000 0.098036 0.098037
74.550000 0.098036 0.098037
74.600000 0.098036 0.098037
74.650000 0.098036 0.098037
74.700000 0.098036 0.098037
74.750000 0.098036 0.098037
74.800000 0.098036 0.098037
74.850000 0.098036 0.098037
74.900000 0.098037 0.098037
74.950000 0.098037 0.098037
75.000000 0.098037 0.098037
75.050000 0.098037 0.098037
75.100000 0.098037 0.098037
75.150000 0.098037 0.098037
75.200000 0.098037 0.098037
75.250000 0.098037 0.098037
75.300000 0.098037 0.098037
75.350000 0.098037 0.098037
75.400000 0.098037 0.098037
75.450000 0.098037 0.098037
75.500000 0.098037 0.098037
75.550000 0.098037 0.098037
75.600000 0.098037 0.098037
75.650000 0.098037 0.098037
75.700000 0.098037 0.098037
75.750000 0.098037 0.098037
75.800000 0.098037 0.098037
75.850000 0.098037 0.098037
75.900000 0.098037 0.098037
75.950000 0.098037 0.098037
76.000000 0.098037 0.098037
76.050000 0.098037 0.098037
76.100000 0.098037 0.098037
76.150000 0.098037 0.098037
76.200000 0.098037 0.098037
76.250000 0.098037 0.098037
76.300000 0.098037 0.098037
76.350000 0.098037 0.098037
76.400000 0.098037 0.098037
76.450000 0.098037 0.098037
76.500000 0.098036 0.098037
76.550000 0.098036 0.098037
76.600000 0.098036 0.098037
76.650000 0.098036 0.098037
76.700000 0.098036 0.098037
76.750000 0.098036 0.098037
76.800000 0.098036 0.098037
76.850000 0.098036 0.098037
76.900000 0.098037 0.098037
76.950000 0.098037 0.098037
77.000000 0.098037 0.098037
77.050000 0.098037 0.098037
77.100000 0.098037 0.098037
77.150000 0.098037 0.098037
77.200000 0.098037 0.098037
77.250000 0.098037 0.098037
77.300000 0.098037 0.098037
77.350000 0.098037 0.098037
77.400000 0.098037 0.098037
77.450000 0.098037 0.098037
77.500000 0.098037 0.098037
77.550000 0.098037 0.098037
77.600000 0.098037 0.098037
77.650000 0.098037 0.098037
77.700000 0.098037 0.098037
77.750000 0.098037 0.098037
77.800000 0.098037 0.098037
77.850000 0.098037 0.098037
77.900000 0.098037 0.098037
77.950000 0.098037 0.098037
78.000000 0.098037 0.098037
78.050000 0.098037 0.098037
78.100000 0.098037 0.098037
78.150000 0.098037 0.098037
78.200000 0.098037 0.098037
78.250000 0.098037 0.098037
78.300000 0.098037 0.098037
78.350000 0.098037 0.098037
78.400000 0.098037 0.098037
78.450000 0.098037 0.098037
78.500000 0.098037 0.098037
78.550000 0.098037 0.098037
78.600000 0.098037 0.098037
78.650000 0.098037 0.098037
78.700000 0.098037 0.098037
78.750000 0.098037 0.098037
78.800000 0.098037 0.098037
78.850000 0.098037 0.098037
78.900000 0.098037 0.098037
78.950000 0.098037 0.098037
79.000000 0.098037 0.098037
79.050000 0.098037 0.098037
79.100000 0.098037 0.098037
79.150000 0.098037 0.098037
79.200000 0.098037 0.098037
79.250000 0.098037 0.098037
79.300000 0.098037 0.098037
79.350000 0.098037 0.098037
79.400000 0.098037 0.098037
79.450000 0.098037 0.098037
79.500000 0.098037 0.098037
79.550000 0.098037 0.098037
79.600000 0.098037 0.098037
79.650000 0.098037 0.098037
79.700000 0.098037 0.098037
79.750000 0.098037 0.098037
79.800000 0.098037 0.098037
79.850000 0.098037 0.098037
79.900000 0.098037 0.098037
79.950000 0.098037 0.098037
80.000000 0.098037 0.098037
80.050000 0.098037 0.098037
80.100000 0.098037 0.098037
80.150000 0.098037 0.098037
80.200000 0.098037 0.098037
80.250000 0.098037 0.098037
80.300000 0.098037 0.098037
80.350000 0.098037 0.098037
80.400000 0.098037 0.098037
80.450000 0.098037 0.098037
80.500000 0.098037 0.098037
80.550000 0.098037 0.098037
80.600000 0.098037 0.098037
80.650000 0.098037 0.098037
80.700000 0.098037 0.098037
80.750000 0.098037 0.098037
80.800000 0.098037 0.098037
80.850000 0.098037 0.098037
80.900000 0.098037 0.098037
80.950000 0.098037 0.098037
81.000000 0.098037 0.098037
81.050000 0.098037 0.098037
81.100000 0.098037 0.098037
81.150000 0.098037 0.098037
81.200000 0.098037 0.098037
81.250000 0.098037 0.098037
81.300000 0.098037 0.098037
81.350000 0.098037 0.098037
81.400000 0.098037 0.098037
81.450000 0.098037 0.098037
81.500000 0.098037 0.098037
81.550000 0.098037 0.098037
81.600000 0.098037 0.098037
81.650000 0.098037 0.098037
81.700000 0.098037 0.098037
81.750000 0.098037 0.098037
81.800000 0.098037 0.098037
81.850000 0.098037 0.098037
81.900000 0.098037 0.098037
81.950000 0.098037 0.098037
82.000000 0.098037 0.098037
82.050000 0.098037 0.098037
82.100000 0.098037 0.098037
82.150000 0.098037 0.098037
82.200000 0.098037 0.098037
82.250000 0.098037 0.098037
82.300000 0.098037 0.098037
82.350000 0.098037 0.098037
82.400000 0.098037 0.098037
82.450000 0.098037 0.098037
82.500000 0.098037 0.098037
82.550000 0.098037 0.098037
82.600000 0.098037 0.098037
82.650000 0.098037 0.098037
82.700000 0.098037 0.098037
82.750000 0.098037 0.098037
82.800000 0.098037 0.098037
82.850000 0.098037 0.098037
82.900000 0.098037 0.098037
82.950000 0.098037 0.098037
83.000000 0.098037 0.098037
83.050000 0.098037 0.098037
83.100000 0.098037 0.098037
83.150000 0.098037 0.098037
83.200000 0.098037 0.098037
83.250000 0.098037 0.098037
83.300000 0.098037 0.098037
83.350000 0.098037 0.098037
83.400000 0.098037 0.098037
83.450000 0.098037 0.098037
83.500000 0.098037 0.098037
83.550000 0.098037 0.098037
83.600000 0.098037 0.098037
83.650000 0.098037 0.098037
83.700000 0.098037 0.098037
83.750000 0.098037 0.098037
83.800000 0.098037 0.098037
83.850000 0.098037 0.098037
83.900000 0.098037 0.098037
83.950000 0.098037 0.098037
84.000000 0.098037 0.098037
84.050000 0.098037 0.098037
84.100000 0.098037 0.098037
84.150000 0.098037 0.098037
84.200000 0.098037 0.098037
84.250000 0.098037 0.098037
84.300000 0.098037 0.098037
84.350000 0.098037 0.098037
84.400000 0.098037 0.098037
84.450000 0.098037 0.098037
84.500000 0.098037 0.098037
84.550000 0.098037 0.098037
84.600000 0.098037 0.098037
84.650000 0.098037 0.098037
84.700000 0.098037 0.098037
84.750000 0.098037 0.098037
84.800000 0.098037 0.098037
84.850000 0.098037 0.098037
84.900000 0.098037 0.098037
84.950000 0.098037 0.098037
85.000000 0.098037 0.098037
85.050000 0.098037 0.098037
85.100000 0.098037 0.098037
85.150000 0.098037 0.098037
85.200000 0.098037 0.098037
85.250000 0.098037 0.098037
85.300000 0.098037 0.098037
85.350000 0.098037 0.098037
85.400000 0.098037 0.098037
85.450000 0.098037 0.098037
85.500000 0.098037 0.098037
85.550000 0.098037 0.098037
85.600000 0.098037 0.098037
85.650000 0.098037 0.098037
85.700000 0.098037 0.098037
85.750000 0.098037 0.098037
85.800000 0.098037 0.098037
85.850000 0.098037 0.098037
85.900000 0.098037 0.098037
85.950000 0.098037 0.098037
86.000000 0.098037 0.098037
86.050000 0.098037 0.098037
86.100000 0.098037 0.098037
86.150000 0.098037 0.098037
86.200000 0.098037 0.098037
86.250000 0.098037 0.098037
86.300000 0.098037 0.098037
86.350000 0.098037 0.098037
86.400000 0.098037 0.098037
86.450000 0.098037 0.098037
86.500000 0.098037 0.098037
86.550000 0.098037 0.098037
86.600000 0.098037 0.098037
86.650000 0.098037 0.098037
86.700000 0.098037 0.098037
86.750000 0.098037 0.098037
86.800000 0.098037 0.098037
86.850000 0.098037 0.098037
86.900000 0.098037 0.098037
86.950000 0.098037 0.098037
87.000000 0.098037 0.098037
87.050000 0.098037 0.098037
87.100000 0.098037 0.098037
87.150000 0.098037 0.098037
87.200000 0.098037 0.098037
87.250000 0.098037 0.098037
87.300000 0.098037 0.098037
87.350000 0.098037 0.098037
87.400000 0.098037 0.098037
87.450000 0.098037 0.098037
87.500000 0.098037 0.098037
87.550000 0.098037 0.098037
87.600000 0.098037 0.098037
87.650000 0.098037 0.098037
87.700000 0.098037 0.098037
87.750000 0.098037 0.098037
87.800000 0.098037 0.098037
87.850000 0.098037 0.098037
87.900000 0.098037 0.098037
87.950000 0.098037 0.098037
88.000000 0.098037 0.098037
88.050000 0.098037 0.098037
88.100000 0.098037 0.098037
88.150000 0.098037 0.098037
88.200000 0.098037 0.098037
88.250000 0.098037 0.098037
88.300000 0.098037 0.098037
88.350000 0.098037 0.098037
88.400000 0.098037 0.098037
88.450000 0.098037 0.098037
88.500000 0.098037 0.098037
88.550000 0.098037 0.098037
88.600000 0.098037 0.098037
88.650000 0.098037 0.098037
88.700000 0.098037 0.098037
88.750000 0.098037 0.098037
88.800000 0.098037 0.098037
88.850000 0.098037 0.098037
88.900000 0.098037 0.098037
88.950000 0.098037 0.098037
89.000000 0.098037 0.098037
89.050000 0.098037 0.098037
89.100000 0.098037 0.098037
89.150000 0.098037 0.098037
89.200000 0.098037 0.098037
89.250000 0.098037 0.098037
89.300000 0.098037 0.098037
89.350000 0.098037 0.098037
89.400000 0.098037 0.098037
89.450000 0.098037 0.098037
89.500000 0.098037 0.098037
89.550000 0.098037 0.098037
89.600000 0.098037 0.098037
89.650000 0.098037 0.098037
89.700000 0.098037 0.098037
89.750000 0.098037 0.098037
89.800000 0.098037 0.098037
89.850000 0.098037 0.098037
89.900000 0.098037 0.098037
89.950000 0.098037 0.098037
90.000000 0.098037 0.098037
90.050000 0.098037 0.098037
90.100000 0.098037 0.098037
90.150000 0.098037 0.098037
90.200000 0.098037 0.098037
90.250000 0.098037 0.098037
90.300000 0.098037 0.098037
90.350000 0.098037 0.098037
90.400000 0.098037 0.098037
90.450000 0.098037 0.098037
90.500000 0.098037 0.098037
90.550000 0.098037 0.098037
90.600000 0.098037 0.098037
90.650000 0.098037 0.098037
90.700000 0.098037 0.098037
90.750000 0.098037 0.098037
90.800000 0.098037 0.098037
90.850000 0.098037 0.098037
90.900000 0.098037 0.098037
90.950000 0.098037 0.098037
91.000000 0.098037 0.098037
91.050000 0.098037 0.098037
91.100000 0.098037 0.098037
91.150000 0.098037 0.098037
91.200000 0.098037 0.098037
91.250000 0.098037 0.098037
91.300000 0.098037 0.098037
91.350000 0.098037 0.098037
91.400000 0.098037 0.098037
91.450000 0.098037 0.098037
91.500000 0.098037 0.098037
91.550000 0.098037 0.098037
91.600000 0.098037 0.098037
91.650000 0.098037 0.098037
91.700000 0.098037 0.098037
91.750000 0.098037 0.098037
91.800000 0.098037 0.098037
91.850000 0.098037 0.098037
91.900000 0.098037 0.098037
91.950000 0.098037 0.098037
92.000000 0.098037 0.098037
92.050000 0.098037 0.098037
92.100000 0.098037 0.098037
92.150000 0.098037 0.098037
92.200000 0.098037 0.098037
92.250000 0.098037 0.098037
92.300000 0.098037 0.098037
92.350000 0.098037 0.098037
92.400000 0.098037 0.098037
92.450000 0.098037 0.098037
92.500000 0.098037 0.098037
92.550000 0.098037 0.098037
92.600000 0.098037 0.098037
92.650000 0.098037 0.098037
92.700000 0.098037 0.098037
92.750000 0.098037 0.098037
92.800000 0.098037 0.098037
92.850000 0.098037 0.098037
92.900000 0.098037 0.098037
92.950000 0.098037 0.098037
93.000000 0.098037 0.098037
93.050000 0.098037 0.098037
93.100000 0.098037 0.098037
93.150000 0.098037 0.098037
93.200000 0.098037 0.098037
93.250000 0.098037 0.098037
93.300000 0.098037 0.098037
93.350000 0.098037 0.098037
93.400000 0.098037 0.098037
93.450000 0.098037 0.098037
93.500000 0.098037 0.098037
93.550000 0.098037 0.098037
93.600000 0.098037 0.098037
93.650000 0.098037 0.098037
93.700000 0.098037 0.098037
93.750000 0.098037 0.098037
93.800000 0.098037 0.098037
93.850000 0.098037 0.098037
93.900000 0.098037 0.098037
93.950000 0.098037 0.098037
94.000000 0.098037 0.098037
94.050000 0.098037 0.098037
94.100000 0.098037 0.098037
94.150000 0.098037 0.098037
94.200000 0.098037 0.098037
94.250000 0.098037 0.098037
94.300000 0.098037 0.098037
94.350000 0.098037 0.098037
94.400000 0.098037 0.098037
94.450000 0.098037 0.098037
94.500000 0.098037 0.098037
94.550000 0.098037 0.098037
94.600000 0.098037 0.098037
94.650000 0.098037 0.098037
94.700000 0.098037 0.098037
94.750000 0.098037 0.098037
94.800000 0.098037 0.098037
94.850000 0.098037 0.098037
94.900000 0.098037 0.098037
94.950000 0.098037 0.098037
95.000000 0.098037 0.098037
95.050000 0.098037 0.098037
95.100000 0.098037 0.098037
95.150000 0.098037 0.098037
95.200000 0.098037 0.098037
95.250000 0.098037 0.098037
95.300000 0.098037 0.098037
95.350000 0.098037 0.098037
95.400000 0.098037 0.098037
95.450000 0.098037 0.098037
95.500000 0.098037 0.098037
95.550000 0.098037 0.098037
95.600000 0.098037 0.098037
95.650000 0.098037 0.098037
95.700000 0.098037 0.098037
95.750000 0.098037 0.098037
95.800000 0.098037 0.098037
95.850000 0.098037 0.098037
95.900000 0.098037 0.098037
95.950000 0.098037 0.098037
96.000000 0.098037 0.098037
96.050000 0.098037 0.098037
96.100000 0.098037 0.098037
96.150000 0.098037 0.098037
96.200000 0.098037 0.098037
96.250000 0.098037 0.098037
96.300000 0.098037 0.098037
96.350000 0.098037 0.098037
96.400000 0.098037 0.098037
96.450000 0.098037 0.098037
96.500000 0.098037 0.098037
96.550000 0.098037 0.098037
96.600000 0.098037 0.098037
96.650000 0.098037 0.098037
96.700000 0.098037 0.098037
96.750000 0.098037 0.098037
96.800000 0.098037 0.098037
96.850000 0.098037 0.098037
96.900000 0.098037 0.098037
96.950000 0.098037 0.098037
97.000000 0.098037 0.098037
97.050000 0.098037 0.098037
97.100000 0.098037 0.098037
97.150000 0.098037 0.098037
97.200000 0.098037 0.098037
97.250000 0.098037 0.098037
97.300000 0.098037 0.098037
97.350000 0.098037 0.098037
97.400000 0.098037 0.098037
97.450000 0.098037 0.098037
97.500000 0.098037 0.098037
97.550000 0.098037 0.098037
97.600000 0.098037 0.098037
97.650000 0.098037 0.098037
97.700000 0.098037 0.098037
97.750000 0.098037 0.098037
97.800000 0.098037 0.098037
97.850000 0.098037 0.098037
97.900000 0.098037 0.098037
97.950000 0.098037 0.098037
98.000000 0.098037 0.098037
98.050000 0.098037 0.098037
98.100000 0.098037 0.098037
98.150000 0.098037 0.098037
98.200000 0.098037 0.098037
98.250000 0.098037 0.098037
98.300000 0.098037 0.098037
98.350000 0.098037 0.098037
98.400000 0.098037 0.098037
98.450000 0.098037 0.098037
98.500000 0.098037 0.098037
98.550000 0.098037 0.098037
98.600000 0.098037 0.098037
98.650000 0.098037 0.098037
98.700000 0.098037 0.098037
98.750000 0.098037 0.098037
98.800000 0.098037 0.098037
98.850000 0.098037 0.098037
98.900000 0.098037 0.098037
98.950000 0.098037 0.098037
99.000000 0.098037 0.098037
99.050000 0.098037 0.098037
99.100000 0.098037 0.098037
99.150000 0.098037 0.098037
99.200000 0.098037 0.098037
99.250000 0.098037 0.098037
99.300000 0.098037 0.098037
99.350000 0.098037 0.098037
99.400000 0.098037 0.098037
99.450000 0.098037 0.098037
99.500000 0.098037 0.098037
99.550000 0.098037 0.098037
99.600000 0.098037 0.098037
99.650000 0.098037 0.098037
99.700000 0.098037 0.098037
99.750000 0.098037 0.098037
99.800000 0.098037 0.098037
99.850000 0.098037 0.098037
99.900000 0.098037 0.098037
99.950000 0.098037 0.098037
100.000000 0.098037 0.098037
100.050000 0.098037 0.098037
100.100000 0.098037 0.098037
100.150000 0.098037 0.098037
100.200000 0.098037 0.098037
100.250000 0.098037 0.098037
100.300000 0.098037 0.098037
100.350000 0.098037 0.098037
100.400000 0.098037 0.098037
100.450000 0.098037 0.098037
100.500000 0.098037 0.098037
100.550000 0.098037 0.098037
100.600000 0.098037 0.098037
100.650000 0.098037 0.098037
100.700000 0.098037 0.098037
100.750000 0.098037 0.098037
100.800000 0.098037 0.098037
100.850000 0.098037 0.098037
100.900000 0.098037 0.098037
100.950000 0.098037 0.098037
101.000000 0.098037 0.098037
101.050000 0.098037 0.098037
101.100000 0.098037 0.098037
101.150000 0.098037 0.098037
101.200000 0.098037 0.098037
101.250000 0.098037 0.098037
101.300000 0.098037 0.098037
101.350000 0.098037 0.098037
101.400000 0.098037 0.098037
101.450000 0.098037 0.098037
101.500000 0.098037 0.098037
101.550000 0.098037 0.098037
101.600000 0.098037 0.098037
101.650000 0.098037 0.098037
101.700000 0.098037 0.098037
101.750000 0.098037 0.098037
101.800000 0.098037 0.098037
101.850000 0.098037 0.098037
101.900000 0.098037 0.098037
101.950000 0.098037 0.098037
102.000000 0.098037 0.098037
102.050000 0.098037 0.098037
102.100000 0.098037 0.098037
102.150000 0.098037 0.098037
102.200000 0.098037 0.098037
102.250000 0.098037 0.098037
102.300000 0.098037 0.098037
102.350000 0.098037 0.098037
102.400000 0.098037 0.098037
102.450000 0.098037 0.098037
102.500000 0.098037 0.098037
102.550000 0.098037 0.098037
102.600000 0.098037 0.098037
102.650000 0.098037 0.098037
102.700000 0.098037 0.098037
102.750000 0.098037 0.098037
102.800000 0.098037 0.098037
102.850000 0.098037 0.098037
102.900000 0.098037 0.098037
102.950000 0.098037 0.098037
103.000000 0.098037 0.098037
103.050000 0.098037 0.098037
103.100000 0.098037 0.098037
103.150000 0.098037 0.098037
103.200000 0.098037 0.098037
103.250000 0.098037 0.098037
103.300000 0.098037 0.098037
103.350000 0.098037 0.098037
103.400000 0.098037 0.098037
103.450000 0.098037 0.098037
103.500000 0.098037 0.098037
103.550000 0.098037 0.098037
103.600000 0.098037 0.098037
103.650000 0.098037 0.098037
103.700000 0.098037 0.098037
103.750000 0.098037 0.098037
103.800000 0.098037 0.098037
103.850000 0.098037 0.098037
103.900000 0.098037 0.098037
103.950000 0.098037 0.098037
104.000000 0.098037 0.098037
104.050000 0.098037 0.098037
104.100000 0.098037 0.098037
104.150000 0.098037 0.098037
104.200000 0.098037 0.098037
104.250000 0.098037 0.098037
104.300000 0.098037 0.098037
104.350000 0.098037 0.098037
104.400000 0.098037 0.098037
104.450000 0.098037 0.098037
104.500000 0.098037 0.098037
104.550000 0.098037 0.098037
104.600000 0.098037 0.098037
104.650000 0.098037 0.098037
104.700000 0.098037 0.098037
104.750000 0.098037 0.098037
104.800000 0.098037 0.098037
104.850000 0.098037 0.098037
104.900000 0.098037 0.098037
104.950000 0.098037 0.098037
105.000000 0.098037 0.098037
105.050000 0.098037 0.098037
105.100000 0.098037 0.098037
105.150000 0.098037 0.098037
105.200000 0.098037 0.098037
105.250000 0.098037 0.098037
105.300000 0.098037 0.098037
105.350000 0.098037 0.098037
105.400000 0.098037 0.098037
105.450000 0.098037 0.098037
105.500000 0.098037 0.098037
105.550000 0.098037 0.098037
105.600000 0.098037 0.098037
105.650000 0.098037 0.098037
105.700000 0.098037 0.098037
105.750000 0.098037 0.098037
105.800000 0.098037 0.098037
105.850000 0.098037 0.098037
105.900000 0.098037 0.098037
105.950000 0.098037 0.098037
106.000000 0.098037 0.098037
106.050000 0.098037 0.098037
106.100000 0.098037 0.098037
106.150000 0.098037 0.098037
106.200000 0.098037 0.098037
106.250000 0.098037 0.098037
106.300000 0.098037 0.098037
106.350000 0.098037 0.098037
106.400000 0.098037 0.098037
106.450000 0.098037 0.098037
106.500000 0.098037 0.098037
106.550000 0.098037 0.098037
106.600000 0.098037 0.098037
106.650000 0.098037 0.098037
106.700000 0.098037 0.098037
106.750000 0.098037 0.098037
106.800000 0.098037 0.098037
106.850000 0.098037 0.098037
106.900000 0.098037 0.098037
106.950000 0.098037 0.098037
107.000000 0.098037 0.098037
107.050000 0.098037 0.098037
107.100000 0.098037 0.098037
107.150000 0.098037 0.098037
107.200000 0.098037 0.098037
107.250000 0.098037 0.098037
107.300000 0.098037 0.098037
107.350000 0.098037 0.098037
107.400000 0.098037 0.098037
107.450000 0.098037 0.098037
107.500000 0.098037 0.098037
107.550000 0.098037 0.098037
107.600000 0.098037 0.098037
107.650000 0.098037 0.098037
107.700000 0.098037 0.098037
107.750000 0.098037 0.098037
107.800000 0.098037 0.098037
107.850000 0.098037 0.098037
107.900000 0.098037 0.098037
107.950000 0.098037 0.098037
108.000000 0.098037 0.098037
108.050000 0.098037 0.098037
108.100000 0.098037 0.098037
108.150000 0.098037 0.098037
108.200000 0.098037 0.098037
108.250000 0.098037 0.098037
108.300000 0.098037 0.098037
108.350000 0.098037 0.098037
108.400000 0.098037 0.098037
108.450000 0.098037 0.098037
108.500000 0.098037 0.098037
108.550000 0.098037 0.098037
108.600000 0.098037 0.098037
108.650000 0.098037 0.098037
108.700000 0.098037 0.098037
108.750000 0.098037 0.098037
108.800000 0.098037 0.098037
108.850000 0.098037 0.098037
108.900000 0.098037 0.098037
108.950000 0.098037 0.098037
109.000000 0.098037 0.098037
109.050000 0.098037 0.098037
109.100000 0.098037 0.098037
109.150000 0.098037 0.098037
109.200000 0.098037 0.098037
109.250000 0.098037 0.098037
109.300000 0.098037 0.098037
109.350000 0.098037 0.098037
109.400000 0.098037 0.098037
109.450000 0.098037 0.098037
109.500000 0.098037 0.098037
109.550000 0.098037 0.098037
109.600000 0.098037 0.098037
109.650000 0.098037 0.098037
109.700000 0.098037 0.098037
109.750000 0.098037 0.098037
109.800000 0.098037 0.098037
109.850000 0.098037 0.098037
109.900000 0.098037 0.098037
109.950000 0.098037 0.098037
110.000000 0.098037 0.098037
110.050000 0.098037 0.098037
110.100000 0.098037 0.098037
110.150000 0.098037 0.098037
110.200000 0.098037 0.098037
110.250000 0.098037 0.098037
110.300000 0.098037 0.098037
110.350000 0.098037 0.098037
110.400000 0.098037 0.098037
110.450000 0.098037 0.098037
110.500000 0.098037 0.098037
110.550000 0.098037 0.098037
110.600000 0.098037 0.098037
110.650000 0.098037 0.098037
110.700000 0.098037 0.098037
110.750000 0.098037 0.098037
110.800000 0.098037 0.098037
110.850000 0.098037 0.098037
110.900000 0.098037 0.098037
110.950000 0.098037 0.098037
111.000000 0.098037 0.098037
111.050000 0.098037 0.098037
111.100000 0.098037 0.098037
111.150000 0.098037 0.098037
111.200000 0.098037 0.098037
111.250000 0.098037 0.098037
111.300000 0.098037 0.098037
111.350000 0.098037 0.098037
111.400000 0.098037 0.098037
111.450000 0.098037 0.098037
111.500000 0.098037 0.098037
111.550000 0.098037 0.098037
111.600000 0.098037 0.098037
111.650000 0.098037 0.098037
111.700000 0.098037 0.098037
111.750000 0.098037 0.098037
111.800000 0.098037 0.098037
111.850000 0.098037 0.098037
111.900000 0.098037 0.098037
111.950000 0.098037 0.098037
112.000000 0.098037 0.098037
112.050000 0.098037 0.098037
112.100000 0.098037 0.098037
112.150000 0.098037 0.098037
112.200000 0.098037 0.098037
112.250000 0.098037 0.098037
112.300000 0.098037 0.098037
112.350000 0.098037 0.098037
112.400000 0.098037 0.098037
112.450000 0.098037 0.098037
112.500000 0.098037 0.098037
112.550000 0.098037 0.098037
112.600000 0.098037 0.098037
112.650000 0.098037 0.098037
112.700000 0.098037 0.098037
112.750000 0.098037 0.098037
112.800000 0.098037 0.098037
112.850000 0.098037 0.098037
112.900000 0.098037 0.098037
112.950000 0.098037 0.098037
113.000000 0.098037 0.098037
113.050000 0.098037 0.098037
113.100000 0.098037 0.098037
113.150000 0.098037 0.098037
113.200000 0.098037 0.098037
113.250000 0.098037 0.098037
113.300000 0.098037 0.098037
113.350000 0.098037 0.098037
113.400000 0.098037 0.098037
113.450000 0.098037 0.098037
113.500000 0.098037 0.098037
113.550000 0.098037 0.098037
113.600000 0.098037 0.098037
113.650000 0.098037 0.098037
113.700000 0.098037 0.098037
113.750000 0.098037 0.098037
113.800000 0.098037 0.098037
113.850000 0.098037 0.098037
113.900000 0.098037 0.098037
113.950000 0.098037 0.098037
114.000000 0.098037 0.098037
114.050000 0.098037 0.098037
114.100000 0.098037 0.098037
114.150000 0.098037 0.098037
114.200000 0.098037 0.098037
114.250000 0.098037 0.098037
114.300000 0.098037 0.098037
114.350000 0.098037 0.098037
114.400000 0.098037 0.098037
114.450000 0.098037 0.098037
114.500000 0.098037 0.098037
114.550000 0.098037 0.098037
114.600000 0.098037 0.098037
114.650000 0.098037 0.098037
114.700000 0.098037 0.098037
114.750000 0.098037 0.098037
114.800000 0.098037 0.098037
114.850000 0.098037 0.098037
114.900000 0.098037 0.098037
114.950000 0.098037 0.098037
115.000000 0.098037 0.098037
115.050000 0.098037 0.098037
115.100000 0.098037 0.098037
115.150000 0.098037 0.098037
115.200000 0.098037 0.098037
115.250000 0.098037 0.098037
115.300000 0.098037 0.098037
115.350000 0.098037 0.098037
115.400000 0.098037 0.098037
115.450000 0.098037 0.098037
115.500000 0.098037 0.098037
115.550000 0.098037 0.098037
115.600000 0.098037 0.098037
115.650000 0.098037 0.098037
115.700000 0.098037 0.098037
115.750000 0.098037 0.098037
115.800000 0.098037 0.098037
115.850000 0.098037 0.098037
115.900000 0.098037 0.098037
115.950000 0.098037 0.098037
116.000000 0.098037 0.098037
116.050000 0.098037 0.098037
116.100000 0.098037 0.098037
116.150000 0.098037 0.098037
116.200000 0.098037 0.098037
116.250000 0.098037 0.098037
116.300000 0.098037 0.098037
116.350000 0.098037 0.098037
116.400000 0.098037 0.098037
116.450000 0.098037 0.098037
116.500000 0.098037 0.098037
116.550000 0.098037 0.098037
116.600000 0.098037 0.098037
116.650000 0.098037 0.098037
116.700000 0.098037 0.098037
116.750000 0.098037 0.098037
116.800000 0.098037 0.098037
116.850000 0.098037 0.098037
116.900000 0.098037 0.098037
116.950000 0.098037 0.098037
117.000000 0.098037 0.098037
117.050000 0.098037 0.098037
117.100000 0.098037 0.098037
117.150000 0.098037 0.098037
117.200000 0.098037 0.098037
117.250000 0.098037 0.098037
117.300000 0.098037 0.098037
117.350000 0.098037 0.098037
117.400000 0.098037 0.098037
117.450000 0.098037 0.098037
117.500000 0.098037 0.098037
117.550000 0.098037 0.098037
117.600000 0.098037 0.098037
117.650000 0.098037 0.098037
117.700000 0.098037 0.098037
117.750000 0.098037 0.098037
117.800000 0.098037 0.098037
117.850000 0.098037 0.098037
117.900000 0.098037 0.098037
117.950000 0.098037 0.098037
118.000000 0.098037 0.098037
118.050000 0.098037 0.098037
118.100000 0.098037 0.098037
118.150000 0.098037 0.098037
118.200000 0.098037 0.098037
118.250000 0.098037 0.098037
118.300000 0.098037 0.098037
118.350000 0.098037 0.098037
118.400000 0.098037 0.098037
118.450000 0.098037 0.098037
118.500000 0.098037 0.098037
118.550000 0.098037 0.098037
118.600000 0.098037 0.098037
118.650000 0.098037 0.098037
118.700000 0.098037 0.098037
118.750000 0.098037 0.098037
118.800000 0.098037 0.098037
118.850000 0.098037 0.098037
118.900000 0.098037 0.098037
118.950000 0.098037 0.098037
119.000000 0.098037 0.098037
119.050000 0.098037 0.098037
119.100000 0.098037 0.098037
119.150000 0.098037 0.098037
119.200000 0.098037 0.098037
119.250000 0.098037 0.098037
119.300000 0.098037 0.098037
119.350000 0.098037 0.098037
119.400000 0.098037 0.098037
119.450000 0.098037 0.098037
119.500000 0.098037 0.098037
119.550000 0.098037 0.098037
119.600000 0.098037 0.098037
119.650000 0.098037 0.098037
119.700000 0.098037 0.098037
119.750000 0.098037 0.098037
119.800000 0.098037 0.098037
119.850000 0.098037 0.098037
119.900000 0.098037 0.098037
119.950000 0.098037 0.098037
120.000000 0.098037 0.098037
120.050000 0.098037 0.098037
120.100000 0.098037 0.098037
120.150000 0.098037 0.098037
120.200000 0.098037 0.098037
120.250000 0.098037 0.098037
120.300000 0.098037 0.098037
120.350000 0.098037 0.098037
120.400000 0.098037 0.098037
120.450000 0.098037 0.098037
120.500000 0.098037 0.098037
120.550000 0.098037 0.098037
120.600000 0.098037 0.098037
120.650000 0.098037 0.098037
120.700000 0.098037 0.098037
120.750000 0.098037 0.098037
120.800000 0.098037 0.098037
120.850000 0.098037 0.098037
120.900000 0.098037 0.098037
120.950000 0.098037 0.098037
121.000000 0.098037 0.098037
121.050000 0.098037 0.098037
121.100000 0.098037 0.098037
121.150000 0.098037 0.098037
121.200000 0.098037 0.098037
121.250000 0.098037 0.098037
121.300000 0.098037 0.098037
121.350000 0.098037 0.098037
121.400000 0.098037 0.098037
121.450000 0.098037 0.098037
121.500000 0.098037 0.098037
121.550000 0.098037 0.098037
121.600000 0.098037 0.098037
121.650000 0.098037 0.098037
121.700000 0.098037 0.098037
121.750000 0.098037 0.098037
121.800000 0.098037 0.098037
121.850000 0.098037 0.098037
121.900000 0.098037 0.098037
121.950000 0.098037 0.098037
122.000000 0.098037 0.098037
122.050000 0.098037 0.098037
122.100000 0.098037 0.098037
122.150000 0.098037 0.098037
122.200000 0.098037 0.098037
122.250000 0.098037 0.098037
122.300000 0.098037 0.098037
122.350000 0.098037 0.098037
122.400000 0.098037 0.098037
122.450000 0.098037 0.098037
122.500000 0.098037 0.098037
122.550000 0.098037 0.098037
122.600000 0.098037 0.098037
122.650000 0.098037 0.098037
122.700000 0.098037 0.098037
122.750000 0.098037 0.098037
122.800000 0.098037 0.098037
122.850000 0.098037 0.098037
122.900000 0.098037 0.098037
122.950000 0.098037 0.098037
123.000000 0.098037 0.098037
123.050000 0.098037 0.098037
123.100000 0.098037 0.098037
123.150000 0.098037 0.098037
123.200000 0.098037 0.098037
123.250000 0.098037 0.098037
123.300000 0.098037 0.098037
123.350000 0.098037 0.098037
123.400000 0.098037 0.098037
123.450000 0.098037 0.098037
123.500000 0.098037 0.098037
123.550000 0.098037 0.098037
123.600000 0.098037 0.098037
123.650000 0.098037 0.098037
123.700000 0.098037 0.098037
123.750000 0.098037 0.098037
123.800000 0.098037 0.098037
123.850000 0.098037 0.098037
123.900000 0.098037 0.098037
123.950000 0.098037 0.098037
124.000000 0.098037 0.098037
124.050000 0.098037 0.098037
124.100000 0.098037 0.098037
124.150000 0.098037 0.098037
124.200000 0.098037 0.098037
124.250000 0.098037 0.098037
124.300000 0.098037 0.098037
124.350000 0.098037 0.098037
124.400000 0.098037 0.098037
124.450000 0.098037 0.098037
124.500000 0.098037 0.098037
124.550000 0.098037 0.098037
124.600000 0.098037 0.098037
124.650000 0.098037 0.098037
124.700000 0.098037 0.098037
124.750000 0.098037 0.098037
124.800000 0.098037 0.098037
124.850000 0.098037 0.098037
124.900000 0.098037 0.098037
124.950000 0.098037 0.098037
125.000000 0.098037 0.098037
125.050000 0.098037 0.098037
125.100000 0.098037 0.098037
125.150000 0.098037 0.098037
125.200000 0.098037 0.098037
125.250000 0.098037 0.098037
125.300000 0.098037 0.098037
125.350000 0.098037 0.098037
125.400000 0.098037 0.098037
125.450000 0.098037 0.098037
125.500000 0.098037 0.098037
125.550000 0.098037 0.098037
125.600000 0.098037 0.098037
125.650000 0.098037 0.098037
125.700000 0.098037 0.098037
125.750000 0.098037 0.098037
125.800000 0.098037 0.098037
125.850000 0.098037 0.098037
125.900000 0.098037 0.098037
125.950000 0.098037 0.098037
126.000000 0.098037 0.098037
126.050000 0.098037 0.098037
126.100000 0.098037 0.098037
126.150000 0.098037 0.098037
126.200000 0.098037 0.098037
126.250000 0.098037 0.098037
126.300000 0.098037 0.098037
126.350000 0.098037 0.098037
126.400000 0.098037 0.098037
126.450000 0.098037 0.098037
126.500000 0.098037 0.098037
126.550000 0.098037 0.098037
126.600000 0.098037 0.098037
126.650000 0.098037 0.098037
126.700000 0.098037 0.098037
126.750000 0.098037 0.098037
126.800000 0.098037 0.098037
126.850000 0.098037 0.098037
126.900000 0.098037 0.098037
126.950000 0.098037 0.098037
127.000000 0.098037 0.098037
127.050000 0.098037 0.098037
127.100000 0.098037 0.098037
127.150000 0.098037 0.098037
127.200000 0.098037 0.098037
127.250000 0.098037 0.098037
127.300000 0.098037 0.098037
127.350000 0.098037 0.098037
127.400000 0.098037 0.098037
127.450000 0.098037 0.098037
127.500000 0.098037 0.098037
127.550000 0.098037 0.098037
127.600000 0.098037 0.098037
127.650000 0.098037 0.098037
127.700000 0.098037 0.098037
127.750000 0.098037 0.098037
127.800000 0.098037 0.098037
127.850000 0.098037 0.098037
127.900000 0.098037 0.098037
127.950000 0.098037 0.098037
128.000000 0.098037 0.098037
128.050000 0.098037 0.098037
128.100000 0.098037 0.098037
128.150000 0.098037 0.098037
128.200000 0.098037 0.098037
128.250000 0.098037 0.098037
128.300000 0.098037 0.098037
128.350000 0.098037 0.098037
128.400000 0.098037 0.098037
128.450000 0.098037 0.098037
128.500000 0.098037 0.098037
128.550000 0.098037 0.098037
128.600000 0.098037 0.098037
128.650000 0.098037 0.098037
128.700000 0.098037 0.098037
128.750000 0.098037 0.098037
128.800000 0.098037 0.098037
128.850000 0.098037 0.098037
128.900000 0.098037 0.098037
128.950000 0.098037 0.098037
129.000000 0.098037 0.098037
129.050000 0.098037 0.098037
129.100000 0.098037 0.098037
129.150000 0.098037 0.098037
129.200000 0.098037 0.098037
129.250000 0.098037 0.098037
129.300000 0.098037 0.098037
129.350000 0.098037 0.098037
129.400000 0.098037 0.098037
129.450000 0.098037 0.098037
129.500000 0.098037 0.098037
129.550000 0.098037 0.098037
129.600000 0.098037 0.098037
129.650000 0.098037 0.098037
129.700000 0.098037 0.098037
129.750000 0.098037 0.098037
129.800000 0.098037 0.098037
129.850000 0.098037 0.098037
129.900000 0.098037 0.098037
129.950000 0.098037 0.098037
130.000000 0.098037 0.098037
130.050000 0.098037 0.098037
130.100000 0.098037 0.098037
130.150000 0.098037 0.098037
130.200000 0.098037 0.098037
130.250000 0.098037 0.098037
130.300000 0.098037 0.098037
130.350000 0.098037 0.098037
130.400000 0.098037 0.098037
130.450000 0.098037 0.098037
130.500000 0.098037 0.098037
130.550000 0.098037 0.098037
130.600000 0.098037 0.098037
130.650000 0.098037 0.098037
130.700000 0.098037 0.098037
130.750000 0.098037 0.098037
130.800000 0.098037 0.098037
130.850000 0.098037 0.098037
130.900000 0.098037 0.098037
130.950000 0.098037 0.098037
131.000000 0.098037 0.098037
131.050000 0.098037 0.098037
131.100000 0.098037 0.098037
131.150000 0.098037 0.098037
131.200000 0.098037 0.098037
131.250000 0.098037 0.098037
131.300000 0.098037 0.098037
131.350000 0.098037 0.098037
131.400000 0.098037 0.098037
131.450000 0.098037 0.098037
131.500000 0.098037 0.098037
131.550000 0.098037 0.098037
131.600000 0.098037 0.098037
131.650000 0.098037 0.098037
131.700000 0.098037 0.098037
131.750000 0.098037 0.098037
131.800000 0.098037 0.098037
131.850000 0.098037 0.098037
131.900000 0.098037 0.098037
131.950000 0.098037 0.098037
132.000000 0.098037 0.098037
132.050000 0.098037 0.098037
132.100000 0.098037 0.098037
132.150000 0.098037 0.098037
132.200000 0.098037 0.098037
132.250000 0.098037 0.098037
132.300000 0.098037 0.098037
132.350000 0.098037 0.098037
132.400000 0.098037 0.098037
132.450000 0.098037 0.098037
132.500000 0.098037 0.098037
132.550000 0.098037 0.098037
132.600000 0.098037 0.098037
132.650000 0.098037 0.098037
132.700000 0.098037 0.098037
132.750000 0.098037 0.098037
132.800000 0.098037 0.098037
132.850000 0.098037 0.098037
132.900000 0.098037 0.098037
132.950000 0.098037 0.098037
133.000000 0.098037 0.098037
133.050000 0.098037 0.098037
133.100000 0.098037 0.098037
133.150000 0.098037 0.098037
133.200000 0.098037 0.098037
133.250000 0.098037 0.098037
133.300000 0.098037 0.098037
133.350000 0.098037 0.098037
133.400000 0.098037 0.098037
133.450000 0.098037 0.098037
133.500000 0.098037 0.098037
133.550000 0.098037 0.098037
133.600000 0.098037 0.098037
133.650000 0.098037 0.098037
133.700000 0.098037 0.098037
133.750000 0.098037 0.098037
133.800000 0.098037 0.098037
133.850000 0.098037 0.098037
133.900000 0.098037 0.098037
133.950000 0.098037 0.098037
134.000000 0.098037 0.098037
134.050000 0.098037 0.098037
134.100000 0.098037 0.098037
134.150000 0.098037 0.098037
134.200000 0.098037 0.098037
134.250000 0.098037 0.098037
134.300000 0.098037 0.098037
134.350000 0.098037 0.098037
134.400000 0.098037 0.098037
134.450000 0.098037 0.098037
134.500000 0.098037 0.098037
134.550000 0.098037 0.098037
134.600000 0.098037 0.098037
134.650000 0.098037 0.098037
134.700000 0.098037 0.098037
134.750000 0.098037 0.098037
134.800000 0.098037 0.098037
134.850000 0.098037 0.098037
134.900000 0.098037 0.098037
134.950000 0.098037 0.098037
135.000000 0.098037 0.098037
135.050000 0.098037 0.098037
135.100000 0.098037 0.098037
135.150000 0.098037 0.098037
135.200000 0.098037 0.098037
135.250000 0.098037 0.098037
135.300000 0.098037 0.098037
135.350000 0.098037 0.098037
135.400000 0.098037 0.098037
135.450000 0.098037 0.098037
135.500000 0.098037 0.098037
135.550000 0.098037 0.098037
135.600000 0.098037 0.098037
135.650000 0.098037 0.098037
135.700000 0.098037 0.098037
135.750000 0.098037 0.098037
135.800000 0.098037 0.098037
135.850000 0.098037 0.098037
135.900000 0.098037 0.098037
135.950000 0.098037 0.098037
136.000000 0.098037 0.098037
136.050000 0.098037 0.098037
136.100000 0.098037 0.098037
136.150000 0.098037 0.098037
136.200000 0.098037 0.098037
136.250000 0.098037 0.098037
136.300000 0.098037 0.098037
136.350000 0.098037 0.098037
136.400000 0.098037 0.098037
136.450000 0.098037 0.098037
136.500000 0.098037 0.098037
136.550000 0.098037 0.098037
136.600000 0.098037 0.098037
136.650000 0.098037 0.098037
136.700000 0.098037 0.098037
136.750000 0.098037 0.098037
136.800000 0.098037 0.098037
136.850000 0.098037 0.098037
136.900000 0.098037 0.098037
136.950000 0.098037 0.098037
137.000000 0.098037 0.098037
137.050000 0.098037 0.098037
137.100000 0.098037 0.098037
137.150000 0.098037 0.098037
137.200000 0.098037 0.098037
137.250000 0.098037 0.098037
137.300000 0.098037 0.098037
137.350000 0.098037 0.098037
137.400000 0.098037 0.098037
137.450000 0.098037 0.098037
137.500000 0.098037 0.098037
137.550000 0.098037 0.098037
137.600000 0.098037 0.098037
137.650000 0.098037 0.098037
137.700000 0.098037 0.098037
137.750000 0.098037 0.098037
137.800000 0.098037 0.098037
137.850000 0.098037 0.098037
137.900000 0.098037 0.098037
137.950000 0.098037 0.098037
138.000000 0.098037 0.098037
138.050000 0.098037 0.098037
138.100000 0.098037 0.098037
138.150000 0.098037 0.098037
138.200000 0.098037 0.098037
138.250000 0.098037 0.098037
138.300000 0.098037 0.098037
138.350000 0.098037 0.098037
138.400000 0.098037 0.098037
138.450000 0.098037 0.098037
138.500000 0.098037 0.098037
138.550000 0.098037 0.098037
138.600000 0.098037 0.098037
138.650000 0.098037 0.098037
138.700000 0.098037 0.098037
138.750000 0.098037 0.098037
138.800000 0.098037 0.098037
138.850000 0.098037 0.098037
138.900000 0.098037 0.098037
138.950000 0.098037 0.098037
139.000000 0.098037 0.098037
139.050000 0.098037 0.098037
139.100000 0.098037 0.098037
139.150000 0.098037 0.098037
139.200000 0.098037 0.098037
139.250000 0.098037 0.098037
139.300000 0.098037 0.098037
139.350000 0.098037 0.098037
139.400000 0.098037 0.098037
139.450000 0.098037 0.098037
139.500000 0.098037 0.098037
139.550000 0.098037 0.098037
139.600000 0.098037 0.098037
139.650000 0.098037 0.098037
139.700000 0.098037 0.098037
139.750000 0.098037 0.098037
139.800000 0.098037 0.098037
139.850000 0.098037 0.098037
139.900000 0.098037 0.098037
139.950000 0.098037 0.098037
140.000000 0.098037 0.098037
140.050000 0.098037 0.098037
140.100000 0.098037 0.098037
140.150000 0.098037 0.098037
140.200000 0.098037 0.098037
140.250000 0.098037 0.098037
140.300000 0.098037 0.098037
140.350000 0.098037 0.098037
140.400000 0.098037 0.098037
140.450000 0.098037 0.098037
140.500000 0.098037 0.098037
140.550000 0.098037 0.098037
140.600000 0.098037 0.098037
140.650000 0.098037 0.098037
140.700000 0.098037 0.098037
140.750000 0.098037 0.098037
140.800000 0.098037 0.098037
140.850000 0.098037 0.098037
140.900000 0.098037 0.098037
140.950000 0.098037 0.098037
141.000000 0.098037 0.098037
141.050000 0.098037 0.098037
141.100000 0.098037 0.098037
141.150000 0.098037 0.098037
141.200000 0.098037 0.098037
141.250000 0.098037 0.098037
141.300000 0.098037 0.098037
141.350000 0.098037 0.098037
141.400000 0.098037 0.098037
141.450000 0.098037 0.098037
141.500000 0.098037 0.098037
141.550000 0.098037 0.098037
141.600000 0.098037 0.098037
141.650000 0.098037 0.098037
141.700000 0.098037 0.098037
141.750000 0.098037 0.098037
141.800000 0.098037 0.098037
141.850000 0.098037 0.098037
141.900000 0.098037 0.098037
141.950000 0.098037 0.098037
142.000000 0.098037 0.098037
142.050000 0.098037 0.098037
142.100000 0.098037 0.098037
142.150000 0.098037 0.098037
142.200000 0.098037 0.098037
142.250000 0.098037 0.098037
142.300000 0.098037 0.098037
142.350000 0.098037 0.098037
142.400000 0.098037 0.098037
142.450000 0.098037 0.098037
142.500000 0.098037 0.098037
142.550000 0.098037 0.098037
142.600000 0.098037 0.098037
142.650000 0.098037 0.098037
142.700000 0.098037 0.098037
142.750000 0.098037 0.098037
142.800000 0.098037 0.098037
142.850000 0.098037 0.098037
142.900000 0.098037 0.098037
142.950000 0.098037 0.098037
143.000000 0.098037 0.098037
143.050000 0.098037 0.098037
143.100000 0.098037 0.098037
143.150000 0.098037 0.098037
143.200000 0.098037 0.098037
143.250000 0.098037 0.098037
143.300000 0.098037 0.098037
143.350000 0.098037 0.098037
143.400000 0.098037 0.098037
143.450000 0.098037 0.098037
143.500000 0.098037 0.098037
143.550000 0.098037 0.098037
143.600000 0.098037 0.098037
143.650000 0.098037 0.098037
143.700000 0.098037 0.098037
143.750000 0.098037 0.098037
143.800000 0.098037 0.098037
143.850000 0.098037 0.098037
143.900000 0.098037 0.098037
143.950000 0.098037 0.098037
144.000000 0.098037 0.098037
144.050000 0.098037 0.098037
144.100000 0.098037 0.098037
144.150000 0.098037 0.098037
144.200000 0.098037 0.098037
144.250000 0.098037 0.098037
144.300000 0.098037 0.098037
144.350000 0.098037 0.098037
144.400000 0.098037 0.098037
144.450000 0.098037 0.098037
144.500000 0.098037 0.098037
144.550000 0.098037 0.098037
144.600000 0.098037 0.098037
144.650000 0.098037 0.098037
144.700000 0.098037 0.098037
144.750000 0.098037 0.098037
144.800000 0.098037 0.098037
144.850000 0.098037 0.098037
144.900000 0.098037 0.098037
144.950000 0.098037 0.098037
145.000000 0.098037 0.098037
145.050000 0.098037 0.098037
145.100000 0.098037 0.098037
145.150000 0.098037 0.098037
145.200000 0.098037 0.098037
145.250000 0.098037 0.098037
145.300000 0.098037 0.098037
145.350000 0.098037 0.098037
145.400000 0.098037 0.098037
145.450000 0.098037 0.098037
145.500000 0.098037 0.098037
145.550000 0.098037 0.098037
145.600000 0.098037 0.098037
145.650000 0.098037 0.098037
145.700000 0.098037 0.098037
145.750000 0.098037 0.098037
145.800000 0.098037 0.098037
145.850000 0.098037 0.098037
145.900000 0.098037 0.098037
145.950000 0.098037 0.098037
146.000000 0.098037 0.098037
146.050000 0.098037 0.098037
146.100000 0.098037 0.098037
146.150000 0.098037 0.098037
146.200000 0.098037 0.098037
146.250000 0.098037 0.098037
146.300000 0.098037 0.098037
146.350000 0.098037 0.098037
146.400000 0.098037 0.098037
146.450000 0.098037 0.098037
146.500000 0.098037 0.098037
146.550000 0.098037 0.098037
146.600000 0.098037 0.098037
146.650000 0.098037 0.098037
146.700000 0.098037 0.098037
146.750000 0.098037 0.098037
146.800000 0.098037 0.098037
146.850000 0.098037 0.098037
146.900000 0.098037 0.098037
146.950000 0.098037 0.098037
147.000000 0.098037 0.098037
147.050000 0.098037 0.098037
147.100000 0.098037 0.098037
147.150000 0.098037 0.098037
147.200000 0.098037 0.098037
147.250000 0.098037 0.098037
147.300000 0.098037 0.098037
147.350000 0.098037 0.098037
147.400000 0.098037 0.098037
147.450000 0.098037 0.098037
147.500000 0.098037 0.098037
147.550000 0.098037 0.098037
147.600000 0.098037 0.098037
147.650000 0.098037 0.098037
147.700000 0.098037 0.098037
147.750000 0.098037 0.098037
147.800000 0.098037 0.098037
147.850000 0.098037 0.098037
147.900000 0.098037 0.098037
147.950000 0.098037 0.098037
148.000000 0.098037 0.098037
148.050000 0.098037 0.098037
148.100000 0.098037 0.098037
148.150000 0.098037 0.098037
148.200000 0.098037 0.098037
148.250000 0.098037 0.098037
148.300000 0.098037 0.098037
148.350000 0.098037 0.098037
148.400000 0.098037 0.098037
148.450000 0.098037 0.098037
148.500000 0.098037 0.098037
148.550000 0.098037 0.098037
148.600000 0.098037 0.098037
148.650000 0.098037 0.098037
148.700000 0.098037 0.098037
148.750000 0.098037 0.098037
148.800000 0.098037 0.098037
148.850000 0.098037 0.098037
148.900000 0.098037 0.098037
148.950000 0.098037 0.098037
149.000000 0.098037 0.098037
149.050000 0.098037 0.098037
149.100000 0.098037 0.098037
149.150000 0.098037 0.098037
149.200000 0.098037 0.098037
149.250000 0.098037 0.098037
149.300000 0.098037 0.098037
149.350000 0.098037 0.098037
149.400000 0.098037 0.098037
149.450000 0.098037 0.098037
149.500000 0.098037 0.098037
149.550000 0.098037 0.098037
149.600000 0.098037 0.098037
149.650000 0.098037 0.098037
149.700000 0.098037 0.098037
149.750000 0.098037 0.098037
149.800000 0.098037 0.098037
149.850000 0.098037 0.098037
149.900000 0.098037 0.098037
149.950000 0.098037 0.098037
150.000000 0.098037 0.098037
150.050000 0.098037 0.098037
150.100000 0.098037 0.098037
150.150000 0.098037 0.098037
150.200000 0.098037 0.098037
150.250000 0.098037 0.098037
150.300000 0.098037 0.098037
150.350000 0.098037 0.098037
150.400000 0.098037 0.098037
150.450000 0.098037 0.098037
150.500000 0.098037 0.098037
150.550000 0.098037 0.098037
150.600000 0.098037 0.098037
150.650000 0.098037 0.098037
150.700000 0.098037 0.098037
150.750000 0.098037 0.098037
150.800000 0.098037 0.098037
150.850000 0.098037 0.098037
150.900000 0.098037 0.098037
150.950000 0.098037 0.098037
151.000000 0.098037 0.098037
151.050000 0.098037 0.098037
151.100000 0.098037 0.098037
151.150000 0.098037 0.098037
151.200000 0.098037 0.098037
151.250000 0.098037 0.098037
151.300000 0.098037 0.098037
151.350000 0.098037 0.098037
151.400000 0.098037 0.098037
151.450000 0.098037 0.098037
151.500000 0.098037 0.098037
151.550000 0.098037 0.098037
151.600000 0.098037 0.098037
151.650000 0.098037 0.098037
151.700000 0.098037 0.098037
151.750000 0.098037 0.098037
151.800000 0.098037 0.098037
151.850000 0.098037 0.098037
151.900000 0.098037 0.098037
151.950000 0.098037 0.098037
152.000000 0.098037 0.098037
152.050000 0.098037 0.098037
152.100000 0.098037 0.098037
152.150000 0.098037 0.098037
152.200000 0.098037 0.098037
152.250000 0.098037 0.098037
152.300000 0.098037 0.098037
152.350000 0.098037 0.098037
152.400000 0.098037 0.098037
152.450000 0.098037 0.098037
152.500000 0.098037 0.098037
152.550000 0.098037 0.098037
152.600000 0.098037 0.098037
152.650000 0.098037 0.098037
152.700000 0.098037 0.098037
152.750000 0.098037 0.098037
152.800000 0.098037 0.098037
152.850000 0.098037 0.098037
152.900000 0.098037 0.098037
152.950000 0.098037 0.098037
153.000000 0.098037 0.098037
153.050000 0.098037 0.098037
153.100000 0.098037 0.098037
153.150000 0.098037 0.098037
153.200000 0.098037 0.098037
153.250000 0.098037 0.098037
153.300000 0.098037 0.098037
153.350000 0.098037 0.098037
153.400000 0.098037 0.098037
153.450000 0.098037 0.098037
153.500000 0.098037 0.098037
153.550000 0.098037 0.098037
153.600000 0.098037 0.098037
153.650000 0.098037 0.098037
153.700000 0.098037 0.098037
153.750000 0.098037 0.098037
153.800000 0.098037 0.098037
153.850000 0.098037 0.098037
153.900000 0.098037 0.098037
153.950000 0.098037 0.098037
154.000000 0.098037 0.098037
154.050000 0.098037 0.098037
154.100000 0.098037 0.098037
154.150000 0.098037 0.098037
154.200000 0.098037 0.098037
154.250000 0.098037 0.098037
154.300000 0.098037 0.098037
154.350000 0.098037 0.098037
154.400000 0.098037 0.098037
154.450000 0.098037 0.098037
154.500000 0.098037 0.098037
154.550000 0.098037 0.098037
154.600000 0.098037 0.098037
154.650000 0.098037 0.098037
154.700000 0.098037 0.098037
154.750000 0.098037 0.098037
154.800000 0.098037 0.098037
154.850000 0.098037 0.098037
154.900000 0.098037 0.098037
154.950000 0.098037 0.098037
155.000000 0.098037 0.098037
155.050000 0.098037 0.098037
155.100000 0.098037 0.098037
155.150000 0.098037 0.098037
155.200000 0.098037 0.098037
155.250000 0.098037 0.098037
155.300000 0.098037 0.098037
155.350000 0.098037 0.098037
155.400000 0.098037 0.098037
155.450000 0.098037 0.098037
155.500000 0.098037 0.098037
155.550000 0.098037 0.098037
155.600000 0.098037 0.098037
155.650000 0.098037 0.098037
155.700000 0.098037 0.098037
155.750000 0.098037 0.098037
155.800000 0.098037 0.098037
155.850000 0.098037 0.098037
155.900000 0.098037 0.098037
155.950000 0.098037 0.098037
156.000000 0.098037 0.098037
156.050000 0.098037 0.098037
156.100000 0.098037 0.098037
156.150000 0.098037 0.098037
156.200000 0.098037 0.098037
156.250000 0.098037 0.098037
156.300000 0.098037 0.098037
156.350000 0.098037 0.098037
156.400000 0.098037 0.098037
156.450000 0.098037 0.098037
156.500000 0.098037 0.098037
156.550000 0.098037 0.098037
156.600000 0.098037 0.098037
156.650000 0.098037 0.098037
156.700000 0.098037 0.098037
156.750000 0.098037 0.098037
156.800000 0.098037 0.098037
156.850000 0.098037 0.098037
156.900000 0.098037 0.098037
156.950000 0.098037 0.098037
157.000000 0.098037 0.098037
157.050000 0.098037 0.098037
157.100000 0.098037 0.098037
157.150000 0.098037 0.098037
157.200000 0.098037 0.098037
157.250000 0.098037 0.098037
157.300000 0.098037 0.098037
157.350000 0.098037 0.098037
157.400000 0.098037 0.098037
157.450000 0.098037 0.098037
157.500000 0.098037 0.098037
157.550000 0.098037 0.098037
157.600000 0.098037 0.098037
157.650000 0.098037 0.098037
157.700000 0.098037 0.098037
157.750000 0.098037 0.098037
157.800000 0.098037 0.098037
157.850000 0.098037 0.098037
157.900000 0.098037 0.098037
157.950000 0.098037 0.098037
158.000000 0.098037 0.098037
158.050000 0.098037 0.098037
158.100000 0.098037 0.098037
158.150000 0.098037 0.098037
158.200000 0.098037 0.098037
158.250000 0.098037 0.098037
158.300000 0.098037 0.098037
158.350000 0.098037 0.098037
158.400000 0.098037 0.098037
158.450000 0.098037 0.098037
158.500000 0.098037 0.098037
158.550000 0.098037 0.098037
158.600000 0.098037 0.098037
158.650000 0.098037 0.098037
158.700000 0.098037 0.098037
158.750000 0.098037 0.098037
158.800000 0.098037 0.098037
158.850000 0.098037 0.098037
158.900000 0.098037 0.098037
158.950000 0.098037 0.098037
159.000000 0.098037 0.098037
159.050000 0.098037 0.098037
159.100000 0.098037 0.098037
159.150000 0.098037 0.098037
159.200000 0.098037 0.098037
159.250000 0.098037 0.098037
159.300000 0.098037 0.098037
159.350000 0.098037 0.098037
159.400000 0.098037 0.098037
159.450000 0.098037 0.098037
159.500000 0.098037 0.098037
159.550000 0.098037 0.098037
159.600000 0.098037 0.098037
159.650000 0.098037 0.098037
159.700000 0.098037 0.098037
159.750000 0.098037 0.098037
159.800000 0.098037 0.098037
159.850000 0.098037 0.098037
159.900000 0.098037 0.098037
159.950000 0.098037 0.098037
160.000000 0.098037 0.098037
160.050000 0.098037 0.098037
160.100000 0.098037 0.098037
160.150000 0.098037 0.098037
160.200000 0.098037 0.098037
160.250000 0.098037 0.098037
160.300000 0.098037 0.098037
160.350000 0.098037 0.098037
160.400000 0.098037 0.098037
160.450000 0.098037 0.098037
160.500000 0.098037 0.098037
160.550000 0.098037 0.098037
160.600000 0.098037 0.098037
160.650000 0.098037 0.098037
160.700000 0.098037 0.098037
160.750000 0.098037 0.098037
160.800000 0.098037 0.098037
160.850000 0.098037 0.098037
160.900000 0.098037 0.098037
160.950000 0.098037 0.098037
161.000000 0.098037 0.098037
161.050000 0.098037 0.098037
161.100000 0.098037 0.098037
161.150000 0.098037 0.098037
161.200000 0.098037 0.098037
161.250000 0.098037 0.098037
161.300000 0.098037 0.098037
161.350000 0.098037 0.098037
161.400000 0.098037 0.098037
161.450000 0.098037 0.098037
161.500000 0.098037 0.098037
161.550000 0.098037 0.098037
161.600000 0.098037 0.098037
161.650000 0.098037 0.098037
161.700000 0.098037 0.098037
161.750000 0.098037 0.098037
161.800000 0.098037 0.098037
161.850000 0.098037 0.098037
161.900000 0.098037 0.098037
161.950000 0.098037 0.098037
162.000000 0.098037 0.098037
162.050000 0.098037 0.098037
162.100000 0.098037 0.098037
162.150000 0.098037 0.098037
162.200000 0.098037 0.098037
162.250000 0.098037 0.098037
162.300000 0.098037 0.098037
162.350000 0.098037 0.098037
162.400000 0.098037 0.098037
162.450000 0.098037 0.098037
162.500000 0.098037 0.098037
162.550000 0.098037 0.098037
162.600000 0.098037 0.098037
162.650000 0.098037 0.098037
162.700000 0.098037 0.098037
162.750000 0.098037 0.098037
162.800000 0.098037 0.098037
162.850000 0.098037 0.098037
162.900000 0.098037 0.098037
162.950000 0.098037 0.098037
163.000000 0.098037 0.098037
163.050000 0.098037 0.098037
163.100000 0.098037 0.098037
163.150000 0.098037 0.098037
163.200000 0.098037 0.098037
163.250000 0.098037 0.098037
163.300000 0.098037 0.098037
163.350000 0.098037 0.098037
163.400000 0.098037 0.098037
163.450000 0.098037 0.098037
163.500000 0.098037 0.098037
163.550000 0.098037 0.098037
163.600000 0.098037 0.098037
163.650000 0.098037 0.098037
163.700000 0.098037 0.098037
163.750000 0.098037 0.098037
163.800000 0.098037 0.098037
163.850000 0.098037 0.098037
163.900000 0.098037 0.098037
163.950000 0.098037 0.098037
164.000000 0.098037 0.098037
164.050000 0.098037 0.098037
164.100000 0.098037 0.098037
164.150000 0.098037 0.098037
164.200000 0.098037 0.098037
164.250000 0.098037 0.098037
164.300000 0.098037 0.098037
164.350000 0.098037 0.098037
164.400000 0.098037 0.098037
164.450000 0.098037 0.098037
164.500000 0.098037 0.098037
164.550000 0.098037 0.098037
164.600000 0.098037 0.098037
164.650000 0.098037 0.098037
164.700000 0.098037 0.098037
164.750000 0.098037 0.098037
164.800000 0.098037 0.098037
164.850000 0.098037 0.098037
164.900000 0.098037 0.098037
164.950000 0.098037 0.098037
165.000000 0.098037 0.098037
165.050000 0.098037 0.098037
165.100000 0.098037 0.098037
165.150000 0.098037 0.098037
165.200000 0.098037 0.098037
165.250000 0.098037 0.098037
165.300000 0.098037 0.098037
165.350000 0.098037 0.098037
165.400000 0.098037 0.098037
165.450000 0.098037 0.098037
165.500000 0.098037 0.098037
165.550000 0.098037 0.098037
165.600000 0.098037 0.098037
165.650000 0.098037 0.098037
165.700000 0.098037 0.098037
165.750000 0.098037 0.098037
165.800000 0.098037 0.098037
165.850000 0.098037 0.098037
165.900000 0.098037 0.098037
165.950000 0.098037 0.098037
166.000000 0.098037 0.098037
166.050000 0.098037 0.098037
166.100000 0.098037 0.098037
166.150000 0.098037 0.098037
166.200000 0.098037 0.098037
166.250000 0.098037 0.098037
166.300000 0.098037 0.098037
166.350000 0.098037 0.098037
166.400000 0.098037 0.098037
166.450000 0.098037 0.098037
166.500000 0.098037 0.098037
166.550000 0.098037 0.098037
166.600000 0.098037 0.098037
166.650000 0.098037 0.098037
166.700000 0.098037 0.098037
166.750000 0.098037 0.098037
166.800000 0.098037 0.098037
166.850000 0.098037 0.098037
166.900000 0.098037 0.098037
166.950000 0.098037 0.098037
167.000000 0.098037 0.098037
167.050000 0.098037 0.098037
167.100000 0.098037 0.098037
167.150000 0.098037 0.098037
167.200000 0.098037 0.098037
167.250000 0.098037 0.098037
167.300000 0.098037 0.098037
167.350000 0.098037 0.098037
167.400000 0.098037 0.098037
167.450000 0.098037 0.098037
167.500000 0.098037 0.098037
167.550000 0.098037 0.098037
167.600000 0.098037 0.098037
167.650000 0.098037 0.098037
167.700000 0.098037 0.098037
167.750000 0.098037 0.098037
167.800000 0.098037 0.098037
167.850000 0.098037 0.098037
167.900000 0.098037 0.098037
167.950000 0.098037 0.098037
168.000000 0.098037 0.098037
168.050000 0.098037 0.098037
168.100000 0.098037 0.098037
168.150000 0.098037 0.098037
168.200000 0.098037 0.098037
168.250000 0.098037 0.098037
168.300000 0.098037 0.098037
168.350000 0.098037 0.098037
168.400000 0.098037 0.098037
168.450000 0.098037 0.098037
168.500000 0.098037 0.098037
168.550000 0.098037 0.098037
168.600000 0.098037 0.098037
168.650000 0.098037 0.098037
168.700000 0.098037 0.098037
168.750000 0.098037 0.098037
168.800000 0.098037 0.098037
168.850000 0.098037 0.098037
168.900000 0.098037 0.098037
168.950000 0.098037 0.098037
169.000000 0.098037 0.098037
169.050000 0.098037 0.098037
169.100000 0.098037 0.098037
169.150000 0.098037 0.098037
169.200000 0.098037 0.098037
169.250000 0.098037 0.098037
169.300000 0.098037 0.098037
169.350000 0.098037 0.098037
169.400000 0.098037 0.098037
169.450000 0.098037 0.098037
169.500000 0.098037 0.098037
169.550000 0.098037 0.098037
169.600000 0.098037 0.098037
169.650000 0.098037 0.098037
169.700000 0.098037 0.098037
169.750000 0.098037 0.098037
169.800000 0.098037 0.098037
169.850000 0.098037 0.098037
169.900000 0.098037 0.098037
169.950000 0.098037 0.098037
170.000000 0.098037 0.098037
170.050000 0.098037 0.098037
170.100000 0.098037 0.098037
170.150000 0.098037 0.098037
170.200000 0.098037 0.098037
170.250000 0.098037 0.098037
170.300000 0.098037 0.098037
170.350000 0.098037 0.098037
170.400000 0.098037 0.098037
170.450000 0.098037 0.098037
170.500000 0.098037 0.098037
170.550000 0.098037 0.098037
170.600000 0.098037 0.098037
170.650000 0.098037 0.098037
170.700000 0.098037 0.098037
170.750000 0.098037 0.098037
170.800000 0.098037 0.098037
170.850000 0.098037 0.098037
170.900000 0.098037 0.098037
170.950000 0.098037 0.098037
171.000000 0.098037 0.098037
171.050000 0.098037 0.098037
171.100000 0.098037 0.098037
171.150000 0.098037 0.098037
171.200000 0.098037 0.098037
171.250000 0.098037 0.098037
171.300000 0.098037 0.098037
171.350000 0.098037 0.098037
171.400000 0.098037 0.098037
171.450000 0.098037 0.098037
171.500000 0.098037 0.098037
171.550000 0.098037 0.098037
171.600000 0.098037 0.098037
171.650000 0.098037 0.098037
171.700000 0.098037 0.098037
171.750000 0.098037 0.098037
171.800000 0.098037 0.098037
171.850000 0.098037 0.098037
171.900000 0.098037 0.098037
171.950000 0.098037 0.098037
172.000000 0.098037 0.098037
172.050000 0.098037 0.098037
172.100000 0.098037 0.098037
172.150000 0.098037 0.098037
172.200000 0.098037 0.098037
172.250000 0.098037 0.098037
172.300000 0.098037 0.098037
172.350000 0.098037 0.098037
172.400000 0.098037 0.098037
172.450000 0.098037 0.098037
172.500000 0.098037 0.098037
172.550000 0.098037 0.098037
172.600000 0.098037 0.098037
172.650000 0.098037 0.098037
172.700000 0.098037 0.098037
172.750000 0.098037 0.098037
172.800000 0.098037 0.098037
172.850000 0.098037 0.098037
172.900000 0.098037 0.098037
172.950000 0.098037 0.098037
173.000000 0.098037 0.098037
173.050000 0.098037 0.098037
173.100000 0.098037 0.098037
173.150000 0.098037 0.098037
173.200000 0.098037 0.098037
173.250000 0.098037 0.098037
173.300000 0.098037 0.098037
173.350000 0.098037 0.098037
173.400000 0.098037 0.098037
173.450000 0.098037 0.098037
173.500000 0.098037 0.098037
173.550000 0.098037 0.098037
173.600000 0.098037 0.098037
173.650000 0.098037 0.098037
173.700000 0.098037 0.098037
173.750000 0.098037 0.098037
173.800000 0.098037 0.098037
173.850000 0.098037 0.098037
173.900000 0.098037 0.098037
173.950000 0.098037 0.098037
174.000000 0.098037 0.098037
174.050000 0.098037 0.098037
174.100000 0.098037 0.098037
174.150000 0.098037 0.098037
174.200000 0.098037 0.098037
174.250000 0.098037 0.098037
174.300000 0.098037 0.098037
174.350000 0.098037 0.098037
174.400000 0.098037 0.098037
174.450000 0.098037 0.098037
174.500000 0.098037 0.098037
174.550000 0.098037 0.098037
174.600000 0.098037 0.098037
174.650000 0.098037 0.098037
174.700000 0.098037 0.098037
174.750000 0.098037 0.098037
174.800000 0.098037 0.098037
174.850000 0.098037 0.098037
174.900000 0.098037 0.098037
174.950000 0.098037 0.098037
175.000000 0.098037 0.098037
175.050000 0.098037 0.098037
175.100000 0.098037 0.098037
175.150000 0.098037 0.098037
175.200000 0.098037 0.098037
175.250000 0.098037 0.098037
175.300000 0.098037 0.098037
175.350000 0.098037 0.098037
175.400000 0.098037 0.098037
175.450000 0.098037 0.098037
175.500000 0.098037 0.098037
175.550000 0.098037 0.098037
175.600000 0.098037 0.098037
175.650000 0.098037 0.098037
175.700000 0.098037 0.098037
175.750000 0.098037 0.098037
175.800000 0.098037 0.098037
175.850000 0.098037 0.098037
175.900000 0.098037 0.098037
175.950000 0.098037 0.098037
176.000000 0.098037 0.098037
176.050000 0.098037 0.098037
176.100000 0.098037 0.098037
176.150000 0.098037 0.098037
176.200000 0.098037 0.098037
176.250000 0.098037 0.098037
176.300000 0.098037 0.098037
176.350000 0.098037 0.098037
176.400000 0.098037 0.098037
176.450000 0.098037 0.098037
176.500000 0.098037 0.098037
176.550000 0.098037 0.098037
176.600000 0.098037 0.098037
176.650000 0.098037 0.098037
176.700000 0.098037 0.098037
176.750000 0.098037 0.098037
176.800000 0.098037 0.098037
176.850000 0.098037 0.098037
176.900000 0.098037 0.098037
176.950000 0.098037 0.098037
177.000000 0.098037 0.098037
177.050000 0.098037 0.098037
177.100000 0.098037 0.098037
177.150000 0.098037 0.098037
177.200000 0.098037 0.098037
177.250000 0.098037 0.098037
177.300000 0.098037 0.098037
177.350000 0.098037 0.098037
177.400000 0.098037 0.098037
177.450000 0.098037 0.098037
177.500000 0.098037 0.098037
177.550000 0.098037 0.098037
177.600000 0.098037 0.098037
177.650000 0.098037 0.098037
177.700000 0.098037 0.098037
177.750000 0.098037 0.098037
177.800000 0.098037 0.098037
177.850000 0.098037 0.098037
177.900000 0.098037 0.098037
177.950000 0.098037 0.098037
178.000000 0.098037 0.098037
178.050000 0.098037 0.098037
178.100000 0.098037 0.098037
178.150000 0.098037 0.098037
178.200000 0.098037 0.098037
178.250000 0.098037 0.098037
178.300000 0.098037 0.098037
178.350000 0.098037 0.098037
178.400000 0.098037 0.098037
178.450000 0.098037 0.098037
178.500000 0.098037 0.098037
178.550000 0.098037 0.098037
178.600000 0.098037 0.098037
178.650000 0.098037 0.098037
178.700000 0.098037 0.098037
178.750000 0.098037 0.098037
178.800000 0.098037 0.098037
178.850000 0.098037 0.098037
178.900000 0.098037 0.098037
178.950000 0.098037 0.098037
179.000000 0.098037 0.098037
179.050000 0.098037 0.098037
179.100000 0.098037 0.098037
179.150000 0.098037 0.098037
179.200000 0.098037 0.098037
179.250000 0.098037 0.098037
179.300000 0.098037 0.098037
179.350000 0.098037 0.098037
179.400000 0.098037 0.098037
179.450000 0.098037 0.098037
179.500000 0.098037 0.098037
179.550000 0.098037 0.098037
179.600000 0.098037 0.098037
179.650000 0.098037 0.098037
179.700000 0.098037 0.098037
179.750000 0.098037 0.098037
179.800000 0.098037 0.098037
179.850000 0.098037 0.098037
179.900000 0.098037 0.098037
179.950000 0.098037 0.098037
180.000000 0.098037 0.098037
180.050000 0.098037 0.098037
180.100000 0.098037 0.098037
180.150000 0.098037 0.098037
180.200000 0.098037 0.098037
180.250000 0.098037 0.098037
180.300000 0.098037 0.098037
180.350000 0.098037 0.098037
180.400000 0.098037 0.098037
180.450000 0.098037 0.098037
180.500000 0.098037 0.098037
180.550000 0.098037 0.098037
180.600000 0.098037 0.098037
180.650000 0.098037 0.098037
180.700000 0.098037 0.098037
180.750000 0.098037 0.098037
180.800000 0.098037 0.098037
180.850000 0.098037 0.098037
180.900000 0.098037 0.098037
180.950000 0.098037 0.098037
181.000000 0.098037 0.098037
181.050000 0.098037 0.098037
181.100000 0.098037 0.098037
181.150000 0.098037 0.098037
181.200000 0.098037 0.098037
181.250000 0.098037 0.098037
181.300000 0.098037 0.098037
181.350000 0.098037 0.098037
181.400000 0.098037 0.098037
181.450000 0.098037 0.098037
181.500000 0.098037 0.098037
181.550000 0.098037 0.098037
181.600000 0.098037 0.098037
181.650000 0.098037 0.098037
181.700000 0.098037 0.098037
181.750000 0.098037 0.098037
181.800000 0.098037 0.098037
181.850000 0.098037 0.098037
181.900000 0.098037 0.098037
181.950000 0.098037 0.098037
182.000000 0.098037 0.098037
182.050000 0.098037 0.098037
182.100000 0.098037 0.098037
182.150000 0.098037 0.098037
182.200000 0.098037 0.098037
182.250000 0.098037 0.098037
182.300000 0.098037 0.098037
182.350000 0.098037 0.098037
182.400000 0.098037 0.098037
182.450000 0.098037 0.098037
182.500000 0.098037 0.098037
182.550000 0.098037 0.098037
182.600000 0.098037 0.098037
182.650000 0.098037 0.098037
182.700000 0.098037 0.098037
182.750000 0.098037 0.098037
182.800000 0.098037 0.098037
182.850000 0.098037 0.098037
182.900000 0.098037 0.098037
182.950000 0.098037 0.098037
183.000000 0.098037 0.098037
183.050000 0.098037 0.098037
183.100000 0.098037 0.098037
183.150000 0.098037 0.098037
183.200000 0.098037 0.098037
183.250000 0.098037 0.098037
183.300000 0.098037 0.098037
183.350000 0.098037 0.098037
183.400000 0.098037 0.098037
183.450000 0.098037 0.098037
183.500000 0.098037 0.098037
183.550000 0.098037 0.098037
183.600000 0.098037 0.098037
183.650000 0.098037 0.098037
183.700000 0.098037 0.098037
183.750000 0.098037 0.098037
183.800000 0.098037 0.098037
183.850000 0.098037 0.098037
183.900000 0.098037 0.098037
183.950000 0.098037 0.098037
184.000000 0.098037 0.098037
184.050000 0.098037 0.098037
184.100000 0.098037 0.098037
184.150000 0.098037 0.098037
184.200000 0.098037 0.098037
184.250000 0.098037 0.098037
184.300000 0.098037 0.098037
184.350000 0.098037 0.098037
184.400000 0.098037 0.098037
184.450000 0.098037 0.098037
184.500000 0.098037 0.098037
184.550000 0.098037 0.098037
184.600000 0.098037 0.098037
184.650000 0.098037 0.098037
184.700000 0.098037 0.098037
184.750000 0.098037 0.098037
184.800000 0.098037 0.098037
184.850000 0.098037 0.098037
184.900000 0.098037 0.098037
184.950000 0.098037 0.098037
185.000000 0.098037 0.098037
185.050000 0.098037 0.098037
185.100000 0.098037 0.098037
185.150000 0.098037 0.098037
185.200000 0.098037 0.098037
185.250000 0.098037 0.098037
185.300000 0.098037 0.098037
185.350000 0.098037 0.098037
185.400000 0.098037 0.098037
185.450000 0.098037 0.098037
185.500000 0.098037 0.098037
185.550000 0.098037 0.098037
185.600000 0.098037 0.098037
185.650000 0.098037 0.098037
185.700000 0.098037 0.098037
185.750000 0.098037 0.098037
185.800000 0.098037 0.098037
185.850000 0.098037 0.098037
185.900000 0.098037 0.098037
185.950000 0.098037 0.098037
186.000000 0.098037 0.098037
186.050000 0.098037 0.098037
186.100000 0.098037 0.098037
186.150000 0.098037 0.098037
186.200000 0.098037 0.098037
186.250000 0.098037 0.098037
186.300000 0.098037 0.098037
186.350000 0.098037 0.098037
186.400000 0.098037 0.098037
186.450000 0.098037 0.098037
186.500000 0.098037 0.098037
186.550000 0.098037 0.098037
186.600000 0.098037 0.098037
186.650000 0.098037 0.098037
186.700000 0.098037 0.098037
186.750000 0.098037 0.098037
186.800000 0.098037 0.098037
186.850000 0.098037 0.098037
186.900000 0.098037 0.098037
186.950000 0.098037 0.098037
187.000000 0.098037 0.098037
