time[ns] Raw_signal[mV]
-11.100000 0.072629
-11.050000 0.117165
-11.000000 0.154850
-10.950000 0.168553
-10.900000 0.199386
-10.850000 0.240498
-10.800000 0.264479
-10.750000 0.278182
-10.700000 0.291886
-10.650000 0.309015
-10.600000 0.319293
-10.550000 0.332996
-10.500000 0.329571
-10.450000 0.319293
-10.400000 0.298738
-10.350000 0.250775
-10.300000 0.195961
-10.250000 0.151425
-10.200000 0.079481
-10.150000 -0.023296
-10.100000 -0.074685
-10.050000 -0.047277
-10.000000 -0.030148
-9.950000 -0.040426
-9.900000 -0.026722
-9.850000 0.010963
-9.800000 0.004111
-9.750000 -0.033574
-9.700000 -0.074685
-9.650000 -0.156906
-9.600000 -0.276812
-9.550000 -0.383015
-9.500000 -0.478939
-9.450000 -0.612549
-9.400000 -0.753011
-9.350000 -0.828381
-9.300000 -0.828381
-9.250000 -0.800973
-9.200000 -0.749584
-9.150000 -0.633105
-9.100000 -0.461810
-9.050000 -0.280238
-9.000000 -0.105517
-8.950000 0.086332
-8.900000 0.271330
-8.850000 0.411791
-8.800000 0.521420
-8.750000 0.624197
-8.700000 0.689289
-8.650000 0.706418
-8.600000 0.709844
-8.550000 0.679011
-8.500000 0.596789
-8.450000 0.500865
-8.400000 0.425495
-8.350000 0.336423
-8.300000 0.267905
-8.250000 0.261052
-8.200000 0.264479
-8.150000 0.271330
-8.100000 0.319293
-8.050000 0.387811
-8.000000 0.425495
-7.950000 0.459755
-7.900000 0.487162
-7.850000 0.452903
-7.800000 0.401515
-7.750000 0.387810
-7.700000 0.343274
-7.650000 0.233645
-7.600000 0.161701
-7.550000 0.141147
-7.500000 0.089758
-7.450000 0.017815
-7.400000 -0.013018
-7.350000 -0.002740
-7.300000 0.010963
-7.250000 0.038370
-7.200000 0.058925
-7.150000 0.072628
-7.100000 0.100036
-7.050000 0.124017
-7.000000 0.120591
-6.950000 0.110313
-6.900000 0.127443
-6.850000 0.144573
-6.800000 0.158276
-6.750000 0.195961
-6.700000 0.254201
-6.650000 0.295312
-6.600000 0.326145
-6.550000 0.398089
-6.500000 0.470032
-6.450000 0.504291
-6.400000 0.552253
-6.350000 0.631049
-6.300000 0.682437
-6.250000 0.699567
-6.200000 0.733826
-6.150000 0.757807
-6.100000 0.720122
-6.050000 0.668733
-6.000000 0.648178
-5.950000 0.603642
-5.900000 0.507717
-5.850000 0.401514
-5.800000 0.298737
-5.750000 0.185683
-5.700000 0.072628
-5.650000 0.000685
-5.600000 -0.050703
-5.550000 -0.102092
-5.500000 -0.153480
-5.450000 -0.218572
-5.400000 -0.276812
-5.350000 -0.307645
-5.300000 -0.328201
-5.250000 -0.321348
-5.200000 -0.280238
-5.150000 -0.225424
-5.100000 -0.177461
-5.050000 -0.112369
-5.000000 -0.002740
-4.950000 0.103462
-4.900000 0.165127
-4.850000 0.216516
-4.800000 0.271330
-4.750000 0.302163
-4.700000 0.291886
-4.650000 0.247349
-4.600000 0.199387
-4.550000 0.158276
-4.500000 0.110314
-4.450000 0.072629
-4.400000 0.079481
-4.350000 0.117165
-4.300000 0.158276
-4.250000 0.230220
-4.200000 0.353552
-4.150000 0.487161
-4.100000 0.586512
-4.050000 0.665308
-4.000000 0.730399
-3.950000 0.781788
-3.900000 0.805770
-3.850000 0.809195
-3.800000 0.785214
-3.750000 0.737252
-3.700000 0.682437
-3.650000 0.624197
-3.600000 0.555680
-3.550000 0.483736
-3.500000 0.415218
-3.450000 0.356977
-3.400000 0.326145
-3.350000 0.298737
-3.300000 0.267904
-3.250000 0.202813
-3.200000 0.117165
-3.150000 0.117165
-3.100000 0.195961
-3.050000 0.195961
-3.000000 0.117165
-2.950000 0.175406
-2.900000 0.302164
-2.850000 0.267905
-2.800000 0.178832
-2.750000 0.182257
-2.700000 0.151424
-2.650000 0.117165
-2.600000 0.257627
-2.550000 0.360404
-2.500000 0.240497
-2.450000 0.223368
-2.400000 0.422070
-2.350000 0.452902
-2.300000 0.336423
-2.250000 0.422069
-2.200000 0.524846
-2.150000 0.370681
-2.100000 0.285034
-2.050000 0.418644
-2.000000 0.387810
-1.950000 0.117165
-1.900000 -0.037000
-1.850000 -0.026722
-1.800000 0.010963
-1.750000 0.072629
-1.700000 0.082906
-1.650000 -0.002740
-1.600000 0.038369
-1.550000 0.206238
-1.500000 0.216516
-1.450000 0.161702
-1.400000 0.336423
-1.350000 0.548828
-1.300000 0.541975
-1.250000 0.511143
-1.200000 0.545402
-1.150000 0.470032
-1.100000 0.442625
-1.050000 0.579661
-1.000000 0.517994
-0.950000 0.178832
-0.900000 0.048647
-0.850000 0.165128
-0.800000 0.120591
-0.750000 -0.016445
-0.700000 0.041795
-0.650000 0.106887
-0.600000 0.031518
-0.550000 0.055500
-0.500000 0.192535
-0.450000 0.230219
-0.400000 0.261053
-0.350000 0.401514
-0.300000 0.511142
-0.250000 0.521420
-0.200000 0.555679
-0.150000 0.600216
-0.100000 0.569383
-0.050000 0.490588
0.000000 0.422069
0.050000 0.380958
0.100000 0.343274
0.150000 0.254201
0.200000 0.113740
0.250000 0.072629
0.300000 0.151424
0.350000 0.124017
0.400000 0.017814
0.450000 0.100036
0.500000 0.336422
0.550000 0.466606
0.600000 0.521420
0.650000 0.682437
0.700000 0.829750
0.750000 0.826325
0.800000 0.843454
0.850000 0.983916
0.900000 1.141506
0.950000 1.312801
1.000000 1.627983
1.050000 2.104182
1.100000 2.737971
1.150000 3.645832
1.200000 4.913411
1.250000 6.482469
1.300000 8.353006
1.350000 10.569554
1.400000 13.063605
1.450000 15.677558
1.500000 18.356606
1.550000 21.141850
1.600000 23.992191
1.650000 26.763741
1.700000 29.391399
1.750000 31.936831
1.800000 34.365789
1.850000 36.568640
1.900000 38.538527
1.950000 40.354237
2.000000 42.015797
2.050000 43.427267
2.100000 44.537257
2.150000 45.332067
2.200000 45.845947
2.250000 46.068627
2.300000 45.914467
2.350000 45.318357
2.400000 44.362537
2.450000 43.132647
2.500000 41.601277
2.550000 39.785547
2.600000 37.781397
2.650000 35.616237
2.700000 33.307187
2.750000 30.981017
2.800000 28.682237
2.850000 26.335507
2.900000 23.985347
2.950000 21.813327
3.000000 19.843445
3.050000 17.996886
3.100000 16.345607
3.150000 15.016364
3.200000 13.978321
3.250000 13.176662
3.300000 12.666199
3.350000 12.494907
3.400000 12.566855
3.450000 12.813512
3.500000 13.279435
3.550000 13.978316
3.600000 14.769698
3.650000 15.547377
3.700000 16.304499
3.750000 17.051335
3.800000 17.729665
3.850000 18.291517
3.900000 18.726604
3.950000 18.997247
4.000000 19.093174
4.050000 19.058916
4.100000 18.884191
4.150000 18.527900
4.200000 18.003737
4.250000 17.359672
4.300000 16.588848
4.350000 15.698115
4.400000 14.745716
4.450000 13.769337
4.500000 12.744996
4.550000 11.676119
4.600000 10.627796
4.650000 9.647992
4.700000 8.750409
4.750000 7.952176
4.800000 7.263573
4.850000 6.712004
4.900000 6.311174
4.950000 6.030251
5.000000 5.821272
5.050000 5.691088
5.100000 5.649978
5.150000 5.684237
5.200000 5.783588
5.250000 5.934327
5.300000 6.095343
5.350000 6.273490
5.400000 6.509876
5.450000 6.780521
5.500000 7.013482
5.550000 7.232739
5.600000 7.475977
5.650000 7.715790
5.700000 7.924769
5.750000 8.092637
5.800000 8.181711
5.850000 8.174859
5.900000 8.137175
5.950000 8.072082
6.000000 7.931621
6.050000 7.708937
6.100000 7.448570
6.150000 7.164221
6.200000 6.849040
6.250000 6.503024
6.300000 6.126177
6.350000 5.715070
6.400000 5.300537
6.450000 4.903134
6.500000 4.492027
6.550000 4.074068
6.600000 3.690369
6.650000 3.351206
6.700000 3.049727
6.750000 2.796211
6.800000 2.618065
6.850000 2.532418
6.900000 2.467326
6.950000 2.405660
7.000000 2.385104
7.050000 2.426215
7.100000 2.474178
7.150000 2.484455
7.200000 2.484456
7.250000 2.508437
7.300000 2.522140
7.350000 2.549547
7.400000 2.607787
7.450000 2.686583
7.500000 2.758526
7.550000 2.861303
7.600000 3.018894
7.650000 3.176485
7.700000 3.303243
7.750000 3.423149
7.800000 3.539630
7.850000 3.608148
7.900000 3.608148
7.950000 3.556759
8.000000 3.481389
8.050000 3.358057
8.100000 3.176485
8.150000 2.991487
8.200000 2.816767
8.250000 2.607787
8.300000 2.395382
8.350000 2.224088
8.400000 2.056220
8.450000 1.860944
8.500000 1.706779
8.550000 1.607427
8.600000 1.508077
8.650000 1.405300
8.700000 1.340208
8.750000 1.278542
8.800000 1.216876
8.850000 1.189469
8.900000 1.172339
8.950000 1.138080
9.000000 1.144932
9.050000 1.192895
9.100000 1.199747
9.150000 1.189469
9.200000 1.220302
9.250000 1.254561
9.300000 1.254561
9.350000 1.247710
9.400000 1.251135
9.450000 1.199747
9.500000 1.103821
9.550000 1.025027
9.600000 0.973638
9.650000 0.905120
9.700000 0.826325
9.750000 0.788640
9.800000 0.802344
9.850000 0.829750
9.900000 0.867435
9.950000 0.946231
10.000000 1.069563
10.050000 1.172340
10.100000 1.223727
10.150000 1.271691
10.200000 1.319653
10.250000 1.285394
10.300000 1.162061
10.350000 1.025026
10.400000 0.901695
10.450000 0.768084
10.500000 0.617345
10.550000 0.511143
10.600000 0.446050
10.650000 0.380959
10.700000 0.305589
10.750000 0.261053
10.800000 0.250775
10.850000 0.254201
10.900000 0.250775
10.950000 0.254201
11.000000 0.267904
11.050000 0.274756
11.100000 0.278182
11.150000 0.298738
11.200000 0.336422
11.250000 0.367255
11.300000 0.404940
11.350000 0.463180
11.400000 0.497439
11.450000 0.487161
11.500000 0.470032
11.550000 0.442625
11.600000 0.374107
11.650000 0.302163
11.700000 0.240497
11.750000 0.141147
11.800000 0.017814
11.850000 -0.037000
11.900000 -0.026722
11.950000 -0.030148
12.000000 -0.019870
12.050000 0.052074
12.100000 0.117165
12.150000 0.144573
12.200000 0.209664
12.250000 0.291886
12.300000 0.305589
12.350000 0.285034
12.400000 0.285034
12.450000 0.243923
12.500000 0.144572
12.550000 0.048647
12.600000 -0.043852
12.650000 -0.163758
12.700000 -0.283664
12.750000 -0.355608
12.800000 -0.369311
12.850000 -0.345329
12.900000 -0.321348
12.950000 -0.287090
13.000000 -0.191164
13.050000 -0.047277
13.100000 0.093184
13.150000 0.247349
13.200000 0.418644
13.250000 0.535123
13.300000 0.576234
13.350000 0.603641
13.400000 0.631049
13.450000 0.624197
13.500000 0.596790
13.550000 0.586512
13.600000 0.569383
13.650000 0.524846
13.700000 0.480309
13.750000 0.452902
13.800000 0.415218
13.850000 0.356977
13.900000 0.291886
13.950000 0.223368
14.000000 0.151424
14.050000 0.072628
14.100000 -0.050704
14.150000 -0.194591
14.200000 -0.311071
14.250000 -0.393293
14.300000 -0.478940
14.350000 -0.520051
14.400000 -0.516624
14.450000 -0.506346
14.500000 -0.506347
14.550000 -0.465236
14.600000 -0.403570
14.650000 -0.386441
14.700000 -0.400144
14.750000 -0.424126
14.800000 -0.448107
14.850000 -0.472088
14.900000 -0.482366
14.950000 -0.475513
15.000000 -0.434403
15.050000 -0.345329
15.100000 -0.239127
15.150000 -0.102092
15.200000 0.069203
15.250000 0.243923
15.300000 0.384385
15.350000 0.528273
15.400000 0.655030
15.450000 0.675585
15.500000 0.610493
15.550000 0.524846
15.600000 0.380959
15.650000 0.137721
15.700000 -0.112369
15.750000 -0.304219
15.800000 -0.502921
15.850000 -0.718752
15.900000 -0.883195
15.950000 -0.975693
16.000000 -1.013379
16.050000 -0.989397
16.100000 -0.910601
16.150000 -0.804399
16.200000 -0.674215
16.250000 -0.561161
16.300000 -0.496069
16.350000 -0.441255
16.400000 -0.383015
16.450000 -0.379589
16.500000 -0.441255
16.550000 -0.492643
16.600000 -0.554309
16.650000 -0.646808
16.700000 -0.735881
16.750000 -0.794122
16.800000 -0.838658
16.850000 -0.866065
16.900000 -0.859214
16.950000 -0.838658
17.000000 -0.787270
17.050000 -0.725603
17.100000 -0.677642
17.150000 -0.622827
17.200000 -0.544031
17.250000 -0.513199
17.300000 -0.523476
17.350000 -0.530328
17.400000 -0.554309
17.450000 -0.622827
17.500000 -0.687919
17.550000 -0.715326
17.600000 -0.729029
17.650000 -0.735882
17.700000 -0.708474
17.750000 -0.657086
17.800000 -0.588568
17.850000 -0.506347
17.900000 -0.427552
17.950000 -0.348755
18.000000 -0.273386
18.050000 -0.235702
18.100000 -0.242554
18.150000 -0.273386
18.200000 -0.341904
18.250000 -0.454959
18.300000 -0.585142
18.350000 -0.705048
18.400000 -0.852362
18.450000 -1.009952
18.500000 -1.119581
18.550000 -1.164118
18.600000 -1.188099
18.650000 -1.174395
18.700000 -1.088748
18.750000 -0.944861
18.800000 -0.790695
18.850000 -0.650234
18.900000 -0.540605
18.950000 -0.444680
19.000000 -0.341904
19.050000 -0.290516
19.100000 -0.328200
19.150000 -0.393292
19.200000 -0.448107
19.250000 -0.544031
19.300000 -0.657086
19.350000 -0.725604
19.400000 -0.759863
19.450000 -0.794121
19.500000 -0.800973
19.550000 -0.773566
19.600000 -0.729029
19.650000 -0.667364
19.700000 -0.595420
19.750000 -0.540606
19.800000 -0.492643
19.850000 -0.448106
19.900000 -0.441254
19.950000 -0.472088
20.000000 -0.523476
20.050000 -0.591994
20.100000 -0.674215
20.150000 -0.735881
20.200000 -0.780418
20.250000 -0.835232
20.300000 -0.872917
20.350000 -0.890046
20.400000 -0.910601
20.450000 -0.927731
20.500000 -0.934583
20.550000 -0.920879
20.600000 -0.886621
20.650000 -0.848936
20.700000 -0.821529
20.750000 -0.800974
20.800000 -0.756437
20.850000 -0.708475
20.900000 -0.670790
20.950000 -0.643383
21.000000 -0.626253
21.050000 -0.643382
21.100000 -0.677641
21.150000 -0.722178
21.200000 -0.763289
21.250000 -0.831806
21.300000 -0.944861
21.350000 -1.051063
21.400000 -1.123007
21.450000 -1.205228
21.500000 -1.321708
21.550000 -1.397078
21.600000 -1.407355
21.650000 -1.410782
21.700000 -1.397078
21.750000 -1.349116
21.800000 -1.273746
21.850000 -1.181247
21.900000 -1.057915
21.950000 -0.924305
22.000000 -0.787269
22.050000 -0.657086
22.100000 -0.554309
22.150000 -0.478939
22.200000 -0.400144
22.250000 -0.314497
22.300000 -0.276812
22.350000 -0.293941
22.400000 -0.307645
22.450000 -0.304219
22.500000 -0.331627
22.550000 -0.365885
22.600000 -0.376163
22.650000 -0.386440
22.700000 -0.424125
22.750000 -0.448107
22.800000 -0.444681
22.850000 -0.482365
22.900000 -0.574865
22.950000 -0.670790
23.000000 -0.763288
23.050000 -0.900324
23.100000 -1.061341
23.150000 -1.194951
23.200000 -1.287450
23.250000 -1.366245
23.300000 -1.438189
23.350000 -1.441614
23.400000 -1.390227
23.450000 -1.311431
23.500000 -1.181247
23.550000 -1.006526
23.600000 -0.845509
23.650000 -0.722178
23.700000 -0.612550
23.750000 -0.530327
23.800000 -0.506346
23.850000 -0.526902
23.900000 -0.557735
23.950000 -0.622827
24.000000 -0.705048
24.050000 -0.749585
24.100000 -0.749585
24.150000 -0.718752
24.200000 -0.657085
24.250000 -0.557735
24.300000 -0.451533
24.350000 -0.341904
24.400000 -0.239127
24.450000 -0.146628
24.500000 -0.088388
24.550000 -0.060981
24.600000 -0.064407
24.650000 -0.102092
24.700000 -0.191165
24.750000 -0.314496
24.800000 -0.434403
24.850000 -0.540606
24.900000 -0.677641
24.950000 -0.824954
25.000000 -0.924305
25.050000 -1.003101
25.100000 -1.129859
25.150000 -1.246339
25.200000 -1.308005
25.250000 -1.355968
25.300000 -1.407356
25.350000 -1.417633
25.400000 -1.383375
25.450000 -1.342264
25.500000 -1.290876
25.550000 -1.205228
25.600000 -1.088748
25.650000 -0.975693
25.700000 -0.886621
25.750000 -0.814677
25.800000 -0.715326
25.850000 -0.605697
25.900000 -0.533754
25.950000 -0.489217
26.000000 -0.434403
26.050000 -0.393293
26.100000 -0.393292
26.150000 -0.403570
26.200000 -0.413848
26.250000 -0.437829
26.300000 -0.492643
26.350000 -0.564587
26.400000 -0.657086
26.450000 -0.766714
26.500000 -0.883194
26.550000 -0.985971
26.600000 -1.081896
26.650000 -1.184673
26.700000 -1.280598
26.750000 -1.349116
26.800000 -1.390227
26.850000 -1.455318
26.900000 -1.537540
26.950000 -1.558095
27.000000 -1.510133
27.050000 -1.475874
27.100000 -1.448466
27.150000 -1.373097
27.200000 -1.260042
27.250000 -1.136711
27.300000 -1.023656
27.350000 -0.924306
27.400000 -0.845510
27.450000 -0.756437
27.500000 -0.667364
27.550000 -0.598845
27.600000 -0.561160
27.650000 -0.550884
27.700000 -0.574864
27.750000 -0.609124
27.800000 -0.660512
27.850000 -0.753011
27.900000 -0.852361
27.950000 -0.903750
28.000000 -0.934583
28.050000 -0.965416
28.100000 -0.982546
28.150000 -0.979120
28.200000 -0.982545
28.250000 -0.965416
28.300000 -0.931157
28.350000 -0.914028
28.400000 -0.938009
28.450000 -0.975694
28.500000 -1.020231
28.550000 -1.068193
28.600000 -1.129858
28.650000 -1.188099
28.700000 -1.218932
28.750000 -1.222357
28.800000 -1.201803
28.850000 -1.184673
28.900000 -1.140136
28.950000 -1.064767
29.000000 -0.996249
29.050000 -0.955139
29.100000 -0.944861
29.150000 -0.948286
29.200000 -0.968841
29.250000 -0.999675
29.300000 -1.016805
29.350000 -1.020230
29.400000 -1.023657
29.450000 -1.037360
29.500000 -1.037359
29.550000 -0.975694
29.600000 -0.879768
29.650000 -0.821528
29.700000 -0.814677
29.750000 -0.797547
29.800000 -0.770140
29.850000 -0.787270
29.900000 -0.852361
29.950000 -0.920879
30.000000 -0.982545
30.050000 -1.057915
30.100000 -1.143562
30.150000 -1.201803
30.200000 -1.205228
30.250000 -1.174395
30.300000 -1.143562
30.350000 -1.092174
30.400000 -1.030508
30.450000 -1.009953
30.500000 -1.016805
30.550000 -1.006527
30.600000 -1.013378
30.650000 -1.068192
30.700000 -1.146988
30.750000 -1.236062
30.800000 -1.338838
30.850000 -1.414207
30.900000 -1.451893
30.950000 -1.472448
31.000000 -1.458744
31.050000 -1.379949
31.100000 -1.273746
31.150000 -1.160692
31.200000 -1.003101
31.250000 -0.842084
31.300000 -0.753011
31.350000 -0.687919
31.400000 -0.612549
31.450000 -0.595420
31.500000 -0.677641
31.550000 -0.797548
31.600000 -0.920880
31.650000 -1.068193
31.700000 -1.215506
31.750000 -1.328560
31.800000 -1.410781
31.850000 -1.462170
31.900000 -1.472448
31.950000 -1.438188
32.000000 -1.359394
32.050000 -1.246339
32.100000 -1.123007
32.150000 -0.999674
32.200000 -0.866065
32.250000 -0.746159
32.300000 -0.681067
32.350000 -0.633105
32.400000 -0.578290
32.450000 -0.578290
32.500000 -0.646808
32.550000 -0.708474
32.600000 -0.756437
32.650000 -0.852362
32.700000 -0.972268
32.750000 -1.040786
32.800000 -1.088748
32.850000 -1.157266
32.900000 -1.208654
32.950000 -1.201802
33.000000 -1.184673
33.050000 -1.167543
33.100000 -1.116155
33.150000 -1.044211
33.200000 -0.999675
33.250000 -1.006527
33.300000 -1.027082
33.350000 -1.057915
33.400000 -1.119581
33.450000 -1.201802
33.500000 -1.253191
33.550000 -1.266895
33.600000 -1.277172
33.650000 -1.263468
33.700000 -1.208655
33.750000 -1.140136
33.800000 -1.044212
33.850000 -0.931157
33.900000 -0.859214
33.950000 -0.842084
34.000000 -0.818103
34.050000 -0.828380
34.100000 -0.938009
34.150000 -1.078470
34.200000 -1.181248
34.250000 -1.318283
34.300000 -1.493003
34.350000 -1.602631
34.400000 -1.640316
34.450000 -1.636890
34.500000 -1.564947
34.550000 -1.410782
34.600000 -1.242913
34.650000 -1.061341
34.700000 -0.876343
34.750000 -0.722178
34.800000 -0.585142
34.850000 -0.448106
34.900000 -0.393292
34.950000 -0.410422
35.000000 -0.413848
35.050000 -0.454959
35.100000 -0.588568
35.150000 -0.739308
35.200000 -0.859213
35.250000 -1.003101
35.300000 -1.143562
35.350000 -1.198376
35.400000 -1.229210
35.450000 -1.263469
35.500000 -1.215506
35.550000 -1.112729
35.600000 -1.037360
35.650000 -0.955138
35.700000 -0.831806
35.750000 -0.729029
35.800000 -0.657085
35.850000 -0.588568
35.900000 -0.547457
35.950000 -0.537179
36.000000 -0.547458
36.050000 -0.588568
36.100000 -0.663937
36.150000 -0.735881
36.200000 -0.807825
36.250000 -0.907176
36.300000 -1.013378
36.350000 -1.099026
36.400000 -1.198377
36.450000 -1.321708
36.500000 -1.410782
36.550000 -1.455318
36.600000 -1.469022
36.650000 -1.465596
36.700000 -1.424485
36.750000 -1.321708
36.800000 -1.164118
36.850000 -0.968842
36.900000 -0.735882
36.950000 -0.468662
37.000000 -0.204868
37.050000 0.000685
37.100000 0.147998
37.150000 0.230219
37.200000 0.226794
37.250000 0.124017
37.300000 -0.054130
37.350000 -0.297368
37.400000 -0.585142
37.450000 -0.862639
37.500000 -1.126433
37.550000 -1.352542
37.600000 -1.472448
37.650000 -1.503281
37.700000 -1.496429
37.750000 -1.431337
37.800000 -1.287449
37.850000 -1.153840
37.900000 -1.068192
37.950000 -0.975694
38.000000 -0.900324
38.050000 -0.920880
38.100000 -1.013379
38.150000 -1.105878
38.200000 -1.222358
38.250000 -1.338838
38.300000 -1.431337
38.350000 -1.493003
38.400000 -1.523836
38.450000 -1.479299
38.500000 -1.376523
38.550000 -1.242914
38.600000 -1.085322
38.650000 -0.924305
38.700000 -0.797547
38.750000 -0.698197
38.800000 -0.636530
38.850000 -0.646808
38.900000 -0.701622
38.950000 -0.753011
39.000000 -0.818103
39.050000 -0.896898
39.100000 -0.951712
39.150000 -0.965416
39.200000 -0.938008
39.250000 -0.886621
39.300000 -0.828380
39.350000 -0.742733
39.400000 -0.622827
39.450000 -0.509773
39.500000 -0.437828
39.550000 -0.410422
39.600000 -0.430977
39.650000 -0.496069
39.700000 -0.591994
39.750000 -0.749585
39.800000 -0.924305
39.850000 -1.047638
39.900000 -1.109303
39.950000 -1.157266
40.000000 -1.181247
40.050000 -1.160692
40.100000 -1.088748
40.150000 -0.979120
40.200000 -0.862639
40.250000 -0.766714
40.300000 -0.681068
40.350000 -0.602271
40.400000 -0.578291
40.450000 -0.629678
40.500000 -0.725603
40.550000 -0.835232
40.600000 -0.955138
40.650000 -1.085322
40.700000 -1.198376
40.750000 -1.270320
40.800000 -1.294301
40.850000 -1.256616
40.900000 -1.140136
40.950000 -0.989397
41.000000 -0.848936
41.050000 -0.694770
41.100000 -0.533753
41.150000 -0.413848
41.200000 -0.352182
41.250000 -0.324775
41.300000 -0.341904
41.350000 -0.417274
41.400000 -0.499495
41.450000 -0.598846
41.500000 -0.742733
41.550000 -0.879768
41.600000 -0.951713
41.650000 -1.003101
41.700000 -1.054489
41.750000 -1.075045
41.800000 -1.051063
41.850000 -1.023656
41.900000 -0.992823
41.950000 -0.968842
42.000000 -0.968842
42.050000 -0.982545
42.100000 -0.985972
42.150000 -1.006527
42.200000 -1.040786
42.250000 -1.081896
42.300000 -1.143562
42.350000 -1.215506
42.400000 -1.277172
42.450000 -1.331986
42.500000 -1.400504
42.550000 -1.455318
42.600000 -1.465596
42.650000 -1.472448
42.700000 -1.486151
42.750000 -1.465596
42.800000 -1.400504
42.850000 -1.345689
42.900000 -1.318283
42.950000 -1.266895
43.000000 -1.188098
43.050000 -1.133284
43.100000 -1.112729
43.150000 -1.126433
43.200000 -1.153840
43.250000 -1.191525
43.300000 -1.263468
43.350000 -1.376523
43.400000 -1.458745
43.450000 -1.486151
43.500000 -1.503281
43.550000 -1.499855
43.600000 -1.403930
43.650000 -1.246339
43.700000 -1.099026
43.750000 -0.934583
43.800000 -0.729030
43.850000 -0.561161
43.900000 -0.461810
43.950000 -0.389866
44.000000 -0.369311
44.050000 -0.444681
44.100000 -0.591994
44.150000 -0.766714
44.200000 -0.958564
44.250000 -1.160691
44.300000 -1.345690
44.350000 -1.486151
44.400000 -1.554669
44.450000 -1.564947
44.500000 -1.534114
44.550000 -1.455318
44.600000 -1.325134
44.650000 -1.177821
44.700000 -1.033933
44.750000 -0.903750
44.800000 -0.797548
44.850000 -0.732455
44.900000 -0.698197
44.950000 -0.667363
45.000000 -0.643383
45.050000 -0.663938
45.100000 -0.732456
45.150000 -0.783844
45.200000 -0.790696
45.250000 -0.783844
45.300000 -0.804399
45.350000 -0.821529
45.400000 -0.814677
45.450000 -0.804399
45.500000 -0.794122
45.550000 -0.783844
45.600000 -0.766714
45.650000 -0.735882
45.700000 -0.694770
45.750000 -0.670789
45.800000 -0.660512
45.850000 -0.626252
45.900000 -0.591994
45.950000 -0.578290
46.000000 -0.544031
46.050000 -0.499495
46.100000 -0.478940
46.150000 -0.478940
46.200000 -0.465236
46.250000 -0.472088
46.300000 -0.523477
46.350000 -0.557735
46.400000 -0.581716
46.450000 -0.650234
46.500000 -0.739308
46.550000 -0.794122
46.600000 -0.821529
46.650000 -0.862640
46.700000 -0.903750
46.750000 -0.907176
46.800000 -0.855788
46.850000 -0.763288
46.900000 -0.684493
46.950000 -0.615976
47.000000 -0.502921
47.050000 -0.386440
47.100000 -0.338478
47.150000 -0.335052
47.200000 -0.338478
47.250000 -0.372737
47.300000 -0.444680
47.350000 -0.520050
47.400000 -0.602271
47.450000 -0.701622
47.500000 -0.800973
47.550000 -0.879768
47.600000 -0.941435
47.650000 -0.979120
47.700000 -1.006527
47.750000 -1.020230
47.800000 -1.003101
47.850000 -0.968842
47.900000 -0.951713
47.950000 -0.961990
48.000000 -0.975694
48.050000 -0.992823
48.100000 -1.020231
48.150000 -1.068193
48.200000 -1.116155
48.250000 -1.167544
48.300000 -1.215506
48.350000 -1.249765
48.400000 -1.256616
48.450000 -1.253191
48.500000 -1.249765
48.550000 -1.256617
48.600000 -1.249765
48.650000 -1.249765
48.700000 -1.253191
48.750000 -1.239487
48.800000 -1.201803
48.850000 -1.167543
48.900000 -1.140136
48.950000 -1.088748
49.000000 -1.013378
49.050000 -0.951712
49.100000 -0.914028
49.150000 -0.869491
49.200000 -0.818102
49.250000 -0.804399
49.300000 -0.828380
49.350000 -0.869491
49.400000 -0.941435
49.450000 -1.051063
49.500000 -1.191525
49.550000 -1.342264
49.600000 -1.475873
49.650000 -1.582077
49.700000 -1.647168
49.750000 -1.654020
49.800000 -1.612910
49.850000 -1.540966
49.900000 -1.448466
49.950000 -1.308005
50.000000 -1.150414
50.050000 -1.016804
50.100000 -0.917454
50.150000 -0.821528
50.200000 -0.735881
50.250000 -0.711900
50.300000 -0.735881
50.350000 -0.776992
50.400000 -0.835232
50.450000 -0.914028
50.500000 -0.985971
50.550000 -1.023656
50.600000 -1.044212
50.650000 -1.051063
50.700000 -1.044212
50.750000 -1.027082
50.800000 -0.992823
50.850000 -0.938008
50.900000 -0.893472
50.950000 -0.876343
51.000000 -0.866065
51.050000 -0.859214
51.100000 -0.879769
51.150000 -0.934583
51.200000 -0.992823
51.250000 -1.047637
51.300000 -1.088748
51.350000 -1.116155
51.400000 -1.126433
51.450000 -1.140137
51.500000 -1.140137
51.550000 -1.112729
51.600000 -1.051063
51.650000 -0.982545
51.700000 -0.920880
51.750000 -0.842084
51.800000 -0.766715
51.850000 -0.715326
51.900000 -0.681067
51.950000 -0.636531
52.000000 -0.585142
52.050000 -0.554309
52.100000 -0.564587
52.150000 -0.612549
52.200000 -0.670789
52.250000 -0.742733
52.300000 -0.824955
52.350000 -0.924306
52.400000 -1.040785
52.450000 -1.160692
52.500000 -1.287450
52.550000 -1.397078
52.600000 -1.465596
52.650000 -1.486151
52.700000 -1.482725
52.750000 -1.462170
52.800000 -1.421059
52.850000 -1.366246
52.900000 -1.301153
52.950000 -1.212080
53.000000 -1.095600
53.050000 -0.965416
53.100000 -0.842084
53.150000 -0.735882
53.200000 -0.643383
53.250000 -0.585143
53.300000 -0.571438
53.350000 -0.605698
53.400000 -0.677641
53.450000 -0.783844
53.500000 -0.920880
53.550000 -1.081896
53.600000 -1.236061
53.650000 -1.355968
53.700000 -1.451892
53.750000 -1.506706
53.800000 -1.506707
53.850000 -1.465596
53.900000 -1.379949
53.950000 -1.249765
54.000000 -1.112729
54.050000 -1.006527
54.100000 -0.907176
54.150000 -0.804399
54.200000 -0.763288
54.250000 -0.783844
54.300000 -0.814677
54.350000 -0.845510
54.400000 -0.896899
54.450000 -0.955138
54.500000 -1.009953
54.550000 -1.047638
54.600000 -1.061341
54.650000 -1.054489
54.700000 -1.047637
54.750000 -1.027082
54.800000 -0.965416
54.850000 -0.890047
54.900000 -0.831807
54.950000 -0.766714
55.000000 -0.670790
55.050000 -0.602272
55.100000 -0.557735
55.150000 -0.499495
55.200000 -0.444681
55.250000 -0.448107
55.300000 -0.492643
55.350000 -0.537180
55.400000 -0.598846
55.450000 -0.708475
55.500000 -0.824955
55.550000 -0.914027
55.600000 -1.003101
55.650000 -1.112729
55.700000 -1.201802
55.750000 -1.246339
55.800000 -1.280598
55.850000 -1.304579
55.900000 -1.297727
55.950000 -1.270320
56.000000 -1.236061
56.050000 -1.184673
56.100000 -1.112729
56.150000 -1.037360
56.200000 -0.961990
56.250000 -0.917454
56.300000 -0.907176
56.350000 -0.900324
56.400000 -0.890046
56.450000 -0.910601
56.500000 -0.965416
56.550000 -1.030508
56.600000 -1.075044
56.650000 -1.119581
56.700000 -1.167544
56.750000 -1.201802
56.800000 -1.194951
56.850000 -1.150414
56.900000 -1.109303
56.950000 -1.085322
57.000000 -1.061341
57.050000 -1.047638
57.100000 -1.037359
57.150000 -1.047637
57.200000 -1.105877
57.250000 -1.208654
57.300000 -1.294302
57.350000 -1.342263
57.400000 -1.373097
57.450000 -1.407356
57.500000 -1.400504
57.550000 -1.349116
57.600000 -1.280598
57.650000 -1.188098
57.700000 -1.081896
57.750000 -0.992823
57.800000 -0.893472
57.850000 -0.797547
57.900000 -0.749585
57.950000 -0.753011
58.000000 -0.753011
58.050000 -0.749585
58.100000 -0.780418
58.150000 -0.814677
58.200000 -0.814677
58.250000 -0.797547
58.300000 -0.780418
58.350000 -0.732455
58.400000 -0.653660
58.450000 -0.578290
58.500000 -0.509772
58.550000 -0.468662
58.600000 -0.465236
58.650000 -0.489217
58.700000 -0.523477
58.750000 -0.571438
58.800000 -0.636531
58.850000 -0.701623
58.900000 -0.776992
58.950000 -0.842084
59.000000 -0.869491
59.050000 -0.879769
59.100000 -0.920879
59.150000 -0.961990
59.200000 -0.965416
59.250000 -0.958564
59.300000 -0.961990
59.350000 -0.958564
59.400000 -0.938009
59.450000 -0.903750
59.500000 -0.855788
59.550000 -0.790695
59.600000 -0.718752
59.650000 -0.653660
59.700000 -0.598846
59.750000 -0.533754
59.800000 -0.451532
59.850000 -0.365886
59.900000 -0.307645
59.950000 -0.273386
60.000000 -0.266534
60.050000 -0.297367
60.100000 -0.379589
60.150000 -0.492643
60.200000 -0.622827
60.250000 -0.780418
60.300000 -0.948287
60.350000 -1.092174
60.400000 -1.205229
60.450000 -1.301153
60.500000 -1.359394
60.550000 -1.373097
60.600000 -1.349115
60.650000 -1.284024
60.700000 -1.198376
60.750000 -1.133284
60.800000 -1.085322
60.850000 -1.013378
60.900000 -0.958564
60.950000 -0.958564
61.000000 -0.972267
61.050000 -0.972267
61.100000 -0.972268
61.150000 -0.944861
61.200000 -0.900324
61.250000 -0.859213
61.300000 -0.804399
61.350000 -0.711900
61.400000 -0.626253
61.450000 -0.581716
61.500000 -0.533754
61.550000 -0.472087
61.600000 -0.417273
61.650000 -0.369311
61.700000 -0.338478
61.750000 -0.328200
61.800000 -0.314497
61.850000 -0.314497
61.900000 -0.352182
61.950000 -0.400144
62.000000 -0.424126
62.050000 -0.468662
62.100000 -0.557735
62.150000 -0.626252
62.200000 -0.674216
62.250000 -0.742733
62.300000 -0.814676
62.350000 -0.866065
62.400000 -0.914028
62.450000 -0.961990
62.500000 -0.979120
62.550000 -0.979120
62.600000 -0.968841
62.650000 -0.903750
62.700000 -0.811251
62.750000 -0.759863
62.800000 -0.708474
62.850000 -0.609124
62.900000 -0.520050
62.950000 -0.485792
63.000000 -0.468662
63.050000 -0.441255
63.100000 -0.454958
63.150000 -0.509773
63.200000 -0.595420
63.250000 -0.735881
63.300000 -0.893473
63.350000 -1.023656
63.400000 -1.140136
63.450000 -1.249765
63.500000 -1.301153
63.550000 -1.280598
63.600000 -1.205228
63.650000 -1.075045
63.700000 -0.914028
63.750000 -0.763289
63.800000 -0.622827
63.850000 -0.513199
63.900000 -0.472088
63.950000 -0.492644
64.000000 -0.564587
64.050000 -0.681067
64.100000 -0.821529
64.150000 -0.979120
64.200000 -1.133285
64.250000 -1.232635
64.300000 -1.270320
64.350000 -1.253191
64.400000 -1.174395
64.450000 -1.033933
64.500000 -0.872917
64.550000 -0.715326
64.600000 -0.547458
64.650000 -0.424126
64.700000 -0.372737
64.750000 -0.359033
64.800000 -0.379589
64.850000 -0.475513
64.900000 -0.629679
64.950000 -0.773566
65.000000 -0.896898
65.050000 -1.033934
65.100000 -1.150414
65.150000 -1.218932
65.200000 -1.239488
65.250000 -1.222358
65.300000 -1.164117
65.350000 -1.075045
65.400000 -0.968842
65.450000 -0.876343
65.500000 -0.821529
65.550000 -0.766714
65.600000 -0.691345
65.650000 -0.643382
65.700000 -0.657086
65.750000 -0.687919
65.800000 -0.718752
65.850000 -0.753011
65.900000 -0.787270
65.950000 -0.821529
66.000000 -0.852362
66.050000 -0.869491
66.100000 -0.869491
66.150000 -0.893472
66.200000 -0.938009
66.250000 -0.989397
66.300000 -1.047638
66.350000 -1.123007
66.400000 -1.212080
66.450000 -1.308005
66.500000 -1.407356
66.550000 -1.486152
66.600000 -1.537540
66.650000 -1.558095
66.700000 -1.547817
66.750000 -1.493003
66.800000 -1.393652
66.850000 -1.273746
66.900000 -1.129859
66.950000 -0.948287
67.000000 -0.753011
67.050000 -0.574864
67.100000 -0.413847
67.150000 -0.276812
67.200000 -0.167183
67.250000 -0.108943
67.300000 -0.105517
67.350000 -0.163757
67.400000 -0.266535
67.450000 -0.389866
67.500000 -0.544031
67.550000 -0.735881
67.600000 -0.938009
67.650000 -1.119581
67.700000 -1.294302
67.750000 -1.451892
67.800000 -1.564947
67.850000 -1.633465
67.900000 -1.681427
67.950000 -1.678002
68.000000 -1.599205
68.050000 -1.486151
68.100000 -1.352542
68.150000 -1.177821
68.200000 -0.961990
68.250000 -0.753011
68.300000 -0.561161
68.350000 -0.403570
68.400000 -0.293942
68.450000 -0.218572
68.500000 -0.167184
68.550000 -0.146629
68.600000 -0.156906
68.650000 -0.198016
68.700000 -0.290516
68.750000 -0.389866
68.800000 -0.448107
68.850000 -0.485791
68.900000 -0.526902
68.950000 -0.547457
69.000000 -0.554309
69.050000 -0.574865
69.100000 -0.585142
69.150000 -0.578291
69.200000 -0.571439
69.250000 -0.602272
69.300000 -0.646808
69.350000 -0.646808
69.400000 -0.615975
69.450000 -0.626253
69.500000 -0.687919
69.550000 -0.722177
69.600000 -0.729029
69.650000 -0.773566
69.700000 -0.859213
69.750000 -0.910602
69.800000 -0.927732
69.850000 -0.968842
69.900000 -1.033934
69.950000 -1.071618
70.000000 -1.061341
70.050000 -1.040786
70.100000 -1.037360
70.150000 -1.030508
70.200000 -0.989398
70.250000 -0.914028
70.300000 -0.855788
70.350000 -0.818103
70.400000 -0.770140
70.450000 -0.722178
70.500000 -0.687919
70.550000 -0.663938
70.600000 -0.636530
70.650000 -0.615976
70.700000 -0.602272
70.750000 -0.578291
70.800000 -0.557735
70.850000 -0.550883
70.900000 -0.550883
70.950000 -0.568013
71.000000 -0.629678
71.050000 -0.729029
71.100000 -0.835232
71.150000 -0.934583
71.200000 -1.027082
71.250000 -1.119581
71.300000 -1.198376
71.350000 -1.239487
71.400000 -1.242913
71.450000 -1.218931
71.500000 -1.164117
71.550000 -1.075044
71.600000 -0.979120
71.650000 -0.886621
71.700000 -0.787269
71.750000 -0.694771
71.800000 -0.639957
71.850000 -0.619402
71.900000 -0.622827
71.950000 -0.646808
72.000000 -0.677642
72.050000 -0.691345
72.100000 -0.698197
72.150000 -0.701622
72.200000 -0.691345
72.250000 -0.660512
72.300000 -0.615975
72.350000 -0.561161
72.400000 -0.540606
72.450000 -0.550883
72.500000 -0.554309
72.550000 -0.568013
72.600000 -0.633104
72.650000 -0.711900
72.700000 -0.763289
72.750000 -0.814677
72.800000 -0.862639
72.850000 -0.866065
72.900000 -0.848936
72.950000 -0.828380
73.000000 -0.756437
73.050000 -0.667363
73.100000 -0.629679
73.150000 -0.622827
73.200000 -0.602272
73.250000 -0.622827
73.300000 -0.701622
73.350000 -0.787270
73.400000 -0.893472
73.450000 -1.027082
73.500000 -1.129859
73.550000 -1.184673
73.600000 -1.236062
73.650000 -1.253190
73.700000 -1.184673
73.750000 -1.099026
73.800000 -1.023656
73.850000 -0.924306
73.900000 -0.835232
73.950000 -0.811251
74.000000 -0.811251
74.050000 -0.807825
74.100000 -0.859213
74.150000 -0.944861
74.200000 -1.013379
74.250000 -1.071619
74.300000 -1.119581
74.350000 -1.119581
74.400000 -1.081897
74.450000 -1.030508
74.500000 -0.958564
74.550000 -0.883194
74.600000 -0.831807
74.650000 -0.783844
74.700000 -0.735881
74.750000 -0.732455
74.800000 -0.722177
74.850000 -0.670789
74.900000 -0.653660
74.950000 -0.670789
75.000000 -0.650234
75.050000 -0.598845
75.100000 -0.585142
75.150000 -0.581717
75.200000 -0.544031
75.250000 -0.523476
75.300000 -0.526902
75.350000 -0.523476
75.400000 -0.516624
75.450000 -0.526902
75.500000 -0.537180
75.550000 -0.526902
75.600000 -0.523476
75.650000 -0.513199
75.700000 -0.506347
75.750000 -0.506347
75.800000 -0.513199
75.850000 -0.537180
75.900000 -0.585142
75.950000 -0.619401
76.000000 -0.639956
76.050000 -0.701623
76.100000 -0.780418
76.150000 -0.821528
76.200000 -0.855787
76.250000 -0.938009
76.300000 -1.013378
76.350000 -1.033934
76.400000 -1.057915
76.450000 -1.088748
76.500000 -1.085323
76.550000 -1.057915
76.600000 -1.033934
76.650000 -0.985972
76.700000 -0.920879
76.750000 -0.852361
76.800000 -0.753011
76.850000 -0.657086
76.900000 -0.585143
76.950000 -0.492644
77.000000 -0.396718
77.050000 -0.359033
77.100000 -0.348755
77.150000 -0.321349
77.200000 -0.311070
77.250000 -0.338478
77.300000 -0.359034
77.350000 -0.379589
77.400000 -0.420699
77.450000 -0.448107
77.500000 -0.448106
77.550000 -0.465236
77.600000 -0.485791
77.650000 -0.478940
77.700000 -0.478940
77.750000 -0.506346
77.800000 -0.544031
77.850000 -0.598846
77.900000 -0.663938
77.950000 -0.732456
78.000000 -0.807825
78.050000 -0.920879
78.100000 -1.051063
78.150000 -1.174396
78.200000 -1.290875
78.250000 -1.390226
78.300000 -1.458745
78.350000 -1.496429
78.400000 -1.482725
78.450000 -1.421059
78.500000 -1.331987
78.550000 -1.249765
78.600000 -1.146988
78.650000 -1.033934
78.700000 -0.934583
78.750000 -0.862639
78.800000 -0.804399
78.850000 -0.773566
78.900000 -0.783844
78.950000 -0.804399
79.000000 -0.828380
79.050000 -0.842084
79.100000 -0.831806
79.150000 -0.807825
79.200000 -0.787270
79.250000 -0.763288
79.300000 -0.701623
79.350000 -0.639956
79.400000 -0.633104
79.450000 -0.650234
79.500000 -0.657086
79.550000 -0.687919
79.600000 -0.759863
79.650000 -0.828380
79.700000 -0.869491
79.750000 -0.893472
79.800000 -0.917454
79.850000 -0.955138
79.900000 -0.989397
79.950000 -0.972267
80.000000 -0.914028
80.050000 -0.852362
80.100000 -0.790696
80.150000 -0.711900
80.200000 -0.636530
80.250000 -0.578291
80.300000 -0.530328
80.350000 -0.475514
80.400000 -0.441254
80.450000 -0.441254
80.500000 -0.482366
80.550000 -0.523476
80.600000 -0.547457
80.650000 -0.581716
80.700000 -0.633105
80.750000 -0.681068
80.800000 -0.715326
80.850000 -0.756436
80.900000 -0.800973
80.950000 -0.814677
81.000000 -0.800973
81.050000 -0.787270
81.100000 -0.746159
81.150000 -0.681067
81.200000 -0.602272
81.250000 -0.506347
81.300000 -0.420700
81.350000 -0.365885
81.400000 -0.328200
81.450000 -0.290515
81.500000 -0.290516
81.550000 -0.311071
81.600000 -0.341904
81.650000 -0.420699
81.700000 -0.557736
81.750000 -0.681067
81.800000 -0.766714
81.850000 -0.855787
81.900000 -0.955138
81.950000 -1.023656
82.000000 -1.037360
82.050000 -1.037360
82.100000 -1.033934
82.150000 -1.016804
82.200000 -0.972268
82.250000 -0.920879
82.300000 -0.879768
82.350000 -0.848936
82.400000 -0.807825
82.450000 -0.763288
82.500000 -0.732455
82.550000 -0.691345
82.600000 -0.653660
82.650000 -0.643382
82.700000 -0.650235
82.750000 -0.646808
82.800000 -0.626253
82.850000 -0.598846
82.900000 -0.557735
82.950000 -0.520051
83.000000 -0.489218
83.050000 -0.465236
83.100000 -0.461810
83.150000 -0.485791
83.200000 -0.506346
83.250000 -0.509773
83.300000 -0.530328
83.350000 -0.547458
83.400000 -0.520050
83.450000 -0.496069
83.500000 -0.489217
83.550000 -0.451533
83.600000 -0.362459
83.650000 -0.259682
83.700000 -0.153480
83.750000 -0.057555
83.800000 0.014388
83.850000 0.076055
83.900000 0.127443
83.950000 0.100036
84.000000 0.014389
84.050000 -0.081536
84.100000 -0.218572
84.150000 -0.413847
84.200000 -0.568013
84.250000 -0.653660
84.300000 -0.729030
84.350000 -0.780418
84.400000 -0.756437
84.450000 -0.705048
84.500000 -0.674215
84.550000 -0.615975
84.600000 -0.509772
84.650000 -0.437829
84.700000 -0.434403
84.750000 -0.451532
84.800000 -0.451533
84.850000 -0.472088
84.900000 -0.526902
84.950000 -0.578291
85.000000 -0.615975
85.050000 -0.646808
85.100000 -0.653660
85.150000 -0.615975
85.200000 -0.588568
85.250000 -0.595419
85.300000 -0.633105
85.350000 -0.691345
85.400000 -0.756436
85.450000 -0.842084
85.500000 -0.975693
85.550000 -1.119581
85.600000 -1.208654
85.650000 -1.253191
85.700000 -1.311431
85.750000 -1.352541
85.800000 -1.331986
85.850000 -1.256617
85.900000 -1.157265
85.950000 -1.027082
86.000000 -0.872917
86.050000 -0.722177
86.100000 -0.602272
86.150000 -0.502920
86.200000 -0.427552
86.250000 -0.403570
86.300000 -0.427551
86.350000 -0.475514
86.400000 -0.554309
86.450000 -0.660512
86.500000 -0.763289
86.550000 -0.838658
86.600000 -0.900324
86.650000 -0.934583
86.700000 -0.934583
86.750000 -0.927732
86.800000 -0.879768
86.850000 -0.773566
86.900000 -0.650234
86.950000 -0.550883
87.000000 -0.451533
87.050000 -0.362459
87.100000 -0.293941
87.150000 -0.259683
87.200000 -0.276812
87.250000 -0.331626
87.300000 -0.410422
87.350000 -0.496069
87.400000 -0.609124
87.450000 -0.725604
87.500000 -0.831806
87.550000 -0.927731
87.600000 -0.999674
87.650000 -1.037359
87.700000 -1.068193
87.750000 -1.081896
87.800000 -1.040785
87.850000 -0.992824
87.900000 -0.965416
87.950000 -0.910601
88.000000 -0.818103
88.050000 -0.746159
88.100000 -0.687918
88.150000 -0.619401
88.200000 -0.554309
88.250000 -0.520050
88.300000 -0.523477
88.350000 -0.554309
88.400000 -0.612549
88.450000 -0.677641
88.500000 -0.756437
88.550000 -0.859213
88.600000 -0.985971
88.650000 -1.126433
88.700000 -1.256616
88.750000 -1.345690
88.800000 -1.386800
88.850000 -1.400504
88.900000 -1.379949
88.950000 -1.301153
89.000000 -1.177821
89.050000 -1.054489
89.100000 -0.948286
89.150000 -0.838658
89.200000 -0.718752
89.250000 -0.619401
89.300000 -0.574865
89.350000 -0.581716
89.400000 -0.622827
89.450000 -0.677641
89.500000 -0.753011
89.550000 -0.848936
89.600000 -0.917454
89.650000 -0.944861
89.700000 -0.968842
89.750000 -0.972268
89.800000 -0.920880
89.850000 -0.862639
89.900000 -0.821529
89.950000 -0.759863
90.000000 -0.698196
90.050000 -0.691345
90.100000 -0.715326
90.150000 -0.718752
90.200000 -0.749585
90.250000 -0.838658
90.300000 -0.931157
90.350000 -1.013378
90.400000 -1.095600
90.450000 -1.164117
90.500000 -1.208655
90.550000 -1.229209
90.600000 -1.232635
90.650000 -1.239487
90.700000 -1.222358
90.750000 -1.143563
90.800000 -1.033934
90.850000 -0.958564
90.900000 -0.893472
90.950000 -0.770140
91.000000 -0.636530
91.050000 -0.571439
91.100000 -0.540606
91.150000 -0.496069
91.200000 -0.441255
91.250000 -0.424125
91.300000 -0.448107
91.350000 -0.472088
91.400000 -0.465236
91.450000 -0.478939
91.500000 -0.533754
91.550000 -0.574864
91.600000 -0.557735
91.650000 -0.550883
91.700000 -0.554309
91.750000 -0.520051
91.800000 -0.468662
91.850000 -0.472088
91.900000 -0.506346
91.950000 -0.533754
92.000000 -0.591994
92.050000 -0.694770
92.100000 -0.797547
92.150000 -0.876342
92.200000 -0.931157
92.250000 -0.958565
92.300000 -0.982545
92.350000 -0.992823
92.400000 -0.968842
92.450000 -0.927731
92.500000 -0.896898
92.550000 -0.855787
92.600000 -0.814677
92.650000 -0.818103
92.700000 -0.838658
92.750000 -0.835232
92.800000 -0.869491
92.850000 -0.958564
92.900000 -1.016805
92.950000 -0.999675
93.000000 -0.989397
93.050000 -0.979119
93.100000 -0.924305
93.150000 -0.845510
93.200000 -0.770141
93.250000 -0.684493
93.300000 -0.598846
93.350000 -0.537180
93.400000 -0.499495
93.450000 -0.499495
93.500000 -0.533754
93.550000 -0.564587
93.600000 -0.581716
93.650000 -0.636530
93.700000 -0.711900
93.750000 -0.749585
93.800000 -0.756437
93.850000 -0.773566
93.900000 -0.766714
93.950000 -0.718752
94.000000 -0.646808
94.050000 -0.595420
94.100000 -0.574864
94.150000 -0.557735
94.200000 -0.520050
94.250000 -0.499494
94.300000 -0.523477
94.350000 -0.568013
94.400000 -0.602271
94.450000 -0.636531
94.500000 -0.657086
94.550000 -0.639957
94.600000 -0.602272
94.650000 -0.554309
94.700000 -0.475514
94.750000 -0.400144
94.800000 -0.341904
94.850000 -0.283664
94.900000 -0.228850
94.950000 -0.198017
95.000000 -0.191165
95.050000 -0.201442
95.100000 -0.235701
95.150000 -0.249405
95.200000 -0.232275
95.250000 -0.221998
95.300000 -0.228849
95.350000 -0.208295
95.400000 -0.156906
95.450000 -0.105517
95.500000 -0.054129
95.550000 -0.016444
95.600000 -0.030148
95.650000 -0.091814
95.700000 -0.177461
95.750000 -0.307645
95.800000 -0.489217
95.850000 -0.711900
95.900000 -0.948287
95.950000 -1.174395
96.000000 -1.369671
96.050000 -1.534113
96.100000 -1.657446
96.150000 -1.722538
96.200000 -1.708834
96.250000 -1.643742
96.300000 -1.537540
96.350000 -1.379949
96.400000 -1.194951
96.450000 -1.020230
96.500000 -0.845510
96.550000 -0.674215
96.600000 -0.550883
96.650000 -0.499495
96.700000 -0.506347
96.750000 -0.530328
96.800000 -0.564587
96.850000 -0.605698
96.900000 -0.663937
96.950000 -0.711900
97.000000 -0.722178
97.050000 -0.711900
97.100000 -0.711900
97.150000 -0.694770
97.200000 -0.650234
97.250000 -0.619401
97.300000 -0.588569
97.350000 -0.547457
97.400000 -0.526902
97.450000 -0.550883
97.500000 -0.574864
97.550000 -0.574864
97.600000 -0.588568
97.650000 -0.585142
97.700000 -0.540606
97.750000 -0.482366
97.800000 -0.430978
97.850000 -0.386441
97.900000 -0.335052
97.950000 -0.283664
98.000000 -0.252831
98.050000 -0.263108
98.100000 -0.304219
98.150000 -0.355607
98.200000 -0.413847
98.250000 -0.489217
98.300000 -0.557735
98.350000 -0.626253
98.400000 -0.701622
98.450000 -0.776992
98.500000 -0.831807
98.550000 -0.866065
98.600000 -0.842084
98.650000 -0.783844
98.700000 -0.742733
98.750000 -0.691345
98.800000 -0.588568
98.850000 -0.485791
98.900000 -0.444681
98.950000 -0.420699
99.000000 -0.379589
99.050000 -0.355607
99.100000 -0.372737
99.150000 -0.406996
99.200000 -0.468662
99.250000 -0.557735
99.300000 -0.643382
99.350000 -0.701622
99.400000 -0.756437
99.450000 -0.794122
99.500000 -0.776992
99.550000 -0.718752
99.600000 -0.653660
99.650000 -0.585143
99.700000 -0.496069
99.750000 -0.417273
99.800000 -0.372737
99.850000 -0.355608
99.900000 -0.352181
99.950000 -0.365885
100.000000 -0.386440
100.050000 -0.441255
100.100000 -0.520050
100.150000 -0.581717
100.200000 -0.609124
100.250000 -0.629678
100.300000 -0.626253
100.350000 -0.568012
100.400000 -0.478939
100.450000 -0.379589
100.500000 -0.293942
100.550000 -0.215146
100.600000 -0.156906
100.650000 -0.129499
100.700000 -0.112369
100.750000 -0.102091
100.800000 -0.115795
100.850000 -0.163757
100.900000 -0.242553
100.950000 -0.324775
101.000000 -0.403570
101.050000 -0.502921
101.100000 -0.626253
101.150000 -0.746159
101.200000 -0.842084
101.250000 -0.917454
101.300000 -0.979120
101.350000 -1.030508
101.400000 -1.057915
101.450000 -1.061341
101.500000 -1.030508
101.550000 -0.941434
101.600000 -0.787269
101.650000 -0.636530
101.700000 -0.526902
101.750000 -0.403570
101.800000 -0.245979
101.850000 -0.143202
101.900000 -0.115795
101.950000 -0.119221
102.000000 -0.132925
102.050000 -0.194591
102.100000 -0.311071
102.150000 -0.424126
102.200000 -0.530328
102.250000 -0.657085
102.300000 -0.780418
102.350000 -0.859214
102.400000 -0.896898
102.450000 -0.931157
102.500000 -0.968842
102.550000 -0.979119
102.600000 -0.965416
102.650000 -0.934583
102.700000 -0.907176
102.750000 -0.869491
102.800000 -0.818102
102.850000 -0.756436
102.900000 -0.687919
102.950000 -0.615975
103.000000 -0.544031
103.050000 -0.485791
103.100000 -0.444681
103.150000 -0.424126
103.200000 -0.430977
103.250000 -0.448107
103.300000 -0.482366
103.350000 -0.537180
103.400000 -0.612549
103.450000 -0.681067
103.500000 -0.722177
103.550000 -0.742733
103.600000 -0.756437
103.650000 -0.753011
103.700000 -0.718751
103.750000 -0.667363
103.800000 -0.609124
103.850000 -0.547458
103.900000 -0.509772
103.950000 -0.499495
104.000000 -0.513198
104.050000 -0.561161
104.100000 -0.657086
104.150000 -0.746159
104.200000 -0.828380
104.250000 -0.934583
104.300000 -1.051063
104.350000 -1.116155
104.400000 -1.129858
104.450000 -1.146988
104.500000 -1.146988
104.550000 -1.092174
104.600000 -0.985971
104.650000 -0.866065
104.700000 -0.725604
104.750000 -0.588568
104.800000 -0.485791
104.850000 -0.406996
104.900000 -0.338478
104.950000 -0.328200
105.000000 -0.376163
105.050000 -0.441255
105.100000 -0.516624
105.150000 -0.622827
105.200000 -0.729030
105.250000 -0.811251
105.300000 -0.866065
105.350000 -0.903750
105.400000 -0.914028
105.450000 -0.872917
105.500000 -0.776992
105.550000 -0.657086
105.600000 -0.585143
105.650000 -0.547457
105.700000 -0.520050
105.750000 -0.537179
105.800000 -0.605698
105.850000 -0.684493
105.900000 -0.770140
105.950000 -0.872917
106.000000 -0.934582
106.050000 -0.931157
106.100000 -0.914028
106.150000 -0.848936
106.200000 -0.708474
106.250000 -0.557735
106.300000 -0.434403
106.350000 -0.304219
106.400000 -0.170610
106.450000 -0.095240
106.500000 -0.091814
106.550000 -0.143203
106.600000 -0.228850
106.650000 -0.338478
106.700000 -0.465236
106.750000 -0.612550
106.800000 -0.739307
106.850000 -0.804399
106.900000 -0.831806
106.950000 -0.842084
107.000000 -0.811251
107.050000 -0.753011
107.100000 -0.691345
107.150000 -0.612549
107.200000 -0.523476
107.250000 -0.482365
107.300000 -0.496069
107.350000 -0.537180
107.400000 -0.615975
107.450000 -0.729030
107.500000 -0.835232
107.550000 -0.927731
107.600000 -1.027082
107.650000 -1.095600
107.700000 -1.081896
107.750000 -1.016805
107.800000 -0.927731
107.850000 -0.800974
107.900000 -0.626253
107.950000 -0.468662
108.000000 -0.345329
108.050000 -0.245979
108.100000 -0.194590
108.150000 -0.204869
108.200000 -0.263108
108.250000 -0.355608
108.300000 -0.492644
108.350000 -0.646808
108.400000 -0.790696
108.450000 -0.927731
108.500000 -1.020230
108.550000 -1.020231
108.600000 -0.968842
108.650000 -0.924305
108.700000 -0.879769
108.750000 -0.794121
108.800000 -0.694771
108.850000 -0.615975
108.900000 -0.568013
108.950000 -0.537180
109.000000 -0.523476
109.050000 -0.520050
109.100000 -0.537180
109.150000 -0.564587
109.200000 -0.588568
109.250000 -0.595420
109.300000 -0.605697
109.350000 -0.622827
109.400000 -0.653660
109.450000 -0.694770
109.500000 -0.746159
109.550000 -0.783844
109.600000 -0.814677
109.650000 -0.855787
109.700000 -0.900324
109.750000 -0.914027
109.800000 -0.890046
109.850000 -0.845510
109.900000 -0.790695
109.950000 -0.718751
110.000000 -0.612549
110.050000 -0.502921
110.100000 -0.424125
110.150000 -0.352182
110.200000 -0.263109
110.250000 -0.228850
110.300000 -0.263108
110.350000 -0.324775
110.400000 -0.389866
110.450000 -0.489217
110.500000 -0.609123
110.550000 -0.732455
110.600000 -0.842084
110.650000 -0.941434
110.700000 -1.030508
110.750000 -1.095600
110.800000 -1.123007
110.850000 -1.116155
110.900000 -1.085323
110.950000 -1.033934
111.000000 -0.958564
111.050000 -0.876343
111.100000 -0.790696
111.150000 -0.687919
111.200000 -0.598846
111.250000 -0.554309
111.300000 -0.533754
111.350000 -0.523476
111.400000 -0.530327
111.450000 -0.550884
111.500000 -0.585142
111.550000 -0.650235
111.600000 -0.739307
111.650000 -0.811251
111.700000 -0.866065
111.750000 -0.920879
111.800000 -0.951713
111.850000 -0.968842
111.900000 -0.996249
111.950000 -1.013379
112.000000 -1.003101
112.050000 -0.999675
112.100000 -1.023657
112.150000 -1.027082
112.200000 -0.989397
112.250000 -0.958564
112.300000 -0.941435
112.350000 -0.907175
112.400000 -0.855788
112.450000 -0.800973
112.500000 -0.753010
112.550000 -0.711900
112.600000 -0.681067
112.650000 -0.681067
112.700000 -0.715326
112.750000 -0.759863
112.800000 -0.811251
112.850000 -0.872917
112.900000 -0.961990
112.950000 -1.027082
113.000000 -1.075045
113.050000 -1.129858
113.100000 -1.188099
113.150000 -1.201802
113.200000 -1.184673
113.250000 -1.160692
113.300000 -1.123007
113.350000 -1.088748
113.400000 -1.081896
113.450000 -1.085322
113.500000 -1.088748
113.550000 -1.116155
113.600000 -1.136710
113.650000 -1.136711
113.700000 -1.150414
113.750000 -1.170970
113.800000 -1.153840
113.850000 -1.105877
113.900000 -1.054489
113.950000 -0.968842
114.000000 -0.838658
114.050000 -0.711900
114.100000 -0.622827
114.150000 -0.530328
114.200000 -0.444681
114.250000 -0.400144
114.300000 -0.400145
114.350000 -0.420700
114.400000 -0.451533
114.450000 -0.502921
114.500000 -0.585142
114.550000 -0.694771
114.600000 -0.794121
114.650000 -0.866065
114.700000 -0.931157
114.750000 -0.955138
114.800000 -0.907176
114.850000 -0.835232
114.900000 -0.794122
114.950000 -0.746159
115.000000 -0.681067
115.050000 -0.650234
115.100000 -0.677641
115.150000 -0.735882
115.200000 -0.807825
115.250000 -0.896898
115.300000 -0.999675
115.350000 -1.105878
115.400000 -1.181247
115.450000 -1.215506
115.500000 -1.229209
115.550000 -1.242913
115.600000 -1.205228
115.650000 -1.133284
115.700000 -1.040786
115.750000 -0.910601
115.800000 -0.766714
115.850000 -0.677641
115.900000 -0.646808
115.950000 -0.633105
116.000000 -0.633104
116.050000 -0.663938
116.100000 -0.701622
116.150000 -0.725604
116.200000 -0.746159
116.250000 -0.776992
116.300000 -0.794121
116.350000 -0.794121
116.400000 -0.753011
116.450000 -0.670789
116.500000 -0.550883
116.550000 -0.410422
116.600000 -0.280238
116.650000 -0.174035
116.700000 -0.067832
116.750000 0.034943
116.800000 0.086332
116.850000 0.069203
116.900000 0.041796
116.950000 0.014389
117.000000 -0.040425
117.050000 -0.119221
117.100000 -0.191165
117.150000 -0.245979
117.200000 -0.290515
117.250000 -0.328200
117.300000 -0.331626
117.350000 -0.328201
117.400000 -0.338478
117.450000 -0.335052
117.500000 -0.314497
117.550000 -0.304219
117.600000 -0.328200
117.650000 -0.362459
117.700000 -0.400145
117.750000 -0.441254
117.800000 -0.496069
117.850000 -0.561161
117.900000 -0.619402
117.950000 -0.670789
118.000000 -0.715326
118.050000 -0.729029
118.100000 -0.715326
118.150000 -0.701622
118.200000 -0.701623
118.250000 -0.698196
118.300000 -0.681068
118.350000 -0.667364
118.400000 -0.643382
118.450000 -0.622827
118.500000 -0.612549
118.550000 -0.591994
118.600000 -0.578290
118.650000 -0.602272
118.700000 -0.636530
118.750000 -0.639957
118.800000 -0.639956
118.850000 -0.677641
118.900000 -0.725604
118.950000 -0.773566
119.000000 -0.818103
119.050000 -0.845510
119.100000 -0.866065
119.150000 -0.872917
119.200000 -0.835233
119.250000 -0.780418
119.300000 -0.749585
119.350000 -0.698197
119.400000 -0.609124
119.450000 -0.537179
119.500000 -0.475513
119.550000 -0.389866
119.600000 -0.283664
119.650000 -0.204868
119.700000 -0.139776
119.750000 -0.095240
119.800000 -0.060981
119.850000 -0.030148
119.900000 -0.013019
119.950000 -0.037000
120.000000 -0.084962
120.050000 -0.126073
120.100000 -0.174035
120.150000 -0.249405
120.200000 -0.352182
120.250000 -0.451532
120.300000 -0.554309
120.350000 -0.684493
120.400000 -0.831807
120.450000 -0.955138
120.500000 -1.061341
120.550000 -1.164118
120.600000 -1.249765
120.650000 -1.304579
120.700000 -1.338838
120.750000 -1.352541
120.800000 -1.331986
120.850000 -1.284024
120.900000 -1.212080
120.950000 -1.109303
121.000000 -0.992823
121.050000 -0.890047
121.100000 -0.797548
121.150000 -0.701623
121.200000 -0.646809
121.250000 -0.636531
121.300000 -0.643382
121.350000 -0.639956
121.400000 -0.650234
121.450000 -0.705048
121.500000 -0.790696
121.550000 -0.828381
121.600000 -0.824955
121.650000 -0.848935
121.700000 -0.876342
121.750000 -0.835232
121.800000 -0.753011
121.850000 -0.687919
121.900000 -0.643382
121.950000 -0.615975
122.000000 -0.633105
122.050000 -0.691345
122.100000 -0.746159
122.150000 -0.821529
122.200000 -0.948287
122.250000 -1.078470
122.300000 -1.181247
122.350000 -1.273746
122.400000 -1.325135
122.450000 -1.294301
122.500000 -1.218932
122.550000 -1.143563
122.600000 -1.013379
122.650000 -0.842084
122.700000 -0.725603
122.750000 -0.653660
122.800000 -0.574864
122.850000 -0.537180
122.900000 -0.554309
122.950000 -0.595420
123.000000 -0.670790
123.050000 -0.773566
123.100000 -0.842084
123.150000 -0.866065
123.200000 -0.893472
123.250000 -0.893472
123.300000 -0.814677
123.350000 -0.691345
123.400000 -0.526902
123.450000 -0.324774
123.500000 -0.143202
123.550000 -0.006167
123.600000 0.124017
123.650000 0.202813
123.700000 0.185683
123.750000 0.127443
123.800000 0.052074
123.850000 -0.115795
123.900000 -0.341904
123.950000 -0.530328
124.000000 -0.691345
124.050000 -0.883194
124.100000 -1.033934
124.150000 -1.081897
124.200000 -1.064767
124.250000 -1.037360
124.300000 -0.982545
124.350000 -0.910601
124.400000 -0.821529
124.450000 -0.718752
124.500000 -0.643382
124.550000 -0.609123
124.600000 -0.564587
124.650000 -0.523476
124.700000 -0.520051
124.750000 -0.520050
124.800000 -0.475514
124.850000 -0.461811
124.900000 -0.485791
124.950000 -0.461810
125.000000 -0.393292
125.050000 -0.386440
125.100000 -0.441255
125.150000 -0.478939
125.200000 -0.509772
125.250000 -0.571439
125.300000 -0.653660
125.350000 -0.711900
125.400000 -0.763288
125.450000 -0.814677
125.500000 -0.859214
125.550000 -0.866065
125.600000 -0.824954
125.650000 -0.776992
125.700000 -0.735882
125.750000 -0.674215
125.800000 -0.578291
125.850000 -0.489218
125.900000 -0.430977
125.950000 -0.376163
126.000000 -0.293941
126.050000 -0.242553
126.100000 -0.242553
126.150000 -0.249405
126.200000 -0.249405
126.250000 -0.280238
126.300000 -0.352182
126.350000 -0.441255
126.400000 -0.530328
126.450000 -0.626253
126.500000 -0.718752
126.550000 -0.807825
126.600000 -0.879769
126.650000 -0.931157
126.700000 -0.979119
126.750000 -1.016804
126.800000 -1.006527
126.850000 -0.961990
126.900000 -0.931157
126.950000 -0.890047
127.000000 -0.807825
127.050000 -0.735881
127.100000 -0.681067
127.150000 -0.588568
127.200000 -0.454959
127.250000 -0.359034
127.300000 -0.293941
127.350000 -0.194590
127.400000 -0.088388
127.450000 -0.054129
127.500000 -0.074685
127.550000 -0.108943
127.600000 -0.156906
127.650000 -0.211721
127.700000 -0.287090
127.750000 -0.372737
127.800000 -0.417273
127.850000 -0.420699
127.900000 -0.424126
127.950000 -0.441255
128.000000 -0.434403
128.050000 -0.400144
128.100000 -0.383014
128.150000 -0.376163
128.200000 -0.383015
128.250000 -0.420699
128.300000 -0.461810
128.350000 -0.472088
128.400000 -0.482366
128.450000 -0.520050
128.500000 -0.526902
128.550000 -0.492643
128.600000 -0.454959
128.650000 -0.430977
128.700000 -0.393292
128.750000 -0.341904
128.800000 -0.311071
128.850000 -0.324775
128.900000 -0.355607
128.950000 -0.362459
129.000000 -0.345330
129.050000 -0.341904
129.100000 -0.338478
129.150000 -0.304219
129.200000 -0.235701
129.250000 -0.180887
129.300000 -0.167183
129.350000 -0.180887
129.400000 -0.211721
129.450000 -0.256256
129.500000 -0.311071
129.550000 -0.406996
129.600000 -0.547457
129.650000 -0.667364
129.700000 -0.756437
129.750000 -0.862639
129.800000 -0.955138
129.850000 -0.965416
129.900000 -0.941435
129.950000 -0.958564
130.000000 -0.965416
130.050000 -0.927731
130.100000 -0.896898
130.150000 -0.890047
130.200000 -0.896898
130.250000 -0.934583
130.300000 -1.009952
130.350000 -1.102451
130.400000 -1.201802
130.450000 -1.318283
130.500000 -1.424485
130.550000 -1.510133
130.600000 -1.585502
130.650000 -1.640317
130.700000 -1.606058
130.750000 -1.486151
130.800000 -1.338838
130.850000 -1.177821
130.900000 -0.985971
130.950000 -0.763289
131.000000 -0.544032
131.050000 -0.369311
131.100000 -0.252831
131.150000 -0.184313
131.200000 -0.184313
131.250000 -0.259683
131.300000 -0.376163
131.350000 -0.516624
131.400000 -0.667363
131.450000 -0.804399
131.500000 -0.900324
131.550000 -0.948287
131.600000 -0.941434
131.650000 -0.869491
131.700000 -0.773566
131.750000 -0.643383
131.800000 -0.485791
131.850000 -0.317922
131.900000 -0.177461
131.950000 -0.067833
132.000000 -0.006166
132.050000 -0.019870
132.100000 -0.098666
132.150000 -0.208294
132.200000 -0.335053
132.250000 -0.482366
132.300000 -0.650234
132.350000 -0.794121
132.400000 -0.900324
132.450000 -0.989397
132.500000 -1.044211
132.550000 -1.040786
132.600000 -1.006527
132.650000 -0.985971
132.700000 -0.941434
132.750000 -0.848936
132.800000 -0.732456
132.850000 -0.615975
132.900000 -0.489217
132.950000 -0.345330
133.000000 -0.215146
133.050000 -0.115795
133.100000 -0.030148
133.150000 0.045221
133.200000 0.089758
133.250000 0.120591
133.300000 0.158276
133.350000 0.175406
133.400000 0.141147
133.450000 0.082906
133.500000 0.024666
133.550000 -0.033574
133.600000 -0.078110
133.650000 -0.146628
133.700000 -0.242553
133.750000 -0.314497
133.800000 -0.369312
133.850000 -0.458384
133.900000 -0.564586
133.950000 -0.626252
134.000000 -0.684493
134.050000 -0.776992
134.100000 -0.869491
134.150000 -0.910602
134.200000 -0.914028
134.250000 -0.896898
134.300000 -0.866065
134.350000 -0.804399
134.400000 -0.732456
134.450000 -0.670789
134.500000 -0.629678
134.550000 -0.595420
134.600000 -0.550884
134.650000 -0.537180
134.700000 -0.564587
134.750000 -0.588568
134.800000 -0.564587
134.850000 -0.547457
134.900000 -0.564586
134.950000 -0.564587
135.000000 -0.520050
135.050000 -0.489217
135.100000 -0.499495
135.150000 -0.544032
135.200000 -0.609124
135.250000 -0.715326
135.300000 -0.852362
135.350000 -0.968841
135.400000 -1.068193
135.450000 -1.205228
135.500000 -1.342264
135.550000 -1.397078
135.600000 -1.355968
135.650000 -1.270320
135.700000 -1.160691
135.750000 -1.020231
135.800000 -0.869491
135.850000 -0.701623
135.900000 -0.526902
135.950000 -0.400144
136.000000 -0.338478
136.050000 -0.290516
136.100000 -0.249405
136.150000 -0.276812
136.200000 -0.359033
136.250000 -0.434403
136.300000 -0.492643
136.350000 -0.533754
136.400000 -0.550883
136.450000 -0.564587
136.500000 -0.568013
136.550000 -0.540605
136.600000 -0.496069
136.650000 -0.475514
136.700000 -0.478939
136.750000 -0.499495
136.800000 -0.544031
136.850000 -0.605697
136.900000 -0.660512
136.950000 -0.718752
137.000000 -0.739307
137.050000 -0.715326
137.100000 -0.684493
137.150000 -0.660512
137.200000 -0.588568
137.250000 -0.458384
137.300000 -0.314497
137.350000 -0.180887
137.400000 -0.060981
137.450000 0.010962
137.500000 0.034943
137.550000 0.055499
137.600000 0.028093
137.650000 -0.067832
137.700000 -0.184313
137.750000 -0.276812
137.800000 -0.365885
137.850000 -0.461810
137.900000 -0.537179
137.950000 -0.568013
138.000000 -0.571439
138.050000 -0.574865
138.100000 -0.578291
138.150000 -0.564587
138.200000 -0.533754
138.250000 -0.526902
138.300000 -0.550883
138.350000 -0.585143
138.400000 -0.622827
138.450000 -0.687919
138.500000 -0.780418
138.550000 -0.879769
138.600000 -0.972267
138.650000 -1.068193
138.700000 -1.150414
138.750000 -1.188099
138.800000 -1.174395
138.850000 -1.167544
138.900000 -1.167543
138.950000 -1.126433
139.000000 -1.047638
139.050000 -0.972267
139.100000 -0.876343
139.150000 -0.753011
139.200000 -0.650234
139.250000 -0.605698
139.300000 -0.581717
139.350000 -0.568013
139.400000 -0.581716
139.450000 -0.612550
139.500000 -0.650234
139.550000 -0.718751
139.600000 -0.794121
139.650000 -0.845510
139.700000 -0.890046
139.750000 -0.927731
139.800000 -0.924305
139.850000 -0.886621
139.900000 -0.852362
139.950000 -0.814677
140.000000 -0.735881
140.050000 -0.650234
140.100000 -0.605698
140.150000 -0.568013
140.200000 -0.526902
140.250000 -0.496069
140.300000 -0.475514
140.350000 -0.448106
140.400000 -0.437829
140.450000 -0.444681
140.500000 -0.444681
140.550000 -0.444681
140.600000 -0.451533
140.650000 -0.437828
140.700000 -0.400144
140.750000 -0.355607
140.800000 -0.317923
140.850000 -0.266534
140.900000 -0.215146
140.950000 -0.180887
141.000000 -0.177461
141.050000 -0.187739
141.100000 -0.235701
141.150000 -0.297367
141.200000 -0.335053
141.250000 -0.365885
141.300000 -0.441255
141.350000 -0.544032
141.400000 -0.615975
141.450000 -0.650234
141.500000 -0.660512
141.550000 -0.633105
141.600000 -0.574865
141.650000 -0.526902
141.700000 -0.492643
141.750000 -0.451532
141.800000 -0.434403
141.850000 -0.468662
141.900000 -0.509773
141.950000 -0.533754
142.000000 -0.568013
142.050000 -0.605697
142.100000 -0.636531
142.150000 -0.653660
142.200000 -0.657086
142.250000 -0.636531
142.300000 -0.612549
142.350000 -0.602271
142.400000 -0.557735
142.450000 -0.499495
142.500000 -0.482366
142.550000 -0.482365
142.600000 -0.437829
142.650000 -0.396719
142.700000 -0.403570
142.750000 -0.396719
142.800000 -0.372737
142.850000 -0.396718
142.900000 -0.468662
142.950000 -0.530328
143.000000 -0.578290
143.050000 -0.650234
143.100000 -0.701622
143.150000 -0.715326
143.200000 -0.749585
143.250000 -0.797547
143.300000 -0.797548
143.350000 -0.759863
143.400000 -0.711900
143.450000 -0.633104
143.500000 -0.513199
143.550000 -0.403570
143.600000 -0.324775
143.650000 -0.287089
143.700000 -0.280237
143.750000 -0.290516
143.800000 -0.338478
143.850000 -0.420700
143.900000 -0.506347
143.950000 -0.568013
144.000000 -0.643382
144.050000 -0.722178
144.100000 -0.780418
144.150000 -0.838658
144.200000 -0.910602
144.250000 -0.972268
144.300000 -1.030508
144.350000 -1.092174
144.400000 -1.133285
144.450000 -1.150414
144.500000 -1.174395
144.550000 -1.208654
144.600000 -1.188099
144.650000 -1.140137
144.700000 -1.119581
144.750000 -1.102452
144.800000 -1.068193
144.850000 -1.027082
144.900000 -0.992823
144.950000 -0.951712
145.000000 -0.917453
145.050000 -0.890046
145.100000 -0.831806
145.150000 -0.749585
145.200000 -0.687918
145.250000 -0.622827
145.300000 -0.533753
145.350000 -0.434403
145.400000 -0.352181
145.450000 -0.293941
145.500000 -0.259683
145.550000 -0.239127
145.600000 -0.228850
145.650000 -0.252831
145.700000 -0.314497
145.750000 -0.362459
145.800000 -0.379588
145.850000 -0.413848
145.900000 -0.461810
145.950000 -0.475514
146.000000 -0.458384
146.050000 -0.465236
146.100000 -0.489218
146.150000 -0.526902
146.200000 -0.574865
146.250000 -0.626253
146.300000 -0.694771
146.350000 -0.787269
146.400000 -0.866065
146.450000 -0.914028
146.500000 -0.961991
146.550000 -1.020231
146.600000 -1.054489
146.650000 -1.061341
146.700000 -1.061340
146.750000 -1.016804
146.800000 -0.917453
146.850000 -0.794121
146.900000 -0.691345
146.950000 -0.605698
147.000000 -0.509772
147.050000 -0.417273
147.100000 -0.359034
147.150000 -0.331626
147.200000 -0.304219
147.250000 -0.280237
147.300000 -0.276812
147.350000 -0.280238
147.400000 -0.300793
147.450000 -0.348755
147.500000 -0.396719
147.550000 -0.427552
147.600000 -0.468662
147.650000 -0.537180
147.700000 -0.609123
147.750000 -0.653660
147.800000 -0.684493
147.850000 -0.739307
147.900000 -0.794121
147.950000 -0.804399
148.000000 -0.797548
148.050000 -0.814677
148.100000 -0.831807
148.150000 -0.821529
148.200000 -0.804400
148.250000 -0.797547
148.300000 -0.776992
148.350000 -0.735882
148.400000 -0.701622
148.450000 -0.684493
148.500000 -0.698196
148.550000 -0.725604
148.600000 -0.715326
148.650000 -0.667363
148.700000 -0.619401
148.750000 -0.561160
148.800000 -0.472088
148.850000 -0.372737
148.900000 -0.297367
148.950000 -0.245979
149.000000 -0.187739
149.050000 -0.150054
149.100000 -0.139777
149.150000 -0.150054
149.200000 -0.177462
149.250000 -0.239127
149.300000 -0.345330
149.350000 -0.458384
149.400000 -0.578290
149.450000 -0.749585
149.500000 -0.961990
149.550000 -1.150414
149.600000 -1.290876
149.650000 -1.400504
149.700000 -1.496429
149.750000 -1.575224
149.800000 -1.609483
149.850000 -1.582076
149.900000 -1.537539
149.950000 -1.475873
150.000000 -1.366245
150.050000 -1.249765
150.100000 -1.164118
150.150000 -1.057915
150.200000 -0.927731
150.250000 -0.848936
150.300000 -0.800973
150.350000 -0.722177
150.400000 -0.633104
150.450000 -0.581717
150.500000 -0.520050
150.550000 -0.448107
150.600000 -0.406996
150.650000 -0.365885
150.700000 -0.293941
150.750000 -0.252831
150.800000 -0.235701
150.850000 -0.215146
150.900000 -0.211720
150.950000 -0.218572
151.000000 -0.198017
151.050000 -0.167184
151.100000 -0.139777
151.150000 -0.067833
151.200000 0.034944
151.250000 0.089758
151.300000 0.124017
151.350000 0.185683
151.400000 0.219942
151.450000 0.178831
151.500000 0.106888
151.550000 0.017815
151.600000 -0.102092
151.650000 -0.221997
151.700000 -0.335052
151.750000 -0.454958
151.800000 -0.568012
151.850000 -0.650234
151.900000 -0.705048
151.950000 -0.708474
152.000000 -0.657086
152.050000 -0.602272
152.100000 -0.550883
152.150000 -0.468662
152.200000 -0.389867
152.250000 -0.362459
152.300000 -0.348756
152.350000 -0.328201
152.400000 -0.338478
152.450000 -0.355608
152.500000 -0.389866
152.550000 -0.478940
152.600000 -0.595420
152.650000 -0.677641
152.700000 -0.766714
152.750000 -0.869491
152.800000 -0.917454
152.850000 -0.914027
152.900000 -0.924305
152.950000 -0.907176
153.000000 -0.835232
153.050000 -0.776992
153.100000 -0.725603
153.150000 -0.629679
153.200000 -0.533754
153.250000 -0.520050
153.300000 -0.530328
153.350000 -0.526902
153.400000 -0.554309
153.450000 -0.622827
153.500000 -0.711900
153.550000 -0.804399
153.600000 -0.890047
153.650000 -0.944861
153.700000 -0.989397
153.750000 -1.016805
153.800000 -0.996249
153.850000 -0.938008
153.900000 -0.869491
153.950000 -0.814676
154.000000 -0.756437
154.050000 -0.677641
154.100000 -0.581716
154.150000 -0.492643
154.200000 -0.434403
154.250000 -0.410422
154.300000 -0.406996
154.350000 -0.413848
154.400000 -0.417274
154.450000 -0.437829
154.500000 -0.465236
154.550000 -0.472088
154.600000 -0.454959
154.650000 -0.472088
154.700000 -0.526902
154.750000 -0.540605
154.800000 -0.520050
154.850000 -0.526902
154.900000 -0.547458
154.950000 -0.544032
155.000000 -0.561161
155.050000 -0.619401
155.100000 -0.694771
155.150000 -0.773566
155.200000 -0.866065
155.250000 -0.941434
155.300000 -0.992823
155.350000 -1.020230
155.400000 -1.020230
155.450000 -0.992823
155.500000 -0.951712
155.550000 -0.883195
155.600000 -0.787270
155.650000 -0.722178
155.700000 -0.701623
155.750000 -0.684493
155.800000 -0.670789
155.850000 -0.681067
155.900000 -0.711900
155.950000 -0.770140
156.000000 -0.862639
156.050000 -0.927731
156.100000 -0.965416
156.150000 -1.003101
156.200000 -1.006527
156.250000 -0.958565
156.300000 -0.900324
156.350000 -0.831806
156.400000 -0.708474
156.450000 -0.585142
156.500000 -0.496069
156.550000 -0.400144
156.600000 -0.317922
156.650000 -0.293941
156.700000 -0.290515
156.750000 -0.293942
156.800000 -0.331626
156.850000 -0.386440
156.900000 -0.424126
156.950000 -0.478939
157.000000 -0.537179
157.050000 -0.578290
157.100000 -0.619401
157.150000 -0.660512
157.200000 -0.663937
157.250000 -0.643382
157.300000 -0.636531
157.350000 -0.619401
157.400000 -0.581716
157.450000 -0.554310
157.500000 -0.561161
157.550000 -0.554309
157.600000 -0.533753
157.650000 -0.526902
157.700000 -0.533754
157.750000 -0.523476
157.800000 -0.509772
157.850000 -0.537180
157.900000 -0.571439
157.950000 -0.581716
158.000000 -0.588569
158.050000 -0.629679
158.100000 -0.677641
158.150000 -0.718752
158.200000 -0.770140
158.250000 -0.848935
158.300000 -0.927732
158.350000 -1.009953
158.400000 -1.092174
158.450000 -1.164117
158.500000 -1.212080
158.550000 -1.232636
158.600000 -1.205228
158.650000 -1.129859
158.700000 -1.023656
158.750000 -0.872917
158.800000 -0.694771
158.850000 -0.482366
158.900000 -0.259683
158.950000 -0.054130
159.000000 0.093184
159.050000 0.189109
159.100000 0.216517
159.150000 0.165127
159.200000 0.079480
159.250000 -0.033573
159.300000 -0.184313
159.350000 -0.386440
159.400000 -0.561161
159.450000 -0.701623
159.500000 -0.831806
159.550000 -0.920879
159.600000 -0.938008
159.650000 -0.920879
159.700000 -0.900324
159.750000 -0.842084
159.800000 -0.770141
159.850000 -0.732456
159.900000 -0.722177
159.950000 -0.715326
160.000000 -0.715326
160.050000 -0.725604
160.100000 -0.732455
160.150000 -0.766714
160.200000 -0.818103
160.250000 -0.862640
160.300000 -0.903750
160.350000 -0.938009
160.400000 -0.941435
160.450000 -0.941435
160.500000 -0.992823
160.550000 -1.040786
160.600000 -1.033934
160.650000 -1.020230
160.700000 -1.027082
160.750000 -1.020230
160.800000 -0.965416
160.850000 -0.907176
160.900000 -0.862640
160.950000 -0.838658
161.000000 -0.797548
161.050000 -0.729029
161.100000 -0.684493
161.150000 -0.660512
161.200000 -0.636530
161.250000 -0.629678
161.300000 -0.670789
161.350000 -0.691344
161.400000 -0.670790
161.450000 -0.677641
161.500000 -0.708475
161.550000 -0.708474
161.600000 -0.691344
161.650000 -0.687918
161.700000 -0.681067
161.750000 -0.663937
161.800000 -0.663937
161.850000 -0.681067
161.900000 -0.691345
161.950000 -0.718752
162.000000 -0.749585
162.050000 -0.763288
162.100000 -0.773566
162.150000 -0.814677
162.200000 -0.845509
162.250000 -0.869491
162.300000 -0.920879
162.350000 -0.985971
162.400000 -1.027082
162.450000 -1.054489
162.500000 -1.092174
162.550000 -1.112729
162.600000 -1.119581
162.650000 -1.146988
162.700000 -1.150414
162.750000 -1.140137
162.800000 -1.126433
162.850000 -1.095600
162.900000 -1.040785
162.950000 -0.992823
163.000000 -0.958564
163.050000 -0.896898
163.100000 -0.838658
163.150000 -0.790696
163.200000 -0.708475
163.250000 -0.615975
163.300000 -0.578290
163.350000 -0.561161
163.400000 -0.523476
163.450000 -0.513198
163.500000 -0.540605
163.550000 -0.571438
163.600000 -0.629679
163.650000 -0.711900
163.700000 -0.773566
163.750000 -0.831806
163.800000 -0.917453
163.850000 -0.985971
163.900000 -1.006527
163.950000 -1.020230
164.000000 -1.009952
164.050000 -0.968842
164.100000 -0.924305
164.150000 -0.869491
164.200000 -0.780418
164.250000 -0.687919
164.300000 -0.615975
164.350000 -0.533754
164.400000 -0.461810
164.450000 -0.458384
164.500000 -0.485791
164.550000 -0.506347
164.600000 -0.568013
164.650000 -0.684493
164.700000 -0.787269
164.750000 -0.848936
164.800000 -0.920879
164.850000 -0.982545
164.900000 -1.003101
164.950000 -0.975694
165.000000 -0.924306
165.050000 -0.859213
165.100000 -0.807825
165.150000 -0.766714
165.200000 -0.729030
165.250000 -0.742733
165.300000 -0.824954
165.350000 -0.924306
165.400000 -1.013379
165.450000 -1.126433
165.500000 -1.232635
165.550000 -1.290875
165.600000 -1.311431
165.650000 -1.297727
165.700000 -1.212080
165.750000 -1.081896
165.800000 -0.941435
165.850000 -0.800973
165.900000 -0.667363
165.950000 -0.595420
166.000000 -0.581716
166.050000 -0.598846
166.100000 -0.646808
166.150000 -0.732456
166.200000 -0.838658
166.250000 -0.958564
166.300000 -1.071619
166.350000 -1.150414
166.400000 -1.208654
166.450000 -1.236062
166.500000 -1.246339
166.550000 -1.242913
166.600000 -1.215506
166.650000 -1.150414
166.700000 -1.068192
166.750000 -1.006526
166.800000 -0.934583
166.850000 -0.848936
166.900000 -0.773566
166.950000 -0.718752
167.000000 -0.660512
167.050000 -0.595420
167.100000 -0.533754
167.150000 -0.475513
167.200000 -0.441255
167.250000 -0.420700
167.300000 -0.403570
167.350000 -0.413848
167.400000 -0.444681
167.450000 -0.461810
167.500000 -0.482365
167.550000 -0.533753
167.600000 -0.581716
167.650000 -0.591994
167.700000 -0.605697
167.750000 -0.633104
167.800000 -0.650234
167.850000 -0.670789
167.900000 -0.698197
167.950000 -0.698196
168.000000 -0.698196
168.050000 -0.753011
168.100000 -0.804399
168.150000 -0.800973
168.200000 -0.783844
168.250000 -0.787270
168.300000 -0.773566
168.350000 -0.759863
168.400000 -0.763289
168.450000 -0.773567
168.500000 -0.787270
168.550000 -0.818103
168.600000 -0.835232
168.650000 -0.866065
168.700000 -0.938009
168.750000 -0.989397
168.800000 -0.985972
168.850000 -0.996249
168.900000 -1.027082
168.950000 -1.009952
169.000000 -0.955138
169.050000 -0.890047
169.100000 -0.800973
169.150000 -0.684493
169.200000 -0.585142
169.250000 -0.499495
169.300000 -0.403570
169.350000 -0.314497
169.400000 -0.256257
169.450000 -0.235701
169.500000 -0.245979
169.550000 -0.249405
169.600000 -0.242554
169.650000 -0.269960
169.700000 -0.331626
169.750000 -0.372737
169.800000 -0.400144
169.850000 -0.465236
169.900000 -0.523476
169.950000 -0.540606
170.000000 -0.550884
170.050000 -0.568012
170.100000 -0.574864
170.150000 -0.585142
170.200000 -0.588568
170.250000 -0.588568
170.300000 -0.605698
170.350000 -0.629679
170.400000 -0.636530
170.450000 -0.636530
170.500000 -0.677642
170.550000 -0.732456
170.600000 -0.766715
170.650000 -0.800973
170.700000 -0.855787
170.750000 -0.879768
170.800000 -0.842084
170.850000 -0.797548
170.900000 -0.776992
170.950000 -0.756436
171.000000 -0.729029
171.050000 -0.687919
171.100000 -0.643382
171.150000 -0.629679
171.200000 -0.633105
171.250000 -0.629678
171.300000 -0.629679
171.350000 -0.653660
171.400000 -0.674215
171.450000 -0.674215
171.500000 -0.660512
171.550000 -0.622827
171.600000 -0.571439
171.650000 -0.523477
171.700000 -0.465236
171.750000 -0.383014
171.800000 -0.300793
171.850000 -0.239127
171.900000 -0.184313
171.950000 -0.129499
172.000000 -0.102092
172.050000 -0.088388
172.100000 -0.078111
172.150000 -0.095239
172.200000 -0.136351
172.250000 -0.187739
172.300000 -0.242553
172.350000 -0.307645
172.400000 -0.383014
172.450000 -0.468662
172.500000 -0.568013
172.550000 -0.677641
172.600000 -0.776992
172.650000 -0.866065
172.700000 -0.958565
172.750000 -1.051063
172.800000 -1.092174
172.850000 -1.105878
172.900000 -1.123007
172.950000 -1.126433
173.000000 -1.088748
173.050000 -1.033933
173.100000 -1.003101
173.150000 -0.979119
173.200000 -0.958564
173.250000 -0.927731
173.300000 -0.890047
173.350000 -0.842083
173.400000 -0.794122
173.450000 -0.753011
173.500000 -0.698196
173.550000 -0.626253
173.600000 -0.561160
173.650000 -0.530328
173.700000 -0.509772
173.750000 -0.468662
173.800000 -0.437829
173.850000 -0.434403
173.900000 -0.437829
173.950000 -0.454958
174.000000 -0.499495
174.050000 -0.550883
174.100000 -0.588568
174.150000 -0.626253
174.200000 -0.650234
174.250000 -0.650234
174.300000 -0.639956
174.350000 -0.633105
174.400000 -0.612549
174.450000 -0.581716
174.500000 -0.537179
174.550000 -0.478939
174.600000 -0.454958
174.650000 -0.482366
174.700000 -0.506346
174.750000 -0.499495
174.800000 -0.520050
174.850000 -0.591993
174.900000 -0.653660
174.950000 -0.705049
175.000000 -0.759863
175.050000 -0.811251
175.100000 -0.855788
175.150000 -0.900324
175.200000 -0.910601
175.250000 -0.879769
175.300000 -0.845510
175.350000 -0.821529
175.400000 -0.763288
175.450000 -0.677642
175.500000 -0.612550
175.550000 -0.540606
175.600000 -0.444681
175.650000 -0.365885
175.700000 -0.338478
175.750000 -0.304219
175.800000 -0.263109
175.850000 -0.276812
175.900000 -0.338478
175.950000 -0.379588
176.000000 -0.400144
176.050000 -0.430978
176.100000 -0.458384
176.150000 -0.465236
176.200000 -0.475514
176.250000 -0.492643
176.300000 -0.496069
176.350000 -0.451532
176.400000 -0.406996
176.450000 -0.389867
176.500000 -0.389867
176.550000 -0.393293
176.600000 -0.393292
176.650000 -0.393293
176.700000 -0.424125
176.750000 -0.492643
176.800000 -0.571439
176.850000 -0.636531
176.900000 -0.729030
176.950000 -0.859214
177.000000 -0.965416
177.050000 -1.037360
177.100000 -1.112729
177.150000 -1.181247
177.200000 -1.198376
177.250000 -1.194951
177.300000 -1.177821
177.350000 -1.102452
177.400000 -0.975694
177.450000 -0.842084
177.500000 -0.694770
177.550000 -0.540605
177.600000 -0.417274
177.650000 -0.307645
177.700000 -0.201443
177.750000 -0.156906
177.800000 -0.198017
177.850000 -0.273386
177.900000 -0.345330
177.950000 -0.444681
178.000000 -0.564587
178.050000 -0.681068
178.100000 -0.783844
178.150000 -0.872917
178.200000 -0.924306
178.250000 -0.951712
178.300000 -0.941434
178.350000 -0.893472
178.400000 -0.804399
178.450000 -0.708475
178.500000 -0.626253
178.550000 -0.547458
178.600000 -0.478939
178.650000 -0.417273
178.700000 -0.365885
178.750000 -0.335052
178.800000 -0.293942
178.850000 -0.256256
178.900000 -0.232276
178.950000 -0.211720
179.000000 -0.191164
179.050000 -0.194590
179.100000 -0.239127
179.150000 -0.280238
179.200000 -0.311071
179.250000 -0.386441
179.300000 -0.506346
179.350000 -0.609123
179.400000 -0.684493
179.450000 -0.735882
179.500000 -0.770140
179.550000 -0.763288
179.600000 -0.701622
179.650000 -0.585143
179.700000 -0.441255
179.750000 -0.283663
179.800000 -0.108944
179.850000 0.055499
179.900000 0.165128
179.950000 0.230220
180.000000 0.291885
180.050000 0.295311
180.100000 0.237072
180.150000 0.151424
180.200000 0.062351
180.250000 -0.060981
180.300000 -0.218572
180.350000 -0.359034
180.400000 -0.458384
180.450000 -0.544031
180.500000 -0.633105
180.550000 -0.708475
180.600000 -0.756436
180.650000 -0.780417
180.700000 -0.794121
180.750000 -0.794122
180.800000 -0.766714
180.850000 -0.732456
180.900000 -0.694771
180.950000 -0.639957
181.000000 -0.568013
181.050000 -0.520050
181.100000 -0.502921
181.150000 -0.496069
181.200000 -0.492644
181.250000 -0.509773
181.300000 -0.544032
181.350000 -0.585142
181.400000 -0.622827
181.450000 -0.633105
181.500000 -0.609123
181.550000 -0.574864
181.600000 -0.540605
181.650000 -0.502921
181.700000 -0.458384
181.750000 -0.420699
181.800000 -0.410422
181.850000 -0.427552
181.900000 -0.475514
181.950000 -0.557735
182.000000 -0.667364
182.050000 -0.773566
182.100000 -0.862639
182.150000 -0.948287
182.200000 -1.023656
182.250000 -1.033934
182.300000 -0.972268
182.350000 -0.900324
182.400000 -0.852361
182.450000 -0.776992
182.500000 -0.667363
182.550000 -0.612549
182.600000 -0.615975
182.650000 -0.626252
182.700000 -0.660512
182.750000 -0.746159
182.800000 -0.835233
182.850000 -0.924305
182.900000 -1.057915
182.950000 -1.164117
183.000000 -1.198376
183.050000 -1.215506
183.100000 -1.246339
183.150000 -1.242913
183.200000 -1.201802
183.250000 -1.184673
183.300000 -1.194951
183.350000 -1.212081
183.400000 -1.215506
183.450000 -1.212080
183.500000 -1.201802
183.550000 -1.188099
183.600000 -1.129859
183.650000 -1.057915
183.700000 -1.013379
183.750000 -0.958564
183.800000 -0.855787
183.850000 -0.763288
183.900000 -0.715326
183.950000 -0.660512
184.000000 -0.574864
184.050000 -0.516624
184.100000 -0.492643
184.150000 -0.472088
184.200000 -0.458385
184.250000 -0.465236
184.300000 -0.468662
184.350000 -0.475513
184.400000 -0.520050
184.450000 -0.578290
184.500000 -0.612550
184.550000 -0.639956
184.600000 -0.674216
184.650000 -0.701622
184.700000 -0.711900
184.750000 -0.705048
184.800000 -0.663938
184.850000 -0.602272
184.900000 -0.544032
184.950000 -0.482365
185.000000 -0.417274
185.050000 -0.372737
185.100000 -0.335052
185.150000 -0.287090
185.200000 -0.266534
185.250000 -0.293941
185.300000 -0.331626
185.350000 -0.341904
185.400000 -0.365885
185.450000 -0.413848
185.500000 -0.454958
185.550000 -0.485792
185.600000 -0.516625
185.650000 -0.520050
185.700000 -0.509773
185.750000 -0.530327
185.800000 -0.550883
185.850000 -0.540606
185.900000 -0.544032
185.950000 -0.568013
186.000000 -0.561161
186.050000 -0.547457
186.100000 -0.571439
186.150000 -0.574865
186.200000 -0.537180
186.250000 -0.516624
186.300000 -0.526902
186.350000 -0.489217
186.400000 -0.437829
186.450000 -0.427551
186.500000 -0.437829
186.550000 -0.454958
186.600000 -0.513198
186.650000 -0.598846
186.700000 -0.670789
186.750000 -0.735881
186.800000 -0.824955
186.850000 -0.896898
186.900000 -0.938009
186.950000 -0.951712
187.000000 -0.941435
187.050000 -0.890047
187.100000 -0.800973
187.150000 -0.698197
187.200000 -0.581716
187.250000 -0.472088
187.300000 -0.372737
187.350000 -0.280238
187.400000 -0.170609
187.450000 -0.081537
187.500000 -0.033574
187.550000 -0.026722
187.600000 -0.030148
187.650000 -0.054129
187.700000 -0.119221
187.750000 -0.228850
187.800000 -0.369311
187.850000 -0.523476
187.900000 -0.694770
187.950000 -0.879769
188.000000 -1.057915
188.050000 -1.205228
188.100000 -1.325134
188.150000 -1.400504
188.200000 -1.393652
188.250000 -1.308005
188.300000 -1.164117
188.350000 -0.975694
188.400000 -0.756437
188.450000 -0.554309
188.500000 -0.379589
188.550000 -0.232276
188.600000 -0.139776
188.650000 -0.122647
188.700000 -0.160332
188.750000 -0.228849
188.800000 -0.338478
188.850000 -0.475514
188.900000 -0.591994
