time[ns] Raw_signal[mV]
-11.250000 0.349646
-11.200000 0.263999
-11.150000 0.178352
-11.100000 0.123538
-11.050000 0.085853
-11.000000 0.037891
-10.950000 -0.003220
-10.900000 -0.023775
-10.850000 -0.027201
-10.800000 -0.044331
-10.750000 -0.061460
-10.700000 -0.047757
-10.650000 -0.027202
-10.600000 -0.030627
-10.550000 -0.044331
-10.500000 -0.040905
-10.450000 -0.030627
-10.400000 -0.016924
-10.350000 0.003632
-10.300000 0.003631
-10.250000 -0.016924
-10.200000 -0.027202
-10.150000 -0.010072
-10.100000 0.024187
-10.050000 0.051594
-10.000000 0.082427
-9.950000 0.116686
-9.900000 0.168074
-9.850000 0.209185
-9.800000 0.209185
-9.750000 0.198907
-9.700000 0.188629
-9.650000 0.157797
-9.600000 0.096130
-9.550000 0.044742
-9.500000 -0.027202
-9.450000 -0.164238
-9.400000 -0.294421
-9.350000 -0.356087
-9.300000 -0.386920
-9.250000 -0.424605
-9.200000 -0.428030
-9.150000 -0.383494
-9.100000 -0.311550
-9.050000 -0.225903
-9.000000 -0.109423
-8.950000 0.027613
-8.900000 0.181777
-8.850000 0.318813
-8.800000 0.442145
-8.750000 0.575755
-8.700000 0.695661
-8.650000 0.740198
-8.600000 0.733346
-8.550000 0.692236
-8.500000 0.633995
-8.450000 0.538070
-8.400000 0.401035
-8.350000 0.240018
-8.300000 0.068723
-8.250000 -0.085441
-8.200000 -0.225904
-8.150000 -0.338957
-8.100000 -0.404050
-8.050000 -0.438308
-8.000000 -0.455438
-7.950000 -0.431456
-7.900000 -0.356087
-7.850000 -0.263588
-7.800000 -0.184793
-7.750000 -0.088868
-7.700000 0.027612
-7.650000 0.130389
-7.600000 0.202333
-7.550000 0.253722
-7.500000 0.284555
-7.450000 0.263999
-7.400000 0.202333
-7.350000 0.120111
-7.300000 0.037891
-7.250000 -0.034054
-7.200000 -0.102571
-7.150000 -0.157385
-7.100000 -0.164237
-7.050000 -0.119701
-7.000000 -0.078590
-6.950000 -0.051183
-6.900000 0.007057
-6.850000 0.109834
-6.800000 0.209184
-6.750000 0.298258
-6.700000 0.373628
-6.650000 0.421590
-6.600000 0.442145
-6.550000 0.438719
-6.500000 0.418164
-6.450000 0.363350
-6.400000 0.308536
-6.350000 0.263999
-6.300000 0.229740
-6.250000 0.195482
-6.200000 0.168074
-6.150000 0.161222
-6.100000 0.168074
-6.050000 0.161223
-6.000000 0.147519
-5.950000 0.147519
-5.900000 0.157796
-5.850000 0.140667
-5.800000 0.102982
-5.750000 0.065297
-5.700000 0.034464
-5.650000 0.000206
-5.600000 -0.047757
-5.550000 -0.095719
-5.500000 -0.136830
-5.450000 -0.160811
-5.400000 -0.171088
-5.350000 -0.143682
-5.300000 -0.075164
-5.250000 -0.023776
-5.200000 -0.016924
-5.150000 0.031039
-5.100000 0.137241
-5.050000 0.212610
-5.000000 0.229740
-4.950000 0.257147
-4.900000 0.305110
-4.850000 0.342795
-4.800000 0.373627
-4.750000 0.394183
-4.700000 0.390757
-4.650000 0.383906
-4.600000 0.373627
-4.550000 0.366775
-4.500000 0.356498
-4.450000 0.346221
-4.400000 0.298258
-4.350000 0.222888
-4.300000 0.174926
-4.250000 0.140667
-4.200000 0.075575
-4.150000 0.034464
-4.100000 0.048168
-4.050000 0.055020
-4.000000 0.065297
-3.950000 0.144093
-3.900000 0.233166
-3.850000 0.270850
-3.800000 0.315387
-3.750000 0.387331
-3.700000 0.414738
-3.650000 0.370202
-3.600000 0.311961
-3.550000 0.219462
-3.500000 0.089279
-3.450000 -0.027202
-3.400000 -0.188219
-3.350000 -0.417753
-3.300000 -0.520530
-3.250000 -0.441735
-3.200000 -0.421179
-3.150000 -0.479419
-3.100000 -0.362938
-3.050000 -0.126553
-3.000000 -0.020350
-2.950000 0.068723
-2.900000 0.253721
-2.850000 0.349646
-2.800000 0.394183
-2.750000 0.620292
-2.700000 0.791586
-2.650000 0.671680
-2.600000 0.589458
-2.550000 0.692235
-2.500000 0.610014
-2.450000 0.370202
-2.400000 0.332517
-2.350000 0.342795
-2.300000 0.144093
-2.250000 0.034465
-2.200000 0.181778
-2.150000 0.216036
-2.100000 0.027613
-2.050000 -0.054608
-2.000000 0.048168
-1.950000 0.198908
-1.900000 0.363350
-1.850000 0.421590
-1.800000 0.339369
-1.750000 0.329091
-1.700000 0.418164
-1.650000 0.335943
-1.600000 0.154371
-1.550000 0.174926
-1.500000 0.257147
-1.450000 0.178352
-1.400000 0.092704
-1.350000 0.079001
-1.300000 -0.006646
-1.250000 0.003631
-1.200000 0.243444
-1.150000 0.329091
-1.100000 0.126964
-1.050000 0.109834
-1.000000 0.322239
-0.950000 0.342794
-0.900000 0.270851
-0.850000 0.366776
-0.800000 0.383906
-0.750000 0.198907
-0.700000 0.123537
-0.650000 0.168074
-0.600000 0.065298
-0.550000 -0.061460
-0.500000 -0.023776
-0.450000 0.024187
-0.400000 -0.013498
-0.350000 0.013909
-0.300000 0.092705
-0.250000 0.099556
-0.200000 0.096130
-0.150000 0.133815
-0.100000 0.174926
-0.050000 0.202333
0.000000 0.192056
0.050000 0.137241
0.100000 0.140667
0.150000 0.198907
0.200000 0.109834
0.250000 -0.061461
0.300000 -0.044331
0.350000 0.096130
0.400000 0.106408
0.450000 0.051594
0.500000 0.099556
0.550000 0.116686
0.600000 0.044742
0.650000 0.079001
0.700000 0.253721
0.750000 0.407886
0.800000 0.565478
0.850000 0.825845
0.900000 1.158157
0.950000 1.517875
1.000000 1.963241
1.050000 2.535364
1.100000 3.217116
1.150000 4.025627
1.200000 4.998579
1.250000 6.115419
1.300000 7.280222
1.350000 8.462154
1.400000 9.770844
1.450000 11.264532
1.500000 12.813034
1.550000 14.330699
1.600000 15.906616
1.650000 17.537342
1.700000 19.051578
1.750000 20.401377
1.800000 21.692945
1.850000 22.902285
1.900000 23.902635
1.950000 24.642635
2.000000 25.156515
2.050000 25.464845
2.100000 25.564195
2.150000 25.427165
2.200000 25.053735
2.250000 24.526155
2.300000 23.912920
2.350000 23.176353
2.400000 22.330158
2.450000 21.435996
2.500000 20.466478
2.550000 19.377042
2.600000 18.284183
2.650000 17.191324
2.700000 15.978559
2.750000 14.666441
2.800000 13.429695
2.850000 12.282022
2.900000 11.154904
2.950000 10.127137
3.000000 9.322052
3.050000 8.684837
3.100000 8.177805
3.150000 7.862623
3.200000 7.742718
3.250000 7.735866
3.300000 7.821513
3.350000 8.016789
3.400000 8.280582
3.450000 8.558079
3.500000 8.835576
3.550000 9.106222
3.600000 9.332330
3.650000 9.524180
3.700000 9.688623
3.750000 9.808529
3.800000 9.856491
3.850000 9.873621
3.900000 9.870195
3.950000 9.811954
4.000000 9.657790
4.050000 9.421403
4.100000 9.123351
4.150000 8.791040
4.200000 8.438173
4.250000 8.020214
4.300000 7.557719
4.350000 7.119205
4.400000 6.673840
4.450000 6.180512
4.500000 5.731720
4.550000 5.365149
4.600000 4.964321
4.650000 4.529232
4.700000 4.196921
4.750000 3.960535
4.800000 3.713870
4.850000 3.494613
4.900000 3.364430
4.950000 3.258227
5.000000 3.182858
5.050000 3.210264
5.100000 3.319893
5.150000 3.432948
5.200000 3.559705
5.250000 3.734426
5.300000 3.926276
5.350000 4.114700
5.400000 4.258587
5.450000 4.368216
5.500000 4.470992
5.550000 4.563491
5.600000 4.584046
5.650000 4.542936
5.700000 4.491548
5.750000 4.412753
5.800000 4.275716
5.850000 4.114700
5.900000 3.936553
5.950000 3.703593
6.000000 3.460354
6.050000 3.247950
6.100000 3.025267
6.150000 2.775177
6.200000 2.555920
6.250000 2.391476
6.300000 2.237311
6.350000 2.083147
6.400000 1.952963
6.450000 1.857038
6.500000 1.795372
6.550000 1.730280
6.600000 1.637781
6.650000 1.579541
6.700000 1.579541
6.750000 1.555560
6.800000 1.483616
6.850000 1.459635
6.900000 1.480190
6.950000 1.473339
7.000000 1.456209
7.050000 1.480190
7.100000 1.517875
7.150000 1.528152
7.200000 1.562412
7.250000 1.610374
7.300000 1.603522
7.350000 1.572689
7.400000 1.552134
7.450000 1.524726
7.500000 1.483616
7.550000 1.442505
7.600000 1.391117
7.650000 1.343154
7.700000 1.336303
7.750000 1.356858
7.800000 1.356858
7.850000 1.356858
7.900000 1.363709
7.950000 1.332877
8.000000 1.278063
8.050000 1.247230
8.100000 1.212971
8.150000 1.147879
8.200000 1.079361
8.250000 1.031398
8.300000 0.962881
8.350000 0.884085
8.400000 0.808716
8.450000 0.740198
8.500000 0.675106
8.550000 0.623718
8.600000 0.579181
8.650000 0.565478
8.700000 0.582607
8.750000 0.589459
8.800000 0.568903
8.850000 0.548348
8.900000 0.524367
8.950000 0.469552
9.000000 0.407886
9.050000 0.373627
9.100000 0.353072
9.150000 0.308535
9.200000 0.250295
9.250000 0.212611
9.300000 0.188630
9.350000 0.192055
9.400000 0.216037
9.450000 0.226315
9.500000 0.253722
9.550000 0.322239
9.600000 0.401035
9.650000 0.455849
9.700000 0.483256
9.750000 0.486682
9.800000 0.479830
9.850000 0.459275
9.900000 0.397609
9.950000 0.287980
10.000000 0.168074
10.050000 0.058445
10.100000 -0.058034
10.150000 -0.174515
10.200000 -0.263588
10.250000 -0.356087
10.300000 -0.441734
10.350000 -0.493123
10.400000 -0.527381
10.450000 -0.571918
10.500000 -0.602751
10.550000 -0.623306
10.600000 -0.681546
10.650000 -0.732934
10.700000 -0.760342
10.750000 -0.801453
10.800000 -0.849415
10.850000 -0.856266
10.900000 -0.849415
10.950000 -0.863118
11.000000 -0.845989
11.050000 -0.780897
11.100000 -0.698676
11.150000 -0.609603
11.200000 -0.520530
11.250000 -0.431457
11.300000 -0.369790
11.350000 -0.338957
11.400000 -0.338957
11.450000 -0.335532
11.500000 -0.338958
11.550000 -0.369791
11.600000 -0.438308
11.650000 -0.489696
11.700000 -0.486270
11.750000 -0.455438
11.800000 -0.448586
11.850000 -0.441734
11.900000 -0.410901
11.950000 -0.390346
12.000000 -0.407475
12.050000 -0.421178
12.100000 -0.417753
12.150000 -0.479419
12.200000 -0.599325
12.250000 -0.695250
12.300000 -0.767194
12.350000 -0.873397
12.400000 -0.976173
12.450000 -1.037839
12.500000 -1.075524
12.550000 -1.109783
12.600000 -1.085802
12.650000 -1.007006
12.700000 -0.921359
12.750000 -0.890526
12.800000 -0.887100
12.850000 -0.876822
12.900000 -0.845989
12.950000 -0.856267
13.000000 -0.921359
13.050000 -0.993302
13.100000 -1.054969
13.150000 -1.109783
13.200000 -1.144042
13.250000 -1.120060
13.300000 -1.082376
13.350000 -1.020709
13.400000 -0.897377
13.450000 -0.736361
13.500000 -0.626732
13.550000 -0.568492
13.600000 -0.499974
13.650000 -0.410901
13.700000 -0.359513
13.750000 -0.376643
13.800000 -0.441734
13.850000 -0.520530
13.900000 -0.619880
13.950000 -0.763768
14.000000 -0.921359
14.050000 -1.027561
14.100000 -1.102931
14.150000 -1.171449
14.200000 -1.185153
14.250000 -1.133764
14.300000 -1.072098
14.350000 -0.979599
14.400000 -0.828860
14.450000 -0.664417
14.500000 -0.554788
14.550000 -0.482845
14.600000 -0.431456
14.650000 -0.421179
14.700000 -0.455438
14.750000 -0.520529
14.800000 -0.613029
14.850000 -0.698676
14.900000 -0.763768
14.950000 -0.839137
15.000000 -0.900804
15.050000 -0.880248
15.100000 -0.818582
15.150000 -0.770620
15.200000 -0.695250
15.250000 -0.571918
15.300000 -0.452012
15.350000 -0.366365
15.400000 -0.277291
15.450000 -0.198496
15.500000 -0.174515
15.550000 -0.201922
15.600000 -0.256736
15.650000 -0.342383
15.700000 -0.441734
15.750000 -0.541085
15.800000 -0.654139
15.850000 -0.774046
15.900000 -0.849415
15.950000 -0.883675
16.000000 -0.907655
16.050000 -0.900803
16.100000 -0.863119
16.150000 -0.828860
16.200000 -0.784323
16.250000 -0.691824
16.300000 -0.578770
16.350000 -0.503400
16.400000 -0.452012
16.450000 -0.404050
16.500000 -0.369790
16.550000 -0.356087
16.600000 -0.356087
16.650000 -0.393772
16.700000 -0.445160
16.750000 -0.482845
16.800000 -0.510252
16.850000 -0.571918
16.900000 -0.637010
16.950000 -0.678120
17.000000 -0.698676
17.050000 -0.691824
17.100000 -0.640436
17.150000 -0.568492
17.200000 -0.499974
17.250000 -0.390346
17.300000 -0.236181
17.350000 -0.119700
17.400000 -0.030627
17.450000 0.075575
17.500000 0.164648
17.550000 0.147519
17.600000 0.065297
17.650000 -0.010072
17.700000 -0.095719
17.750000 -0.236181
17.800000 -0.386920
17.850000 -0.520530
17.900000 -0.619880
17.950000 -0.708954
18.000000 -0.753490
18.050000 -0.729509
18.100000 -0.664418
18.150000 -0.592474
18.200000 -0.499975
18.250000 -0.366364
18.300000 -0.246458
18.350000 -0.174515
18.400000 -0.123126
18.450000 -0.102571
18.500000 -0.129978
18.550000 -0.212199
18.600000 -0.321829
18.650000 -0.455438
18.700000 -0.606177
18.750000 -0.753490
18.800000 -0.887100
18.850000 -0.983025
18.900000 -1.020710
18.950000 -1.013858
19.000000 -0.972747
19.050000 -0.900803
19.100000 -0.798027
19.150000 -0.691825
19.200000 -0.589048
19.250000 -0.499974
19.300000 -0.448586
19.350000 -0.462290
19.400000 -0.520529
19.450000 -0.589048
19.500000 -0.640436
19.550000 -0.698676
19.600000 -0.804879
19.650000 -0.921359
19.700000 -1.003581
19.750000 -1.048117
19.800000 -1.089227
19.850000 -1.113208
19.900000 -1.109783
19.950000 -1.078950
20.000000 -1.020710
20.050000 -0.917932
20.100000 -0.815156
20.150000 -0.750064
20.200000 -0.671268
20.250000 -0.561640
20.300000 -0.458864
20.350000 -0.390346
20.400000 -0.311550
20.450000 -0.249884
20.500000 -0.225904
20.550000 -0.229329
20.600000 -0.249885
20.650000 -0.290995
20.700000 -0.342383
20.750000 -0.393772
20.800000 -0.445161
20.850000 -0.472567
20.900000 -0.465715
20.950000 -0.462289
21.000000 -0.452012
21.050000 -0.421179
21.100000 -0.410901
21.150000 -0.441734
21.200000 -0.469141
21.250000 -0.486271
21.300000 -0.520530
21.350000 -0.571918
21.400000 -0.633584
21.450000 -0.698676
21.500000 -0.767194
21.550000 -0.825434
21.600000 -0.863119
21.650000 -0.880249
21.700000 -0.890526
21.750000 -0.917933
21.800000 -0.924785
21.850000 -0.897377
21.900000 -0.873396
21.950000 -0.866545
22.000000 -0.869971
22.050000 -0.887099
22.100000 -0.928210
22.150000 -0.962470
22.200000 -1.000155
22.250000 -1.034413
22.300000 -1.034413
22.350000 -1.013858
22.400000 -0.989877
22.450000 -0.924785
22.500000 -0.828860
22.550000 -0.753490
22.600000 -0.671269
22.650000 -0.547937
22.700000 -0.431456
22.750000 -0.376642
22.800000 -0.352661
22.850000 -0.349235
22.900000 -0.397198
22.950000 -0.479419
23.000000 -0.578770
23.050000 -0.695250
23.100000 -0.811731
23.150000 -0.897378
23.200000 -0.959044
23.250000 -1.000155
23.300000 -0.993303
23.350000 -0.972747
23.400000 -0.965895
23.450000 -0.945340
23.500000 -0.924785
23.550000 -0.952192
23.600000 -1.007006
23.650000 -1.037839
23.700000 -1.092653
23.750000 -1.195430
23.800000 -1.260522
23.850000 -1.274225
23.900000 -1.291355
23.950000 -1.318763
24.000000 -1.281077
24.050000 -1.178300
24.100000 -1.061820
24.150000 -0.965895
24.200000 -0.893952
24.250000 -0.818582
24.300000 -0.743213
24.350000 -0.715805
24.400000 -0.746639
24.450000 -0.791175
24.500000 -0.852841
24.550000 -0.952192
24.600000 -1.054969
24.650000 -1.096079
24.700000 -1.099505
24.750000 -1.116634
24.800000 -1.116635
24.850000 -1.051543
24.900000 -0.972747
24.950000 -0.928211
25.000000 -0.883674
25.050000 -0.808305
25.100000 -0.732935
25.150000 -0.684972
25.200000 -0.650714
25.250000 -0.595899
25.300000 -0.554788
25.350000 -0.534233
25.400000 -0.517104
25.450000 -0.465715
25.500000 -0.373217
25.550000 -0.284144
25.600000 -0.208774
25.650000 -0.123126
25.700000 -0.034054
25.750000 -0.003221
25.800000 -0.020350
25.850000 -0.040905
25.900000 -0.092294
25.950000 -0.212199
26.000000 -0.366365
26.050000 -0.489697
26.100000 -0.595899
26.150000 -0.702102
26.200000 -0.791175
26.250000 -0.842563
26.300000 -0.863119
26.350000 -0.859692
26.400000 -0.822008
26.450000 -0.763768
26.500000 -0.688399
26.550000 -0.619880
26.600000 -0.568492
26.650000 -0.558214
26.700000 -0.568492
26.750000 -0.585622
26.800000 -0.609603
26.850000 -0.660991
26.900000 -0.722658
26.950000 -0.787749
27.000000 -0.859693
27.050000 -0.928210
27.100000 -0.983025
27.150000 -1.024136
27.200000 -1.075524
27.250000 -1.102931
27.300000 -1.113209
27.350000 -1.126912
27.400000 -1.123487
27.450000 -1.072098
27.500000 -1.007006
27.550000 -0.965895
27.600000 -0.935062
27.650000 -0.866545
27.700000 -0.784323
27.750000 -0.753490
27.800000 -0.756916
27.850000 -0.750064
27.900000 -0.756916
27.950000 -0.791175
28.000000 -0.835712
28.050000 -0.890526
28.100000 -0.969321
28.150000 -1.054969
28.200000 -1.106357
28.250000 -1.120060
28.300000 -1.099505
28.350000 -1.065246
28.400000 -1.030987
28.450000 -0.986451
28.500000 -0.917933
28.550000 -0.845989
28.600000 -0.794601
28.650000 -0.760342
28.700000 -0.746638
28.750000 -0.756917
28.800000 -0.791175
28.850000 -0.859693
28.900000 -0.952191
28.950000 -1.030988
29.000000 -1.089228
29.050000 -1.154319
29.100000 -1.219411
29.150000 -1.250245
29.200000 -1.250244
29.250000 -1.257096
29.300000 -1.246819
29.350000 -1.212559
29.400000 -1.171448
29.450000 -1.120061
29.500000 -1.051542
29.550000 -0.993303
29.600000 -0.962469
29.650000 -0.924785
29.700000 -0.873397
29.750000 -0.845989
29.800000 -0.828860
29.850000 -0.780898
29.900000 -0.702102
29.950000 -0.626733
30.000000 -0.551363
30.050000 -0.448586
30.100000 -0.369790
30.150000 -0.311550
30.200000 -0.236181
30.250000 -0.157385
30.300000 -0.112849
30.350000 -0.102571
30.400000 -0.099146
30.450000 -0.109422
30.500000 -0.167663
30.550000 -0.263588
30.600000 -0.366365
30.650000 -0.452012
30.700000 -0.541085
30.750000 -0.643862
30.800000 -0.708954
30.850000 -0.715806
30.900000 -0.708954
30.950000 -0.702102
31.000000 -0.671268
31.050000 -0.619881
31.100000 -0.568492
31.150000 -0.506826
31.200000 -0.448586
31.250000 -0.400624
31.300000 -0.352661
31.350000 -0.308124
31.400000 -0.297847
31.450000 -0.294421
31.500000 -0.273865
31.550000 -0.267013
31.600000 -0.277291
31.650000 -0.287569
31.700000 -0.284143
31.750000 -0.277291
31.800000 -0.277292
31.850000 -0.301272
31.900000 -0.342384
31.950000 -0.393771
32.000000 -0.479419
32.050000 -0.565066
32.100000 -0.630158
32.150000 -0.705528
32.200000 -0.808305
32.250000 -0.880248
32.300000 -0.907656
32.350000 -0.945341
32.400000 -0.983025
32.450000 -0.969321
32.500000 -0.911081
32.550000 -0.852841
32.600000 -0.798027
32.650000 -0.732934
32.700000 -0.681547
32.750000 -0.657566
32.800000 -0.650714
32.850000 -0.654139
32.900000 -0.691824
32.950000 -0.774046
33.000000 -0.890526
33.050000 -1.000154
33.100000 -1.106357
33.150000 -1.222837
33.200000 -1.329040
33.250000 -1.370150
33.300000 -1.339318
33.350000 -1.284503
33.400000 -1.239967
33.450000 -1.168023
33.500000 -1.072098
33.550000 -0.986451
33.600000 -0.907655
33.650000 -0.835711
33.700000 -0.780897
33.750000 -0.753491
33.800000 -0.736361
33.850000 -0.739787
33.900000 -0.763768
33.950000 -0.791175
34.000000 -0.825434
34.050000 -0.866545
34.100000 -0.887100
34.150000 -0.887100
34.200000 -0.887100
34.250000 -0.849415
34.300000 -0.770620
34.350000 -0.712380
34.400000 -0.695251
34.450000 -0.674695
34.500000 -0.650714
34.550000 -0.664417
34.600000 -0.722657
34.650000 -0.794601
34.700000 -0.873397
34.750000 -0.955618
34.800000 -1.044691
34.850000 -1.130338
34.900000 -1.181727
34.950000 -1.226263
35.000000 -1.260522
35.050000 -1.253670
35.100000 -1.192004
35.150000 -1.116635
35.200000 -1.044691
35.250000 -0.955618
35.300000 -0.863119
35.350000 -0.787749
35.400000 -0.719231
35.450000 -0.643862
35.500000 -0.589047
35.550000 -0.534233
35.600000 -0.482845
35.650000 -0.441734
35.700000 -0.414327
35.750000 -0.383494
35.800000 -0.362938
35.850000 -0.376642
35.900000 -0.404050
35.950000 -0.410901
36.000000 -0.448586
36.050000 -0.520530
36.100000 -0.582196
36.150000 -0.623306
36.200000 -0.691824
36.250000 -0.767194
36.300000 -0.798027
36.350000 -0.825434
36.400000 -0.883674
36.450000 -0.945340
36.500000 -0.983025
36.550000 -1.037839
36.600000 -1.082376
36.650000 -1.075524
36.700000 -1.065246
36.750000 -1.099505
36.800000 -1.123486
36.850000 -1.106357
36.900000 -1.068673
36.950000 -1.034413
37.000000 -1.010432
37.050000 -0.976173
37.100000 -0.935063
37.150000 -0.917933
37.200000 -0.914507
37.250000 -0.897378
37.300000 -0.859693
37.350000 -0.822008
37.400000 -0.774045
37.450000 -0.702102
37.500000 -0.609603
37.550000 -0.520530
37.600000 -0.431457
37.650000 -0.359513
37.700000 -0.335532
37.750000 -0.345809
37.800000 -0.386920
37.850000 -0.458864
37.900000 -0.558215
37.950000 -0.678121
38.000000 -0.818582
38.050000 -0.955618
38.100000 -1.054969
38.150000 -1.102931
38.200000 -1.137190
38.250000 -1.150893
38.300000 -1.140616
38.350000 -1.126913
38.400000 -1.106357
38.450000 -1.065247
38.500000 -1.030988
38.550000 -1.041265
38.600000 -1.072098
38.650000 -1.106357
38.700000 -1.154320
38.750000 -1.195430
38.800000 -1.222837
38.850000 -1.236541
38.900000 -1.236540
38.950000 -1.202282
39.000000 -1.157745
39.050000 -1.123487
39.100000 -1.082376
39.150000 -1.058394
39.200000 -1.068673
39.250000 -1.082376
39.300000 -1.106357
39.350000 -1.140615
39.400000 -1.192004
39.450000 -1.229689
39.500000 -1.243393
39.550000 -1.246818
39.600000 -1.233115
39.650000 -1.205707
39.700000 -1.161172
39.750000 -1.089228
39.800000 -1.017284
39.850000 -0.965895
39.900000 -0.921358
39.950000 -0.880249
40.000000 -0.866545
40.050000 -0.887100
40.100000 -0.921359
40.150000 -0.979599
40.200000 -1.058394
40.250000 -1.102931
40.300000 -1.116634
40.350000 -1.123486
40.400000 -1.116635
40.450000 -1.065246
40.500000 -0.983025
40.550000 -0.876822
40.600000 -0.753490
40.650000 -0.626732
40.700000 -0.513678
40.750000 -0.410902
40.800000 -0.345810
40.850000 -0.321828
40.900000 -0.321828
40.950000 -0.359513
41.000000 -0.458864
41.050000 -0.589048
41.100000 -0.715806
41.150000 -0.845989
41.200000 -0.962470
41.250000 -1.030987
41.300000 -1.075524
41.350000 -1.092654
41.400000 -1.065246
41.450000 -0.996729
41.500000 -0.931637
41.550000 -0.852841
41.600000 -0.763768
41.650000 -0.698676
41.700000 -0.654139
41.750000 -0.602751
41.800000 -0.571918
41.850000 -0.571918
41.900000 -0.589048
41.950000 -0.643862
42.000000 -0.715805
42.050000 -0.756916
42.100000 -0.804878
42.150000 -0.893952
42.200000 -0.955618
42.250000 -0.962469
42.300000 -0.983025
42.350000 -1.027562
42.400000 -1.058395
42.450000 -1.089228
42.500000 -1.144042
42.550000 -1.174874
42.600000 -1.157746
42.650000 -1.109783
42.700000 -1.054968
42.750000 -1.000154
42.800000 -0.935063
42.850000 -0.832286
42.900000 -0.691825
42.950000 -0.558215
43.000000 -0.462290
43.050000 -0.373217
43.100000 -0.273866
43.150000 -0.198496
43.200000 -0.171089
43.250000 -0.167663
43.300000 -0.201921
43.350000 -0.280717
43.400000 -0.386920
43.450000 -0.472567
43.500000 -0.551363
43.550000 -0.647288
43.600000 -0.746638
43.650000 -0.815157
43.700000 -0.849415
43.750000 -0.869971
43.800000 -0.880249
43.850000 -0.845989
43.900000 -0.794601
43.950000 -0.791175
44.000000 -0.822008
44.050000 -0.808305
44.100000 -0.774046
44.150000 -0.804879
44.200000 -0.883674
44.250000 -0.921359
44.300000 -0.935063
44.350000 -0.962470
44.400000 -0.976173
44.450000 -0.931636
44.500000 -0.863119
44.550000 -0.822008
44.600000 -0.787749
44.650000 -0.712380
44.700000 -0.637010
44.750000 -0.599326
44.800000 -0.595899
44.850000 -0.589047
44.900000 -0.613029
44.950000 -0.671269
45.000000 -0.746639
45.050000 -0.825434
45.100000 -0.890525
45.150000 -0.921359
45.200000 -0.931636
45.250000 -0.921359
45.300000 -0.869971
45.350000 -0.804879
45.400000 -0.746639
45.450000 -0.657565
45.500000 -0.541085
45.550000 -0.448586
45.600000 -0.393772
45.650000 -0.338957
45.700000 -0.304699
45.750000 -0.318403
45.800000 -0.352661
45.850000 -0.386920
45.900000 -0.441734
45.950000 -0.527382
46.000000 -0.626732
46.050000 -0.705528
46.100000 -0.767194
46.150000 -0.825434
46.200000 -0.866545
46.250000 -0.883674
46.300000 -0.876822
46.350000 -0.856267
46.400000 -0.822008
46.450000 -0.777471
46.500000 -0.708953
46.550000 -0.637010
46.600000 -0.599325
46.650000 -0.599325
46.700000 -0.602751
46.750000 -0.623306
46.800000 -0.664417
46.850000 -0.684972
46.900000 -0.695251
46.950000 -0.722657
47.000000 -0.753491
47.050000 -0.726083
47.100000 -0.637010
47.150000 -0.534233
47.200000 -0.414327
47.250000 -0.287569
47.300000 -0.160811
47.350000 -0.064886
47.400000 -0.010072
47.450000 0.003631
47.500000 -0.023775
47.550000 -0.109423
47.600000 -0.236180
47.650000 -0.366365
47.700000 -0.506826
47.750000 -0.671269
47.800000 -0.835712
47.850000 -0.986451
47.900000 -1.106357
47.950000 -1.185152
48.000000 -1.219411
48.050000 -1.212559
48.100000 -1.161171
48.150000 -1.096079
48.200000 -1.034414
48.250000 -0.959044
48.300000 -0.863119
48.350000 -0.808305
48.400000 -0.798027
48.450000 -0.784323
48.500000 -0.760342
48.550000 -0.780897
48.600000 -0.808305
48.650000 -0.804879
48.700000 -0.818583
48.750000 -0.849415
48.800000 -0.849416
48.850000 -0.818583
48.900000 -0.770620
48.950000 -0.702102
49.000000 -0.643862
49.050000 -0.606177
49.100000 -0.565066
49.150000 -0.520530
49.200000 -0.523956
49.250000 -0.558214
49.300000 -0.602751
49.350000 -0.674695
49.400000 -0.756916
49.450000 -0.822008
49.500000 -0.900803
49.550000 -0.979599
49.600000 -1.020709
49.650000 -1.010432
49.700000 -0.996728
49.750000 -0.983025
49.800000 -0.945341
49.850000 -0.880248
49.900000 -0.804879
49.950000 -0.753490
50.000000 -0.746639
50.050000 -0.756916
50.100000 -0.767194
50.150000 -0.791175
50.200000 -0.839137
50.250000 -0.873397
50.300000 -0.900803
50.350000 -0.921359
50.400000 -0.924784
50.450000 -0.911081
50.500000 -0.869971
50.550000 -0.794601
50.600000 -0.708954
50.650000 -0.654140
50.700000 -0.582196
50.750000 -0.472567
50.800000 -0.400623
50.850000 -0.386920
50.900000 -0.390346
50.950000 -0.410901
51.000000 -0.475993
51.050000 -0.558214
51.100000 -0.619880
51.150000 -0.691825
51.200000 -0.784323
51.250000 -0.832285
51.300000 -0.835712
51.350000 -0.835711
51.400000 -0.808304
51.450000 -0.739786
51.500000 -0.664417
51.550000 -0.626732
51.600000 -0.578770
51.650000 -0.496549
51.700000 -0.448586
51.750000 -0.486271
51.800000 -0.558214
51.850000 -0.619881
51.900000 -0.681546
51.950000 -0.756917
52.000000 -0.856267
52.050000 -0.952192
52.100000 -1.044691
52.150000 -1.140616
52.200000 -1.215986
52.250000 -1.274226
52.300000 -1.315336
52.350000 -1.346169
52.400000 -1.353021
52.450000 -1.342743
52.500000 -1.308484
52.550000 -1.246818
52.600000 -1.161171
52.650000 -1.051543
52.700000 -0.914507
52.750000 -0.770620
52.800000 -0.626732
52.850000 -0.458863
52.900000 -0.301273
52.950000 -0.212200
53.000000 -0.164237
53.050000 -0.116274
53.100000 -0.116274
53.150000 -0.167663
53.200000 -0.232755
53.250000 -0.308125
53.300000 -0.410901
53.350000 -0.506826
53.400000 -0.578769
53.450000 -0.654139
53.500000 -0.719232
53.550000 -0.743213
53.600000 -0.750065
53.650000 -0.750065
53.700000 -0.726084
53.750000 -0.722657
53.800000 -0.750064
53.850000 -0.753490
53.900000 -0.719231
53.950000 -0.719231
54.000000 -0.763768
54.050000 -0.780897
54.100000 -0.753490
54.150000 -0.746639
54.200000 -0.756916
54.250000 -0.750064
54.300000 -0.726083
54.350000 -0.695250
54.400000 -0.664417
54.450000 -0.640436
54.500000 -0.609602
54.550000 -0.585622
54.600000 -0.578770
54.650000 -0.595899
54.700000 -0.602751
54.750000 -0.623306
54.800000 -0.684972
54.850000 -0.743212
54.900000 -0.791175
54.950000 -0.856267
55.000000 -0.924785
55.050000 -0.983025
55.100000 -1.061820
55.150000 -1.157745
55.200000 -1.215986
55.250000 -1.246818
55.300000 -1.294781
55.350000 -1.305058
55.400000 -1.281078
55.450000 -1.263947
55.500000 -1.212560
55.550000 -1.102931
55.600000 -1.010432
55.650000 -0.948766
55.700000 -0.859693
55.750000 -0.746638
55.800000 -0.688399
55.850000 -0.671269
55.900000 -0.657565
55.950000 -0.674695
56.000000 -0.743213
56.050000 -0.832286
56.100000 -0.917933
56.150000 -1.017284
56.200000 -1.106357
56.250000 -1.164597
56.300000 -1.195431
56.350000 -1.209133
56.400000 -1.195430
56.450000 -1.154319
56.500000 -1.092654
56.550000 -1.010432
56.600000 -0.938489
56.650000 -0.887100
56.700000 -0.852841
56.750000 -0.835712
56.800000 -0.859693
56.850000 -0.941914
56.900000 -1.048117
56.950000 -1.157746
57.000000 -1.274226
57.050000 -1.380428
57.100000 -1.431817
57.150000 -1.448946
57.200000 -1.445520
57.250000 -1.373576
57.300000 -1.212559
57.350000 -1.058394
57.400000 -0.945340
57.450000 -0.842564
57.500000 -0.736361
57.550000 -0.643862
57.600000 -0.599325
57.650000 -0.599325
57.700000 -0.643861
57.750000 -0.715806
57.800000 -0.798027
57.850000 -0.890526
57.900000 -0.952192
57.950000 -0.979599
58.000000 -0.989877
58.050000 -0.989877
58.100000 -0.941914
58.150000 -0.883674
58.200000 -0.842564
58.250000 -0.787749
58.300000 -0.719232
58.350000 -0.684972
58.400000 -0.660991
58.450000 -0.606177
58.500000 -0.565066
58.550000 -0.571918
58.600000 -0.547937
58.650000 -0.486270
58.700000 -0.455438
58.750000 -0.452012
58.800000 -0.410901
58.850000 -0.366365
58.900000 -0.359513
58.950000 -0.380068
59.000000 -0.428030
59.050000 -0.510252
59.100000 -0.616454
59.150000 -0.726083
59.200000 -0.873396
59.250000 -1.027562
59.300000 -1.164597
59.350000 -1.291355
59.400000 -1.383854
59.450000 -1.404409
59.500000 -1.397557
59.550000 -1.390706
59.600000 -1.349596
59.650000 -1.257097
59.700000 -1.164597
59.750000 -1.106357
59.800000 -1.061821
59.850000 -1.017284
59.900000 -0.983025
59.950000 -0.972747
60.000000 -0.996728
60.050000 -1.024135
60.100000 -1.051543
60.150000 -1.113209
60.200000 -1.168023
60.250000 -1.157745
60.300000 -1.120060
60.350000 -1.109783
60.400000 -1.096079
60.450000 -1.058394
60.500000 -1.013857
60.550000 -0.989877
60.600000 -0.959044
60.650000 -0.924785
60.700000 -0.893952
60.750000 -0.876823
60.800000 -0.866544
60.850000 -0.845989
60.900000 -0.818582
60.950000 -0.811730
61.000000 -0.822008
61.050000 -0.818582
61.100000 -0.808304
61.150000 -0.839138
61.200000 -0.880248
61.250000 -0.897378
61.300000 -0.914507
61.350000 -0.965895
61.400000 -0.989877
61.450000 -0.965895
61.500000 -0.945340
61.550000 -0.948766
61.600000 -0.921359
61.650000 -0.859693
61.700000 -0.828860
61.750000 -0.822008
61.800000 -0.808304
61.850000 -0.794601
61.900000 -0.801453
61.950000 -0.842563
62.000000 -0.887100
62.050000 -0.897378
62.100000 -0.897378
62.150000 -0.914507
62.200000 -0.928210
62.250000 -0.914507
62.300000 -0.866545
62.350000 -0.822008
62.400000 -0.791175
62.450000 -0.750064
62.500000 -0.702102
62.550000 -0.681547
62.600000 -0.688399
62.650000 -0.705527
62.700000 -0.739787
62.750000 -0.801453
62.800000 -0.880248
62.850000 -0.969321
62.900000 -1.075524
62.950000 -1.181727
63.000000 -1.253670
63.050000 -1.294781
63.100000 -1.308485
63.150000 -1.270800
63.200000 -1.181726
63.250000 -1.048117
63.300000 -0.873396
63.350000 -0.695250
63.400000 -0.541085
63.450000 -0.390346
63.500000 -0.267014
63.550000 -0.198496
63.600000 -0.177940
63.650000 -0.188218
63.700000 -0.222477
63.750000 -0.280717
63.800000 -0.349236
63.850000 -0.421179
63.900000 -0.486271
63.950000 -0.527381
64.000000 -0.561640
64.050000 -0.585622
64.100000 -0.599326
64.150000 -0.613029
64.200000 -0.623306
64.250000 -0.623307
64.300000 -0.647288
64.350000 -0.726084
64.400000 -0.811731
64.450000 -0.890526
64.500000 -0.965896
64.550000 -1.037839
64.600000 -1.085802
64.650000 -1.126912
64.700000 -1.147468
64.750000 -1.137190
64.800000 -1.102931
64.850000 -1.027562
64.900000 -0.914507
64.950000 -0.804879
65.000000 -0.708954
65.050000 -0.592473
65.100000 -0.455438
65.150000 -0.352661
65.200000 -0.294421
65.250000 -0.267014
65.300000 -0.277291
65.350000 -0.342383
65.400000 -0.431456
65.450000 -0.534234
65.500000 -0.647288
65.550000 -0.770619
65.600000 -0.873397
65.650000 -0.938488
65.700000 -0.972748
65.750000 -0.986451
65.800000 -0.969322
65.850000 -0.914507
65.900000 -0.835711
65.950000 -0.770620
66.000000 -0.708954
66.050000 -0.640436
66.100000 -0.589047
66.150000 -0.585621
66.200000 -0.626733
66.250000 -0.660991
66.300000 -0.684972
66.350000 -0.732935
66.400000 -0.801453
66.450000 -0.856267
66.500000 -0.887100
66.550000 -0.907655
66.600000 -0.921359
66.650000 -0.911081
66.700000 -0.880249
66.750000 -0.845990
66.800000 -0.794601
66.850000 -0.708953
66.900000 -0.616454
66.950000 -0.561641
67.000000 -0.537659
67.050000 -0.503400
67.100000 -0.475994
67.150000 -0.489697
67.200000 -0.530807
67.250000 -0.561640
67.300000 -0.595899
67.350000 -0.647288
67.400000 -0.698676
67.450000 -0.736361
67.500000 -0.767194
67.550000 -0.798027
67.600000 -0.811730
67.650000 -0.798027
67.700000 -0.774046
67.750000 -0.774046
67.800000 -0.763768
67.850000 -0.715805
67.900000 -0.657565
67.950000 -0.647288
68.000000 -0.643862
68.050000 -0.606177
68.100000 -0.565067
68.150000 -0.558215
68.200000 -0.558215
68.250000 -0.544510
68.300000 -0.523956
68.350000 -0.523956
68.400000 -0.554789
68.450000 -0.595900
68.500000 -0.630159
68.550000 -0.684972
68.600000 -0.753491
68.650000 -0.791175
68.700000 -0.818583
68.750000 -0.866545
68.800000 -0.904230
68.850000 -0.893952
68.900000 -0.866545
68.950000 -0.845989
69.000000 -0.811731
69.050000 -0.736361
69.100000 -0.637010
69.150000 -0.544511
69.200000 -0.465716
69.250000 -0.380068
69.300000 -0.304698
69.350000 -0.263588
69.400000 -0.253310
69.450000 -0.263588
69.500000 -0.301273
69.550000 -0.376642
69.600000 -0.482845
69.650000 -0.592473
69.700000 -0.708954
69.750000 -0.818582
69.800000 -0.928210
69.850000 -1.003580
69.900000 -1.041265
69.950000 -1.044691
70.000000 -1.034413
70.050000 -0.979599
70.100000 -0.890525
70.150000 -0.808305
70.200000 -0.729509
70.250000 -0.602751
70.300000 -0.475993
70.350000 -0.400623
70.400000 -0.345809
70.450000 -0.290995
70.500000 -0.277292
70.550000 -0.332106
70.600000 -0.417753
70.650000 -0.510252
70.700000 -0.623307
70.750000 -0.739787
70.800000 -0.839138
70.850000 -0.921359
70.900000 -1.017284
70.950000 -1.113209
71.000000 -1.164597
71.050000 -1.157746
71.100000 -1.123486
71.150000 -1.061821
71.200000 -0.972747
71.250000 -0.880249
71.300000 -0.801453
71.350000 -0.722657
71.400000 -0.626732
71.450000 -0.530807
71.500000 -0.479419
71.550000 -0.448586
71.600000 -0.417753
71.650000 -0.404050
71.700000 -0.448586
71.750000 -0.517103
71.800000 -0.578769
71.850000 -0.657565
71.900000 -0.774045
71.950000 -0.883674
72.000000 -0.969322
72.050000 -1.030988
72.100000 -1.072098
72.150000 -1.102931
72.200000 -1.140616
72.250000 -1.144042
72.300000 -1.116635
72.350000 -1.109783
72.400000 -1.085801
72.450000 -1.013858
72.500000 -0.938488
72.550000 -0.904230
72.600000 -0.883674
72.650000 -0.845989
72.700000 -0.815156
72.750000 -0.804878
72.800000 -0.815156
72.850000 -0.828860
72.900000 -0.825434
72.950000 -0.842563
73.000000 -0.904229
73.050000 -0.959044
73.100000 -1.000154
73.150000 -1.075524
73.200000 -1.171449
73.250000 -1.236541
73.300000 -1.267374
73.350000 -1.308484
73.400000 -1.342744
73.450000 -1.339318
73.500000 -1.308484
73.550000 -1.257096
73.600000 -1.174875
73.650000 -1.072098
73.700000 -0.976173
73.750000 -0.890526
73.800000 -0.794601
73.850000 -0.688398
73.900000 -0.602752
73.950000 -0.554788
74.000000 -0.537659
74.050000 -0.530808
74.100000 -0.537659
74.150000 -0.582196
74.200000 -0.671269
74.250000 -0.777471
74.300000 -0.852841
74.350000 -0.911081
74.400000 -0.986451
74.450000 -1.051542
74.500000 -1.092653
74.550000 -1.126913
74.600000 -1.133764
74.650000 -1.065246
74.700000 -0.962470
74.750000 -0.893952
74.800000 -0.852841
74.850000 -0.784323
74.900000 -0.705528
74.950000 -0.674695
75.000000 -0.674694
75.050000 -0.684973
75.100000 -0.729509
75.150000 -0.818582
75.200000 -0.914507
75.250000 -1.007006
75.300000 -1.085802
75.350000 -1.126912
75.400000 -1.130338
75.450000 -1.137190
75.500000 -1.123487
75.550000 -1.065247
75.600000 -1.010432
75.650000 -0.959044
75.700000 -0.883674
75.750000 -0.818582
75.800000 -0.787749
75.850000 -0.736361
75.900000 -0.657565
75.950000 -0.623306
76.000000 -0.613028
76.050000 -0.565066
76.100000 -0.506826
76.150000 -0.482845
76.200000 -0.458864
76.250000 -0.390346
76.300000 -0.335532
76.350000 -0.328679
76.400000 -0.356087
76.450000 -0.383494
76.500000 -0.421179
76.550000 -0.503400
76.600000 -0.643862
76.650000 -0.787750
76.700000 -0.911081
76.750000 -1.013858
76.800000 -1.096080
76.850000 -1.140616
76.900000 -1.147468
76.950000 -1.113208
77.000000 -1.041265
77.050000 -0.955618
77.100000 -0.873396
77.150000 -0.787749
77.200000 -0.705528
77.250000 -0.667843
77.300000 -0.660991
77.350000 -0.688398
77.400000 -0.767194
77.450000 -0.863118
77.500000 -0.921359
77.550000 -0.965895
77.600000 -1.054968
77.650000 -1.116634
77.700000 -1.092653
77.750000 -1.027562
77.800000 -0.965895
77.850000 -0.897378
77.900000 -0.811731
77.950000 -0.719231
78.000000 -0.640436
78.050000 -0.585622
78.100000 -0.568492
78.150000 -0.558214
78.200000 -0.554789
78.250000 -0.582196
78.300000 -0.616455
78.350000 -0.626732
78.400000 -0.630158
78.450000 -0.643862
78.500000 -0.650714
78.550000 -0.664417
78.600000 -0.681547
78.650000 -0.671269
78.700000 -0.660991
78.750000 -0.688399
78.800000 -0.708954
78.850000 -0.684972
78.900000 -0.691825
78.950000 -0.736361
79.000000 -0.756917
79.050000 -0.746639
79.100000 -0.753490
79.150000 -0.774046
79.200000 -0.791175
79.250000 -0.804879
79.300000 -0.818582
79.350000 -0.852841
79.400000 -0.890526
79.450000 -0.890526
79.500000 -0.832286
79.550000 -0.750064
79.600000 -0.657565
79.650000 -0.534233
79.700000 -0.386920
79.750000 -0.253311
79.800000 -0.140256
79.850000 -0.016924
79.900000 0.072150
79.950000 0.075576
80.000000 0.048168
80.050000 0.013910
80.100000 -0.068312
80.150000 -0.188218
80.200000 -0.294421
80.250000 -0.386920
80.300000 -0.479419
80.350000 -0.547937
80.400000 -0.585621
80.450000 -0.602751
80.500000 -0.578770
80.550000 -0.537659
80.600000 -0.530807
80.650000 -0.499975
80.700000 -0.441734
80.750000 -0.431456
80.800000 -0.469141
80.850000 -0.469142
80.900000 -0.465716
80.950000 -0.513678
81.000000 -0.582196
81.050000 -0.626732
81.100000 -0.657565
81.150000 -0.691824
81.200000 -0.712380
81.250000 -0.722657
81.300000 -0.708954
81.350000 -0.678121
81.400000 -0.667843
81.450000 -0.664417
81.500000 -0.647288
81.550000 -0.657565
81.600000 -0.678120
81.650000 -0.671269
81.700000 -0.650714
81.750000 -0.671269
81.800000 -0.705528
81.850000 -0.698676
81.900000 -0.671269
81.950000 -0.643862
82.000000 -0.602751
82.050000 -0.537659
82.100000 -0.472567
82.150000 -0.410902
82.200000 -0.359513
82.250000 -0.325254
82.300000 -0.325255
82.350000 -0.366364
82.400000 -0.448586
82.450000 -0.530807
82.500000 -0.626732
82.550000 -0.756916
82.600000 -0.907655
82.650000 -1.010432
82.700000 -1.048117
82.750000 -1.061821
82.800000 -1.058394
82.850000 -1.007006
82.900000 -0.897378
82.950000 -0.777471
83.000000 -0.671269
83.050000 -0.571918
83.100000 -0.465715
83.150000 -0.386920
83.200000 -0.380068
83.250000 -0.417753
83.300000 -0.452012
83.350000 -0.517104
83.400000 -0.616455
83.450000 -0.705527
83.500000 -0.736361
83.550000 -0.746638
83.600000 -0.743213
83.650000 -0.698676
83.700000 -0.619881
83.750000 -0.547937
83.800000 -0.503400
83.850000 -0.475993
83.900000 -0.465715
83.950000 -0.493122
84.000000 -0.565066
84.050000 -0.671269
84.100000 -0.798027
84.150000 -0.935063
84.200000 -1.054968
84.250000 -1.133764
84.300000 -1.171449
84.350000 -1.192004
84.400000 -1.178300
84.450000 -1.102931
84.500000 -1.007006
84.550000 -0.921359
84.600000 -0.835711
84.650000 -0.719232
84.700000 -0.613028
84.750000 -0.575344
84.800000 -0.585622
84.850000 -0.592473
84.900000 -0.623306
84.950000 -0.712379
85.000000 -0.804878
85.050000 -0.880248
85.100000 -0.969322
85.150000 -1.068672
85.200000 -1.126912
85.250000 -1.147468
85.300000 -1.154320
85.350000 -1.137190
85.400000 -1.089228
85.450000 -1.010433
85.500000 -0.904229
85.550000 -0.780897
85.600000 -0.667843
85.650000 -0.582196
85.700000 -0.503401
85.750000 -0.438308
85.800000 -0.410902
85.850000 -0.421179
85.900000 -0.458864
85.950000 -0.541085
86.000000 -0.654140
86.050000 -0.750064
86.100000 -0.825434
86.150000 -0.900804
86.200000 -0.969321
86.250000 -1.024135
86.300000 -1.051543
86.350000 -1.041265
86.400000 -1.007006
86.450000 -0.969322
86.500000 -0.921359
86.550000 -0.859693
86.600000 -0.811731
86.650000 -0.774045
86.700000 -0.736361
86.750000 -0.695250
86.800000 -0.684973
86.850000 -0.681547
86.900000 -0.667843
86.950000 -0.657565
87.000000 -0.657565
87.050000 -0.647288
87.100000 -0.633584
87.150000 -0.613029
87.200000 -0.568492
87.250000 -0.493123
87.300000 -0.417753
87.350000 -0.338958
87.400000 -0.273866
87.450000 -0.229329
87.500000 -0.208774
87.550000 -0.201922
87.600000 -0.212199
87.650000 -0.229329
87.700000 -0.253310
87.750000 -0.301273
87.800000 -0.369791
87.850000 -0.421179
87.900000 -0.431456
87.950000 -0.438309
88.000000 -0.441734
88.050000 -0.431457
88.100000 -0.414327
88.150000 -0.410902
88.200000 -0.424604
88.250000 -0.434882
88.300000 -0.441734
88.350000 -0.448586
88.400000 -0.482845
88.450000 -0.544511
88.500000 -0.602751
88.550000 -0.637010
88.600000 -0.681547
88.650000 -0.719232
88.700000 -0.732935
88.750000 -0.732935
88.800000 -0.722657
88.850000 -0.688398
88.900000 -0.630158
88.950000 -0.589048
89.000000 -0.544511
89.050000 -0.469141
89.100000 -0.421178
89.150000 -0.410901
89.200000 -0.414327
89.250000 -0.431456
89.300000 -0.475993
89.350000 -0.530807
89.400000 -0.592473
89.450000 -0.660992
89.500000 -0.750065
89.550000 -0.873396
89.600000 -0.996729
89.650000 -1.065246
89.700000 -1.072098
89.750000 -1.078950
89.800000 -1.082376
89.850000 -1.024135
89.900000 -0.924785
89.950000 -0.852841
90.000000 -0.798027
90.050000 -0.705528
90.100000 -0.602751
90.150000 -0.537659
90.200000 -0.506826
90.250000 -0.479419
90.300000 -0.458864
90.350000 -0.462290
90.400000 -0.462289
90.450000 -0.448586
90.500000 -0.452012
90.550000 -0.479419
90.600000 -0.479419
90.650000 -0.448586
90.700000 -0.441735
90.750000 -0.462289
90.800000 -0.475993
90.850000 -0.506827
90.900000 -0.595899
90.950000 -0.712380
91.000000 -0.835712
91.050000 -0.969322
91.100000 -1.102931
91.150000 -1.215985
91.200000 -1.291355
91.250000 -1.325614
91.300000 -1.329040
91.350000 -1.301633
91.400000 -1.246819
91.450000 -1.147468
91.500000 -1.010432
91.550000 -0.866545
91.600000 -0.736361
91.650000 -0.619880
91.700000 -0.520529
91.750000 -0.482844
91.800000 -0.493122
91.850000 -0.506826
91.900000 -0.544511
91.950000 -0.623306
92.000000 -0.726083
92.050000 -0.822008
92.100000 -0.907655
92.150000 -0.983025
92.200000 -1.030987
92.250000 -1.054969
92.300000 -1.048117
92.350000 -1.020709
92.400000 -1.007006
92.450000 -0.996728
92.500000 -0.955617
92.550000 -0.900803
92.600000 -0.893952
92.650000 -0.907655
92.700000 -0.907656
92.750000 -0.928211
92.800000 -0.993303
92.850000 -1.051543
92.900000 -1.092654
92.950000 -1.164597
93.000000 -1.267374
93.050000 -1.318762
93.100000 -1.318762
93.150000 -1.339317
93.200000 -1.370150
93.250000 -1.356447
93.300000 -1.318762
93.350000 -1.305059
93.400000 -1.305058
93.450000 -1.284504
93.500000 -1.257096
93.550000 -1.253671
93.600000 -1.267374
93.650000 -1.270800
93.700000 -1.267374
93.750000 -1.277652
93.800000 -1.315336
93.850000 -1.332466
93.900000 -1.305059
93.950000 -1.267374
94.000000 -1.250244
94.050000 -1.222837
94.100000 -1.164597
94.150000 -1.099505
94.200000 -1.037840
94.250000 -0.955618
94.300000 -0.835712
94.350000 -0.719232
94.400000 -0.623307
94.450000 -0.534234
94.500000 -0.448586
94.550000 -0.393772
94.600000 -0.366364
94.650000 -0.359513
94.700000 -0.386920
94.750000 -0.455438
94.800000 -0.537659
94.850000 -0.616455
94.900000 -0.691824
94.950000 -0.746638
95.000000 -0.770620
95.050000 -0.756916
95.100000 -0.691824
95.150000 -0.578770
95.200000 -0.438309
95.250000 -0.277292
95.300000 -0.112849
95.350000 0.010484
95.400000 0.102982
95.450000 0.174926
95.500000 0.171500
95.550000 0.065298
95.600000 -0.064887
95.650000 -0.195070
95.700000 -0.369790
95.750000 -0.582195
95.800000 -0.774046
95.850000 -0.931636
95.900000 -1.044691
95.950000 -1.106357
96.000000 -1.133764
96.050000 -1.123486
96.100000 -1.051542
96.150000 -0.945341
96.200000 -0.859693
96.250000 -0.770620
96.300000 -0.650713
96.350000 -0.558214
96.400000 -0.506826
96.450000 -0.448586
96.500000 -0.383494
96.550000 -0.359513
96.600000 -0.352661
96.650000 -0.325254
96.700000 -0.287570
96.750000 -0.267014
96.800000 -0.270440
96.850000 -0.284143
96.900000 -0.297847
96.950000 -0.338958
97.000000 -0.431456
97.050000 -0.527382
97.100000 -0.585622
97.150000 -0.664417
97.200000 -0.780897
97.250000 -0.883675
97.300000 -0.948766
97.350000 -1.034413
97.400000 -1.099505
97.450000 -1.109783
97.500000 -1.106357
97.550000 -1.106357
97.600000 -1.075524
97.650000 -1.030987
97.700000 -0.996728
97.750000 -0.979599
97.800000 -0.962469
97.850000 -0.955618
97.900000 -0.959044
97.950000 -0.989877
98.000000 -1.027562
98.050000 -1.017284
98.100000 -0.993303
98.150000 -1.010432
98.200000 -1.020710
98.250000 -0.969321
98.300000 -0.880249
98.350000 -0.808305
98.400000 -0.712380
98.450000 -0.589048
98.500000 -0.472567
98.550000 -0.386920
98.600000 -0.335532
98.650000 -0.294421
98.700000 -0.236181
98.750000 -0.201922
98.800000 -0.215625
98.850000 -0.243033
98.900000 -0.236181
98.950000 -0.243033
99.000000 -0.284143
99.050000 -0.290995
99.100000 -0.297846
99.150000 -0.345810
99.200000 -0.421179
99.250000 -0.465715
99.300000 -0.537659
99.350000 -0.650714
99.400000 -0.743213
99.450000 -0.804878
99.500000 -0.873397
99.550000 -0.941914
99.600000 -0.972747
99.650000 -0.945340
99.700000 -0.887100
99.750000 -0.808304
99.800000 -0.705528
99.850000 -0.558214
99.900000 -0.380068
99.950000 -0.246459
100.000000 -0.150534
100.050000 -0.051183
100.100000 0.034464
100.150000 0.051594
100.200000 0.051593
100.250000 0.055019
100.300000 0.020761
100.350000 -0.054608
100.400000 -0.126553
100.450000 -0.181366
100.500000 -0.222477
100.550000 -0.239607
100.600000 -0.260162
100.650000 -0.287569
100.700000 -0.284143
100.750000 -0.263588
100.800000 -0.263588
100.850000 -0.239607
100.900000 -0.208774
100.950000 -0.243033
101.000000 -0.321828
101.050000 -0.380068
101.100000 -0.428030
101.150000 -0.503400
101.200000 -0.613029
101.250000 -0.739787
101.300000 -0.869971
101.350000 -0.983025
101.400000 -1.072098
101.450000 -1.133764
101.500000 -1.150893
101.550000 -1.150894
101.600000 -1.137190
101.650000 -1.085802
101.700000 -0.986451
101.750000 -0.893952
101.800000 -0.825434
101.850000 -0.750064
101.900000 -0.674695
101.950000 -0.613029
102.000000 -0.565067
102.050000 -0.544511
102.100000 -0.551363
102.150000 -0.565066
102.200000 -0.565067
102.250000 -0.534233
102.300000 -0.503401
102.350000 -0.493123
102.400000 -0.482845
102.450000 -0.462289
102.500000 -0.441734
102.550000 -0.452012
102.600000 -0.458864
102.650000 -0.452011
102.700000 -0.445160
102.750000 -0.479419
102.800000 -0.523956
102.850000 -0.551362
102.900000 -0.592473
102.950000 -0.667843
103.000000 -0.729509
103.050000 -0.743212
103.100000 -0.774046
103.150000 -0.835712
103.200000 -0.893952
103.250000 -0.921359
103.300000 -0.952192
103.350000 -0.996729
103.400000 -1.030988
103.450000 -1.044691
103.500000 -1.044691
103.550000 -1.017284
103.600000 -0.965896
103.650000 -0.900803
103.700000 -0.839137
103.750000 -0.777472
103.800000 -0.719231
103.850000 -0.664417
103.900000 -0.613029
103.950000 -0.575344
104.000000 -0.547936
104.050000 -0.534233
104.100000 -0.527382
104.150000 -0.506826
104.200000 -0.475993
104.250000 -0.445160
104.300000 -0.417753
104.350000 -0.397197
104.400000 -0.362939
104.450000 -0.308125
104.500000 -0.273866
104.550000 -0.284143
104.600000 -0.301272
104.650000 -0.311550
104.700000 -0.345809
104.750000 -0.404049
104.800000 -0.469141
104.850000 -0.513678
104.900000 -0.558214
104.950000 -0.613029
105.000000 -0.664417
105.050000 -0.674695
105.100000 -0.660991
105.150000 -0.674695
105.200000 -0.684972
105.250000 -0.657565
105.300000 -0.633584
105.350000 -0.647288
105.400000 -0.678121
105.450000 -0.739787
105.500000 -0.832286
105.550000 -0.917933
105.600000 -1.000155
105.650000 -1.092653
105.700000 -1.164597
105.750000 -1.212559
105.800000 -1.239967
105.850000 -1.236541
105.900000 -1.188578
105.950000 -1.113209
106.000000 -1.034413
106.050000 -0.959044
106.100000 -0.911081
106.150000 -0.866544
106.200000 -0.822008
106.250000 -0.777472
106.300000 -0.770620
106.350000 -0.798027
106.400000 -0.839137
106.450000 -0.856267
106.500000 -0.859693
106.550000 -0.859693
106.600000 -0.839137
106.650000 -0.767194
106.700000 -0.681546
106.750000 -0.616455
106.800000 -0.541086
106.850000 -0.428030
106.900000 -0.345810
106.950000 -0.318402
107.000000 -0.318402
107.050000 -0.345809
107.100000 -0.410901
107.150000 -0.486271
107.200000 -0.558215
107.250000 -0.637010
107.300000 -0.712379
107.350000 -0.780897
107.400000 -0.845989
107.450000 -0.880248
107.500000 -0.887100
107.550000 -0.876822
107.600000 -0.849415
107.650000 -0.780897
107.700000 -0.688398
107.750000 -0.592474
107.800000 -0.503400
107.850000 -0.431457
107.900000 -0.373217
107.950000 -0.328680
108.000000 -0.301273
108.050000 -0.311550
108.100000 -0.349235
108.150000 -0.404050
108.200000 -0.506826
108.250000 -0.637010
108.300000 -0.736361
108.350000 -0.818582
108.400000 -0.924785
108.450000 -1.027562
108.500000 -1.082376
108.550000 -1.126913
108.600000 -1.164597
108.650000 -1.147468
108.700000 -1.102931
108.750000 -1.089228
108.800000 -1.061820
108.850000 -0.986451
108.900000 -0.917933
108.950000 -0.897378
109.000000 -0.890526
109.050000 -0.893952
109.100000 -0.911082
109.150000 -0.962469
109.200000 -1.044691
109.250000 -1.109783
109.300000 -1.164597
109.350000 -1.236541
109.400000 -1.308485
109.450000 -1.305059
109.500000 -1.229689
109.550000 -1.157745
109.600000 -1.092654
109.650000 -0.983025
109.700000 -0.856267
109.750000 -0.756916
109.800000 -0.674694
109.850000 -0.599325
109.900000 -0.578770
109.950000 -0.626732
110.000000 -0.705528
110.050000 -0.767193
110.100000 -0.818582
110.150000 -0.873396
110.200000 -0.914508
110.250000 -0.904230
110.300000 -0.845990
110.350000 -0.770620
110.400000 -0.695251
110.450000 -0.613029
110.500000 -0.561640
110.550000 -0.558214
110.600000 -0.585622
110.650000 -0.626733
110.700000 -0.695250
110.750000 -0.784323
110.800000 -0.859693
110.850000 -0.924784
110.900000 -0.969322
110.950000 -0.993302
111.000000 -0.972747
111.050000 -0.907655
111.100000 -0.811730
111.150000 -0.729509
111.200000 -0.667843
111.250000 -0.589048
111.300000 -0.520530
111.350000 -0.510252
111.400000 -0.561641
111.450000 -0.619880
111.500000 -0.664417
111.550000 -0.722657
111.600000 -0.763768
111.650000 -0.763768
111.700000 -0.739787
111.750000 -0.722657
111.800000 -0.695250
111.850000 -0.650713
111.900000 -0.595899
111.950000 -0.558215
112.000000 -0.551363
112.050000 -0.558214
112.100000 -0.571919
112.150000 -0.619880
112.200000 -0.674695
112.250000 -0.702102
112.300000 -0.712380
112.350000 -0.739787
112.400000 -0.750064
112.450000 -0.736360
112.500000 -0.729509
112.550000 -0.708954
112.600000 -0.650714
112.650000 -0.606177
112.700000 -0.613029
112.750000 -0.613029
112.800000 -0.592474
112.850000 -0.592474
112.900000 -0.602751
112.950000 -0.595900
113.000000 -0.575344
113.050000 -0.561640
113.100000 -0.527382
113.150000 -0.499974
113.200000 -0.479419
113.250000 -0.448586
113.300000 -0.424605
113.350000 -0.445160
113.400000 -0.486271
113.450000 -0.493123
113.500000 -0.493123
113.550000 -0.530808
113.600000 -0.561640
113.650000 -0.547937
113.700000 -0.523955
113.750000 -0.506826
113.800000 -0.479419
113.850000 -0.455438
113.900000 -0.452012
113.950000 -0.469141
114.000000 -0.472567
114.050000 -0.475993
114.100000 -0.510252
114.150000 -0.578770
114.200000 -0.626732
114.250000 -0.650713
114.300000 -0.684972
114.350000 -0.712380
114.400000 -0.695250
114.450000 -0.640435
114.500000 -0.578769
114.550000 -0.499974
114.600000 -0.393772
114.650000 -0.263588
114.700000 -0.136830
114.750000 -0.040905
114.800000 0.013909
114.850000 0.058446
114.900000 0.082427
114.950000 0.044742
115.000000 -0.023775
115.050000 -0.078590
115.100000 -0.136830
115.150000 -0.229329
115.200000 -0.314977
115.250000 -0.383494
115.300000 -0.465715
115.350000 -0.551363
115.400000 -0.606177
115.450000 -0.637010
115.500000 -0.667843
115.550000 -0.688398
115.600000 -0.705528
115.650000 -0.722658
115.700000 -0.746639
115.750000 -0.784323
115.800000 -0.828860
115.850000 -0.839138
115.900000 -0.822008
115.950000 -0.822008
116.000000 -0.804878
116.050000 -0.746638
116.100000 -0.688398
116.150000 -0.654139
116.200000 -0.606177
116.250000 -0.558215
116.300000 -0.541085
116.350000 -0.537659
116.400000 -0.534233
116.450000 -0.558215
116.500000 -0.599325
116.550000 -0.657566
116.600000 -0.750064
116.650000 -0.859693
116.700000 -0.928210
116.750000 -0.976174
116.800000 -1.024136
116.850000 -1.027562
116.900000 -0.972747
116.950000 -0.900804
117.000000 -0.811731
117.050000 -0.684972
117.100000 -0.558215
117.150000 -0.458864
117.200000 -0.380068
117.250000 -0.308124
117.300000 -0.263588
117.350000 -0.229329
117.400000 -0.219051
117.450000 -0.253311
117.500000 -0.338957
117.550000 -0.424605
117.600000 -0.493123
117.650000 -0.544511
117.700000 -0.589048
117.750000 -0.640436
117.800000 -0.674695
117.850000 -0.674695
117.900000 -0.667843
117.950000 -0.667843
118.000000 -0.664417
118.050000 -0.667843
118.100000 -0.705528
118.150000 -0.750064
118.200000 -0.763768
118.250000 -0.760342
118.300000 -0.770620
118.350000 -0.791175
118.400000 -0.787749
118.450000 -0.750065
118.500000 -0.712380
118.550000 -0.702102
118.600000 -0.715805
118.650000 -0.722657
118.700000 -0.743213
118.750000 -0.811730
118.800000 -0.890526
118.850000 -0.914508
118.900000 -0.907655
118.950000 -0.904229
119.000000 -0.893952
119.050000 -0.866544
119.100000 -0.825434
119.150000 -0.756916
119.200000 -0.667843
119.250000 -0.582196
119.300000 -0.544511
119.350000 -0.537659
119.400000 -0.558215
119.450000 -0.595899
119.500000 -0.643862
119.550000 -0.705528
119.600000 -0.777472
119.650000 -0.845989
119.700000 -0.887100
119.750000 -0.880248
119.800000 -0.839137
119.850000 -0.801453
119.900000 -0.763768
119.950000 -0.702102
120.000000 -0.606177
120.050000 -0.506826
120.100000 -0.431457
120.150000 -0.390346
120.200000 -0.373216
120.250000 -0.362939
120.300000 -0.356087
120.350000 -0.373217
120.400000 -0.434883
120.450000 -0.496549
120.500000 -0.530807
120.550000 -0.558215
120.600000 -0.609603
120.650000 -0.630158
120.700000 -0.585622
120.750000 -0.527382
120.800000 -0.513678
120.850000 -0.493123
120.900000 -0.448586
120.950000 -0.404049
121.000000 -0.390346
121.050000 -0.380068
121.100000 -0.366364
121.150000 -0.383494
121.200000 -0.428031
121.250000 -0.482845
121.300000 -0.530807
121.350000 -0.606177
121.400000 -0.726083
121.450000 -0.849415
121.500000 -0.914508
121.550000 -0.945340
121.600000 -0.989876
121.650000 -1.010432
121.700000 -0.983025
121.750000 -0.941914
121.800000 -0.890526
121.850000 -0.794601
121.900000 -0.691824
121.950000 -0.633585
122.000000 -0.595900
122.050000 -0.568492
122.100000 -0.585622
122.150000 -0.626733
122.200000 -0.657566
122.250000 -0.712379
122.300000 -0.804879
122.350000 -0.869971
122.400000 -0.893952
122.450000 -0.904230
122.500000 -0.921359
122.550000 -0.921359
122.600000 -0.900804
122.650000 -0.869970
122.700000 -0.856267
122.750000 -0.887100
122.800000 -0.931637
122.850000 -0.948766
122.900000 -0.976173
122.950000 -1.030987
123.000000 -1.085802
123.050000 -1.092653
123.100000 -1.089227
123.150000 -1.109783
123.200000 -1.133764
123.250000 -1.130338
123.300000 -1.099505
123.350000 -1.078950
123.400000 -1.075524
123.450000 -1.054968
123.500000 -1.007006
123.550000 -0.945340
123.600000 -0.856267
123.650000 -0.743212
123.700000 -0.637010
123.750000 -0.568492
123.800000 -0.506827
123.850000 -0.421179
123.900000 -0.356087
123.950000 -0.352661
124.000000 -0.390346
124.050000 -0.462289
124.100000 -0.571918
124.150000 -0.732935
124.200000 -0.911082
124.250000 -1.065246
124.300000 -1.185153
124.350000 -1.294781
124.400000 -1.356447
124.450000 -1.342743
124.500000 -1.260522
124.550000 -1.164597
124.600000 -1.044691
124.650000 -0.883674
124.700000 -0.732935
124.750000 -0.667843
124.800000 -0.643861
124.850000 -0.602752
124.900000 -0.541085
124.950000 -0.527381
125.000000 -0.547937
125.050000 -0.554789
125.100000 -0.534233
125.150000 -0.513678
125.200000 -0.506827
125.250000 -0.496549
125.300000 -0.479420
125.350000 -0.482845
125.400000 -0.479419
125.450000 -0.469142
125.500000 -0.493123
125.550000 -0.558215
125.600000 -0.619881
125.650000 -0.654139
125.700000 -0.705528
125.750000 -0.784324
125.800000 -0.832286
125.850000 -0.815157
125.900000 -0.784324
125.950000 -0.780897
126.000000 -0.784323
126.050000 -0.736361
126.100000 -0.660991
126.150000 -0.626732
126.200000 -0.654140
126.250000 -0.681546
126.300000 -0.674695
126.350000 -0.660991
126.400000 -0.681547
126.450000 -0.719231
126.500000 -0.753490
126.550000 -0.804878
126.600000 -0.876822
126.650000 -0.928210
126.700000 -0.945340
126.750000 -0.965896
126.800000 -0.989877
126.850000 -0.996728
126.900000 -0.972748
126.950000 -0.979599
127.000000 -0.993303
127.050000 -0.965895
127.100000 -0.904229
127.150000 -0.849416
127.200000 -0.787749
127.250000 -0.695250
127.300000 -0.589047
127.350000 -0.527381
127.400000 -0.475993
127.450000 -0.386920
127.500000 -0.308125
127.550000 -0.287570
127.600000 -0.297847
127.650000 -0.294421
127.700000 -0.294421
127.750000 -0.345809
127.800000 -0.421178
127.850000 -0.465715
127.900000 -0.479419
127.950000 -0.499974
128.000000 -0.503401
128.050000 -0.472567
128.100000 -0.428031
128.150000 -0.404049
128.200000 -0.386920
128.250000 -0.373217
128.300000 -0.376642
128.350000 -0.393772
128.400000 -0.417753
128.450000 -0.455438
128.500000 -0.496548
128.550000 -0.534233
128.600000 -0.575344
128.650000 -0.599325
128.700000 -0.585622
128.750000 -0.558215
128.800000 -0.544511
128.850000 -0.499975
128.900000 -0.428031
128.950000 -0.366365
129.000000 -0.332106
129.050000 -0.290995
129.100000 -0.267014
129.150000 -0.277291
129.200000 -0.304699
129.250000 -0.328680
129.300000 -0.356087
129.350000 -0.400623
129.400000 -0.458863
129.450000 -0.506826
129.500000 -0.547936
129.550000 -0.602751
129.600000 -0.667843
129.650000 -0.719232
129.700000 -0.780898
129.750000 -0.849415
129.800000 -0.887100
129.850000 -0.900804
129.900000 -0.917933
129.950000 -0.931636
130.000000 -0.897378
130.050000 -0.849415
130.100000 -0.801452
130.150000 -0.729509
130.200000 -0.650714
130.250000 -0.595899
130.300000 -0.530808
130.350000 -0.465715
130.400000 -0.431457
130.450000 -0.410902
130.500000 -0.376642
130.550000 -0.352661
130.600000 -0.359512
130.650000 -0.376642
130.700000 -0.393772
130.750000 -0.400623
130.800000 -0.393772
130.850000 -0.380068
130.900000 -0.386920
130.950000 -0.393772
131.000000 -0.386920
131.050000 -0.390346
131.100000 -0.400624
131.150000 -0.407475
131.200000 -0.448586
131.250000 -0.523956
131.300000 -0.585622
131.350000 -0.640436
131.400000 -0.719231
131.450000 -0.774046
131.500000 -0.774046
131.550000 -0.787749
131.600000 -0.839137
131.650000 -0.832286
131.700000 -0.767194
131.750000 -0.705528
131.800000 -0.671269
131.850000 -0.613029
131.900000 -0.534233
131.950000 -0.465716
132.000000 -0.434882
132.050000 -0.414327
132.100000 -0.397198
132.150000 -0.404049
132.200000 -0.428030
132.250000 -0.410901
132.300000 -0.359513
132.350000 -0.349236
132.400000 -0.373217
132.450000 -0.373217
132.500000 -0.366364
132.550000 -0.380068
132.600000 -0.373217
132.650000 -0.332106
132.700000 -0.318402
132.750000 -0.332106
132.800000 -0.325254
132.850000 -0.297847
132.900000 -0.273865
132.950000 -0.263587
133.000000 -0.260162
133.050000 -0.249884
133.100000 -0.239607
133.150000 -0.256736
133.200000 -0.294421
133.250000 -0.342383
133.300000 -0.380068
133.350000 -0.421178
133.400000 -0.452012
133.450000 -0.465716
133.500000 -0.462289
133.550000 -0.472568
133.600000 -0.496549
133.650000 -0.503401
133.700000 -0.510252
133.750000 -0.541085
133.800000 -0.599325
133.850000 -0.664418
133.900000 -0.750064
133.950000 -0.856267
134.000000 -0.955618
134.050000 -1.034414
134.100000 -1.099505
134.150000 -1.140616
134.200000 -1.154320
134.250000 -1.140616
134.300000 -1.123486
134.350000 -1.102931
134.400000 -1.065246
134.450000 -1.017284
134.500000 -1.003580
134.550000 -1.003580
134.600000 -1.000154
134.650000 -1.003580
134.700000 -1.027562
134.750000 -1.041265
134.800000 -1.030987
134.850000 -1.020710
134.900000 -1.000154
134.950000 -0.952191
135.000000 -0.897377
135.050000 -0.822008
135.100000 -0.708954
135.150000 -0.602751
135.200000 -0.551363
135.250000 -0.520530
135.300000 -0.493122
135.350000 -0.527381
135.400000 -0.630158
135.450000 -0.729509
135.500000 -0.818582
135.550000 -0.935063
135.600000 -1.054968
135.650000 -1.116635
135.700000 -1.137190
135.750000 -1.150894
135.800000 -1.133764
135.850000 -1.078950
135.900000 -0.989876
135.950000 -0.880249
136.000000 -0.756916
136.050000 -0.650713
136.100000 -0.558214
136.150000 -0.496548
136.200000 -0.482845
136.250000 -0.496549
136.300000 -0.510252
136.350000 -0.520530
136.400000 -0.551362
136.450000 -0.571918
136.500000 -0.565066
136.550000 -0.554789
136.600000 -0.520530
136.650000 -0.452012
136.700000 -0.393771
136.750000 -0.369791
136.800000 -0.356087
136.850000 -0.335531
136.900000 -0.321828
136.950000 -0.335532
137.000000 -0.376642
137.050000 -0.428030
137.100000 -0.475993
137.150000 -0.517104
137.200000 -0.558215
137.250000 -0.585622
137.300000 -0.582196
137.350000 -0.565066
137.400000 -0.530808
137.450000 -0.475993
137.500000 -0.407475
137.550000 -0.338958
137.600000 -0.277291
137.650000 -0.212200
137.700000 -0.147108
137.750000 -0.109423
137.800000 -0.112849
137.850000 -0.157385
137.900000 -0.219051
137.950000 -0.297847
138.000000 -0.393772
138.050000 -0.493122
138.100000 -0.592473
138.150000 -0.688399
138.200000 -0.770620
138.250000 -0.811730
138.300000 -0.804879
138.350000 -0.760342
138.400000 -0.702102
138.450000 -0.630158
138.500000 -0.544511
138.550000 -0.465716
138.600000 -0.421179
138.650000 -0.390346
138.700000 -0.359512
138.750000 -0.352661
138.800000 -0.380069
138.850000 -0.400623
138.900000 -0.400624
138.950000 -0.414327
139.000000 -0.438308
139.050000 -0.438309
139.100000 -0.400623
139.150000 -0.349235
139.200000 -0.290996
139.250000 -0.208774
139.300000 -0.129978
139.350000 -0.092294
139.400000 -0.085442
139.450000 -0.092293
139.500000 -0.099145
139.550000 -0.147107
139.600000 -0.239606
139.650000 -0.335531
139.700000 -0.397197
139.750000 -0.455438
139.800000 -0.523956
139.850000 -0.571918
139.900000 -0.602751
139.950000 -0.647287
140.000000 -0.705528
140.050000 -0.732935
140.100000 -0.746639
140.150000 -0.763768
140.200000 -0.770620
140.250000 -0.780897
140.300000 -0.801453
140.350000 -0.815156
140.400000 -0.815156
140.450000 -0.815156
140.500000 -0.798027
140.550000 -0.756917
140.600000 -0.736361
140.650000 -0.715805
140.700000 -0.660991
140.750000 -0.613029
140.800000 -0.602752
140.850000 -0.599325
140.900000 -0.595899
140.950000 -0.637010
141.000000 -0.698676
141.050000 -0.736361
141.100000 -0.770620
141.150000 -0.839138
141.200000 -0.917933
141.250000 -0.969322
141.300000 -1.010432
141.350000 -1.044691
141.400000 -1.068672
141.450000 -1.068672
141.500000 -1.034414
141.550000 -1.007006
141.600000 -0.986451
141.650000 -0.917933
141.700000 -0.825434
141.750000 -0.798027
141.800000 -0.818582
141.850000 -0.804879
141.900000 -0.770620
141.950000 -0.780898
142.000000 -0.818582
142.050000 -0.845990
142.100000 -0.876822
142.150000 -0.917933
142.200000 -0.938489
142.250000 -0.935063
142.300000 -0.917933
142.350000 -0.873396
142.400000 -0.815157
142.450000 -0.736361
142.500000 -0.616455
142.550000 -0.489697
142.600000 -0.383494
142.650000 -0.273866
142.700000 -0.181367
142.750000 -0.147108
142.800000 -0.147108
142.850000 -0.143682
142.900000 -0.177940
142.950000 -0.284143
143.000000 -0.400623
143.050000 -0.472567
143.100000 -0.527382
143.150000 -0.589048
143.200000 -0.640436
143.250000 -0.660991
143.300000 -0.643861
143.350000 -0.602751
143.400000 -0.527382
143.450000 -0.414327
143.500000 -0.311550
143.550000 -0.263588
143.600000 -0.256737
143.650000 -0.263588
143.700000 -0.280718
143.750000 -0.314976
143.800000 -0.352661
143.850000 -0.410901
143.900000 -0.472567
143.950000 -0.510252
144.000000 -0.523955
144.050000 -0.530807
144.100000 -0.510252
144.150000 -0.452012
144.200000 -0.386920
144.250000 -0.308125
144.300000 -0.212199
144.350000 -0.123126
144.400000 -0.064887
144.450000 -0.037479
144.500000 -0.044331
144.550000 -0.085442
144.600000 -0.147107
144.650000 -0.208773
144.700000 -0.270440
144.750000 -0.356087
144.800000 -0.462289
144.850000 -0.537659
144.900000 -0.561640
144.950000 -0.551362
145.000000 -0.551362
145.050000 -0.547937
145.100000 -0.523955
145.150000 -0.486270
145.200000 -0.445160
145.250000 -0.404050
145.300000 -0.383494
145.350000 -0.386920
145.400000 -0.390346
145.450000 -0.383494
145.500000 -0.400624
145.550000 -0.438308
145.600000 -0.462290
145.650000 -0.469142
145.700000 -0.458864
145.750000 -0.441735
145.800000 -0.434883
145.850000 -0.438308
145.900000 -0.434882
145.950000 -0.431457
146.000000 -0.445161
146.050000 -0.475993
146.100000 -0.496548
146.150000 -0.506826
146.200000 -0.523956
146.250000 -0.547937
146.300000 -0.565066
146.350000 -0.565066
146.400000 -0.547937
146.450000 -0.527382
146.500000 -0.493122
146.550000 -0.434883
146.600000 -0.393772
146.650000 -0.386920
146.700000 -0.390346
146.750000 -0.390346
146.800000 -0.431456
146.850000 -0.496549
146.900000 -0.558214
146.950000 -0.619881
147.000000 -0.688398
147.050000 -0.732935
147.100000 -0.760343
147.150000 -0.811730
147.200000 -0.835712
147.250000 -0.801453
147.300000 -0.763768
147.350000 -0.732935
147.400000 -0.688399
147.450000 -0.650713
147.500000 -0.647288
147.550000 -0.657565
147.600000 -0.667843
147.650000 -0.712380
147.700000 -0.780897
147.750000 -0.859693
147.800000 -0.938488
147.850000 -0.989877
147.900000 -1.013858
147.950000 -1.024136
148.000000 -1.007006
148.050000 -0.931637
148.100000 -0.849415
148.150000 -0.808304
148.200000 -0.753491
148.250000 -0.654139
148.300000 -0.589047
148.350000 -0.565066
148.400000 -0.513678
148.450000 -0.448586
148.500000 -0.428030
148.550000 -0.400624
148.600000 -0.338958
148.650000 -0.284143
148.700000 -0.256736
148.750000 -0.225904
148.800000 -0.195070
148.850000 -0.171089
148.900000 -0.150534
148.950000 -0.167663
149.000000 -0.198496
149.050000 -0.232754
149.100000 -0.280717
149.150000 -0.342383
149.200000 -0.383494
149.250000 -0.407475
149.300000 -0.441734
149.350000 -0.475993
149.400000 -0.482845
149.450000 -0.489696
149.500000 -0.513678
149.550000 -0.547937
149.600000 -0.595899
149.650000 -0.650714
149.700000 -0.705528
149.750000 -0.780898
149.800000 -0.866545
149.850000 -0.924785
149.900000 -0.938488
149.950000 -0.935063
150.000000 -0.904230
150.050000 -0.822008
150.100000 -0.698676
150.150000 -0.571918
150.200000 -0.455438
150.250000 -0.332106
150.300000 -0.208773
150.350000 -0.133404
150.400000 -0.123127
150.450000 -0.153959
150.500000 -0.212200
150.550000 -0.335532
150.600000 -0.499974
150.650000 -0.633585
150.700000 -0.715806
150.750000 -0.794601
150.800000 -0.849415
150.850000 -0.822008
150.900000 -0.753490
150.950000 -0.691824
151.000000 -0.623306
151.050000 -0.517103
151.100000 -0.397198
151.150000 -0.297847
151.200000 -0.246459
151.250000 -0.232755
151.300000 -0.236181
151.350000 -0.246459
151.400000 -0.294421
151.450000 -0.352661
151.500000 -0.383494
151.550000 -0.404049
151.600000 -0.417753
151.650000 -0.386920
151.700000 -0.325254
151.750000 -0.277291
151.800000 -0.219051
151.850000 -0.133404
151.900000 -0.071738
151.950000 -0.058034
152.000000 -0.068312
152.050000 -0.109423
152.100000 -0.171089
152.150000 -0.222477
152.200000 -0.284143
152.250000 -0.376643
152.300000 -0.465715
152.350000 -0.523956
152.400000 -0.602751
152.450000 -0.667843
152.500000 -0.691825
152.550000 -0.726083
152.600000 -0.756916
152.650000 -0.726084
152.700000 -0.664417
152.750000 -0.660992
152.800000 -0.681546
152.850000 -0.671269
152.900000 -0.647287
152.950000 -0.660991
153.000000 -0.705528
153.050000 -0.736361
153.100000 -0.753491
153.150000 -0.791175
153.200000 -0.849415
153.250000 -0.876822
153.300000 -0.863119
153.350000 -0.876822
153.400000 -0.924785
153.450000 -0.935063
153.500000 -0.914507
153.550000 -0.924785
153.600000 -0.945340
153.650000 -0.917933
153.700000 -0.890526
153.750000 -0.883674
153.800000 -0.852841
153.850000 -0.777472
153.900000 -0.684972
153.950000 -0.595899
154.000000 -0.517104
154.050000 -0.472567
154.100000 -0.428031
154.150000 -0.380068
154.200000 -0.369790
154.250000 -0.404049
154.300000 -0.431457
154.350000 -0.452012
154.400000 -0.482845
154.450000 -0.489696
154.500000 -0.472567
154.550000 -0.448586
154.600000 -0.431457
154.650000 -0.404049
154.700000 -0.362939
154.750000 -0.318402
154.800000 -0.290995
154.850000 -0.280717
154.900000 -0.277292
154.950000 -0.325254
155.000000 -0.410901
155.050000 -0.465715
155.100000 -0.503400
155.150000 -0.585621
155.200000 -0.643862
155.250000 -0.619880
155.300000 -0.578770
155.350000 -0.568493
155.400000 -0.558214
155.450000 -0.523956
155.500000 -0.496548
155.550000 -0.489697
155.600000 -0.489697
155.650000 -0.486271
155.700000 -0.503400
155.750000 -0.551363
155.800000 -0.609603
155.850000 -0.667843
155.900000 -0.729509
155.950000 -0.787749
156.000000 -0.828859
156.050000 -0.842563
156.100000 -0.849416
156.150000 -0.859693
156.200000 -0.863119
156.250000 -0.845989
156.300000 -0.832286
156.350000 -0.815156
156.400000 -0.787749
156.450000 -0.760342
156.500000 -0.746638
156.550000 -0.732935
156.600000 -0.722657
156.650000 -0.753491
156.700000 -0.815157
156.750000 -0.876822
156.800000 -0.935063
156.850000 -0.993303
156.900000 -1.051543
156.950000 -1.109783
157.000000 -1.154320
157.050000 -1.174875
157.100000 -1.185153
157.150000 -1.181726
157.200000 -1.137190
157.250000 -1.034413
157.300000 -0.904229
157.350000 -0.780897
157.400000 -0.647288
157.450000 -0.486271
157.500000 -0.332106
157.550000 -0.205348
157.600000 -0.129978
157.650000 -0.085442
157.700000 -0.064886
157.750000 -0.099145
157.800000 -0.174515
157.850000 -0.253310
157.900000 -0.342383
157.950000 -0.465716
158.000000 -0.568492
158.050000 -0.630158
158.100000 -0.684972
158.150000 -0.726083
158.200000 -0.722657
158.250000 -0.691825
158.300000 -0.657565
158.350000 -0.606177
158.400000 -0.558214
158.450000 -0.534233
158.500000 -0.510252
158.550000 -0.517104
158.600000 -0.575344
158.650000 -0.657566
158.700000 -0.753490
158.750000 -0.883674
158.800000 -1.027562
158.850000 -1.147468
158.900000 -1.253670
158.950000 -1.346170
159.000000 -1.346169
159.050000 -1.260522
159.100000 -1.150894
159.150000 -1.013858
159.200000 -0.839137
159.250000 -0.633584
159.300000 -0.414327
159.350000 -0.188218
159.400000 -0.020349
159.450000 0.061871
159.500000 0.096131
159.550000 0.089279
159.600000 0.024187
159.650000 -0.051183
159.700000 -0.136830
159.750000 -0.277291
159.800000 -0.410902
159.850000 -0.452012
159.900000 -0.493123
159.950000 -0.554789
160.000000 -0.544511
160.050000 -0.462290
160.100000 -0.407475
160.150000 -0.383494
160.200000 -0.321828
160.250000 -0.256736
160.300000 -0.225903
160.350000 -0.219051
160.400000 -0.232754
160.450000 -0.260162
160.500000 -0.280717
160.550000 -0.311551
160.600000 -0.386920
160.650000 -0.465715
160.700000 -0.547937
160.750000 -0.667843
160.800000 -0.770620
160.850000 -0.787749
160.900000 -0.774046
160.950000 -0.791175
161.000000 -0.818582
161.050000 -0.822008
161.100000 -0.791175
161.150000 -0.726084
161.200000 -0.660991
161.250000 -0.647288
161.300000 -0.616455
161.350000 -0.547937
161.400000 -0.482845
161.450000 -0.417753
161.500000 -0.349235
161.550000 -0.328680
161.600000 -0.321828
161.650000 -0.256736
161.700000 -0.174514
161.750000 -0.150534
161.800000 -0.136830
161.850000 -0.092293
161.900000 -0.105997
161.950000 -0.181367
162.000000 -0.256736
162.050000 -0.345810
162.100000 -0.472568
162.150000 -0.613029
162.200000 -0.743212
162.250000 -0.866545
162.300000 -0.969321
162.350000 -1.072098
162.400000 -1.192005
162.450000 -1.260522
162.500000 -1.243392
162.550000 -1.215985
162.600000 -1.192004
162.650000 -1.106357
162.700000 -0.962470
162.750000 -0.822008
162.800000 -0.678120
162.850000 -0.503401
162.900000 -0.335532
162.950000 -0.201922
163.000000 -0.092293
163.050000 0.010483
163.100000 0.089279
163.150000 0.123537
163.200000 0.109834
163.250000 0.085853
163.300000 0.058446
163.350000 -0.013498
163.400000 -0.119700
163.450000 -0.195070
163.500000 -0.267014
163.550000 -0.359513
163.600000 -0.445160
163.650000 -0.517104
163.700000 -0.609603
163.750000 -0.702102
163.800000 -0.739787
163.850000 -0.739787
163.900000 -0.746638
163.950000 -0.753490
164.000000 -0.732935
164.050000 -0.684972
164.100000 -0.626733
164.150000 -0.575344
164.200000 -0.513678
164.250000 -0.452012
164.300000 -0.424605
164.350000 -0.424605
164.400000 -0.397198
164.450000 -0.366364
164.500000 -0.397197
164.550000 -0.465716
164.600000 -0.513678
164.650000 -0.568492
164.700000 -0.637010
164.750000 -0.691824
164.800000 -0.726083
164.850000 -0.739786
164.900000 -0.732935
164.950000 -0.732935
165.000000 -0.743212
165.050000 -0.722657
165.100000 -0.674695
165.150000 -0.654139
165.200000 -0.633584
165.250000 -0.595899
165.300000 -0.571918
165.350000 -0.558214
165.400000 -0.523956
165.450000 -0.499974
165.500000 -0.520530
165.550000 -0.561640
165.600000 -0.595899
165.650000 -0.613029
165.700000 -0.647287
165.750000 -0.705528
165.800000 -0.767194
165.850000 -0.808305
165.900000 -0.835711
165.950000 -0.863119
166.000000 -0.866544
166.050000 -0.845989
166.100000 -0.825434
166.150000 -0.811730
166.200000 -0.770619
166.250000 -0.705528
166.300000 -0.647288
166.350000 -0.619881
166.400000 -0.613029
166.450000 -0.623306
166.500000 -0.643861
166.550000 -0.695250
166.600000 -0.760342
166.650000 -0.811731
166.700000 -0.869971
166.750000 -0.962470
166.800000 -1.048117
166.850000 -1.085801
166.900000 -1.109783
166.950000 -1.137190
167.000000 -1.113209
167.050000 -1.037839
167.100000 -0.959044
167.150000 -0.859693
167.200000 -0.712379
167.250000 -0.568493
167.300000 -0.445161
167.350000 -0.352661
167.400000 -0.294421
167.450000 -0.253310
167.500000 -0.225903
167.550000 -0.246458
167.600000 -0.301273
167.650000 -0.328680
167.700000 -0.338958
167.750000 -0.376642
167.800000 -0.410901
167.850000 -0.386920
167.900000 -0.349235
167.950000 -0.328680
168.000000 -0.273866
168.050000 -0.195070
168.100000 -0.140256
168.150000 -0.119701
168.200000 -0.119700
168.250000 -0.150533
168.300000 -0.201922
168.350000 -0.256736
168.400000 -0.335532
168.450000 -0.421179
168.500000 -0.462289
168.550000 -0.482845
168.600000 -0.496548
168.650000 -0.462290
168.700000 -0.400623
168.750000 -0.373217
168.800000 -0.345810
168.850000 -0.304699
168.900000 -0.277292
168.950000 -0.287570
169.000000 -0.321828
169.050000 -0.356087
169.100000 -0.393772
169.150000 -0.434882
169.200000 -0.458863
169.250000 -0.448586
169.300000 -0.397198
169.350000 -0.352661
169.400000 -0.297846
169.450000 -0.212200
169.500000 -0.109423
169.550000 -0.047757
169.600000 -0.023776
169.650000 -0.010072
169.700000 -0.040905
169.750000 -0.136830
169.800000 -0.277292
169.850000 -0.431456
169.900000 -0.616455
169.950000 -0.835712
170.000000 -1.034413
170.050000 -1.171449
170.100000 -1.236540
170.150000 -1.239966
170.200000 -1.209133
170.250000 -1.130339
170.300000 -0.979599
170.350000 -0.811730
170.400000 -0.664417
170.450000 -0.541085
170.500000 -0.434883
170.550000 -0.380068
170.600000 -0.380068
170.650000 -0.414327
170.700000 -0.499974
170.750000 -0.637010
170.800000 -0.777472
170.850000 -0.897378
170.900000 -1.017284
170.950000 -1.133765
171.000000 -1.185152
171.050000 -1.154320
171.100000 -1.099505
171.150000 -1.054969
171.200000 -0.972748
171.250000 -0.825434
171.300000 -0.660991
171.350000 -0.530807
171.400000 -0.421179
171.450000 -0.301273
171.500000 -0.181367
171.550000 -0.102571
171.600000 -0.068313
171.650000 -0.030627
171.700000 0.000205
171.750000 0.013909
171.800000 0.027613
171.850000 0.058446
171.900000 0.058446
171.950000 0.037891
172.000000 0.027613
172.050000 0.003632
172.100000 -0.058035
172.150000 -0.126552
172.200000 -0.177941
172.250000 -0.236181
172.300000 -0.301273
172.350000 -0.356087
172.400000 -0.410901
172.450000 -0.448586
172.500000 -0.445161
172.550000 -0.438308
172.600000 -0.452012
172.650000 -0.438308
172.700000 -0.397198
172.750000 -0.397198
172.800000 -0.431457
172.850000 -0.445161
172.900000 -0.448586
172.950000 -0.472568
173.000000 -0.513678
173.050000 -0.554788
173.100000 -0.589048
173.150000 -0.623306
173.200000 -0.678120
173.250000 -0.732935
173.300000 -0.763768
173.350000 -0.804879
173.400000 -0.863119
173.450000 -0.914508
173.500000 -0.969321
173.550000 -1.048117
173.600000 -1.106357
173.650000 -1.109783
173.700000 -1.089228
173.750000 -1.085802
173.800000 -1.048117
173.850000 -0.972748
173.900000 -0.893951
173.950000 -0.818582
174.000000 -0.746638
174.050000 -0.660992
174.100000 -0.595900
174.150000 -0.595899
174.200000 -0.650714
174.250000 -0.708954
174.300000 -0.736361
174.350000 -0.787749
174.400000 -0.863119
174.450000 -0.914507
174.500000 -0.914507
174.550000 -0.897378
174.600000 -0.839137
174.650000 -0.722657
174.700000 -0.595900
174.750000 -0.486271
174.800000 -0.404049
174.850000 -0.362939
174.900000 -0.366365
174.950000 -0.400623
175.000000 -0.486271
175.050000 -0.640436
175.100000 -0.815156
175.150000 -0.986450
175.200000 -1.168023
175.250000 -1.308484
175.300000 -1.366725
175.350000 -1.407836
175.400000 -1.400984
175.450000 -1.305059
175.500000 -1.174875
175.550000 -1.051542
175.600000 -0.911081
175.650000 -0.763768
175.700000 -0.664417
175.750000 -0.578770
175.800000 -0.530808
175.850000 -0.537660
175.900000 -0.561641
175.950000 -0.592473
176.000000 -0.660991
176.050000 -0.743213
176.100000 -0.774045
176.150000 -0.780897
176.200000 -0.811731
176.250000 -0.791175
176.300000 -0.719231
176.350000 -0.684972
176.400000 -0.660992
176.450000 -0.592474
176.500000 -0.523956
176.550000 -0.517104
176.600000 -0.527382
176.650000 -0.513678
176.700000 -0.513678
176.750000 -0.568492
176.800000 -0.640435
176.850000 -0.674695
176.900000 -0.684973
176.950000 -0.708954
177.000000 -0.732935
177.050000 -0.708954
177.100000 -0.654140
177.150000 -0.606177
177.200000 -0.554788
177.250000 -0.489697
177.300000 -0.407475
177.350000 -0.349236
177.400000 -0.328680
177.450000 -0.342383
177.500000 -0.390346
177.550000 -0.475993
177.600000 -0.565067
177.650000 -0.650713
177.700000 -0.736361
177.750000 -0.811730
177.800000 -0.842564
177.850000 -0.808304
177.900000 -0.732935
177.950000 -0.654139
178.000000 -0.592473
178.050000 -0.503401
178.100000 -0.386921
178.150000 -0.304699
178.200000 -0.273866
178.250000 -0.249885
178.300000 -0.270439
178.350000 -0.376642
178.400000 -0.513678
178.450000 -0.623306
178.500000 -0.732935
178.550000 -0.845989
178.600000 -0.911082
178.650000 -0.924785
178.700000 -0.924785
178.750000 -0.907656
178.800000 -0.866545
178.850000 -0.804878
178.900000 -0.756917
178.950000 -0.736361
179.000000 -0.712380
179.050000 -0.691824
179.100000 -0.708954
179.150000 -0.763768
179.200000 -0.822008
179.250000 -0.863119
179.300000 -0.904230
179.350000 -0.941914
179.400000 -0.959044
179.450000 -0.938488
179.500000 -0.869970
179.550000 -0.801453
179.600000 -0.756916
179.650000 -0.695251
179.700000 -0.595900
179.750000 -0.517103
179.800000 -0.475994
179.850000 -0.452012
179.900000 -0.424605
179.950000 -0.431456
180.000000 -0.452012
180.050000 -0.452012
180.100000 -0.462290
180.150000 -0.520529
180.200000 -0.609603
180.250000 -0.664418
180.300000 -0.671268
180.350000 -0.671269
180.400000 -0.684972
180.450000 -0.698676
180.500000 -0.722657
180.550000 -0.732935
180.600000 -0.708954
180.650000 -0.671269
180.700000 -0.667843
180.750000 -0.671269
180.800000 -0.643862
180.850000 -0.606177
180.900000 -0.606177
180.950000 -0.637010
181.000000 -0.674694
181.050000 -0.708954
181.100000 -0.750064
181.150000 -0.808305
181.200000 -0.849415
181.250000 -0.835711
181.300000 -0.804878
181.350000 -0.780898
181.400000 -0.746639
181.450000 -0.671269
181.500000 -0.568492
181.550000 -0.465715
181.600000 -0.383494
181.650000 -0.304699
181.700000 -0.215625
181.750000 -0.167663
181.800000 -0.160811
181.850000 -0.150533
181.900000 -0.133404
181.950000 -0.153960
182.000000 -0.191645
182.050000 -0.201922
182.100000 -0.225903
182.150000 -0.273865
182.200000 -0.290995
182.250000 -0.290995
182.300000 -0.321828
182.350000 -0.359513
182.400000 -0.352661
182.450000 -0.335532
182.500000 -0.325254
182.550000 -0.311550
182.600000 -0.287570
182.650000 -0.273866
182.700000 -0.267014
182.750000 -0.256736
182.800000 -0.246459
182.850000 -0.229329
182.900000 -0.215625
182.950000 -0.236181
183.000000 -0.284143
183.050000 -0.328680
183.100000 -0.356087
183.150000 -0.397198
183.200000 -0.448586
183.250000 -0.496549
183.300000 -0.527382
183.350000 -0.575344
183.400000 -0.623306
183.450000 -0.637010
183.500000 -0.647288
183.550000 -0.671268
183.600000 -0.688398
183.650000 -0.684972
183.700000 -0.678120
183.750000 -0.674695
183.800000 -0.643862
183.850000 -0.609603
183.900000 -0.575344
183.950000 -0.534233
184.000000 -0.496549
184.050000 -0.472568
184.100000 -0.452012
184.150000 -0.428031
184.200000 -0.431456
184.250000 -0.445161
184.300000 -0.452012
184.350000 -0.482845
184.400000 -0.547936
184.450000 -0.606177
184.500000 -0.637010
184.550000 -0.667843
184.600000 -0.719231
184.650000 -0.760342
184.700000 -0.777472
184.750000 -0.808305
184.800000 -0.849416
184.850000 -0.890526
184.900000 -0.921359
184.950000 -0.948766
185.000000 -0.965895
185.050000 -0.965895
185.100000 -0.945340
185.150000 -0.904229
185.200000 -0.839137
185.250000 -0.753491
185.300000 -0.674695
185.350000 -0.616455
185.400000 -0.554788
185.450000 -0.469142
185.500000 -0.428031
185.550000 -0.462289
185.600000 -0.513678
185.650000 -0.541085
185.700000 -0.609603
185.750000 -0.715806
185.800000 -0.804878
185.850000 -0.859693
185.900000 -0.904229
185.950000 -0.917933
186.000000 -0.883675
186.050000 -0.822008
186.100000 -0.732935
186.150000 -0.623306
186.200000 -0.527382
186.250000 -0.428030
186.300000 -0.325254
186.350000 -0.267014
186.400000 -0.246458
186.450000 -0.205348
186.500000 -0.181366
186.550000 -0.219051
186.600000 -0.277291
186.650000 -0.321828
186.700000 -0.380069
186.750000 -0.441734
186.800000 -0.486271
186.850000 -0.534233
186.900000 -0.589048
186.950000 -0.640436
187.000000 -0.695251
187.050000 -0.750065
187.100000 -0.784324
187.150000 -0.845989
187.200000 -0.928210
187.250000 -0.965895
187.300000 -0.969322
187.350000 -0.996729
187.400000 -1.010432
187.450000 -0.969322
187.500000 -0.904230
187.550000 -0.845990
187.600000 -0.787749
187.650000 -0.736361
187.700000 -0.688398
187.750000 -0.657565
187.800000 -0.650713
187.850000 -0.681547
187.900000 -0.746638
187.950000 -0.845989
188.000000 -0.965895
188.050000 -1.075524
188.100000 -1.164597
188.150000 -1.243393
188.200000 -1.287929
188.250000 -1.287929
188.300000 -1.263948
188.350000 -1.219411
188.400000 -1.130338
188.450000 -1.024136
188.500000 -0.935062
188.550000 -0.869971
188.600000 -0.798026
188.650000 -0.726083
188.700000 -0.684973
188.750000 -0.678120
