time[ns] Raw_signal[mV]
-11.200000 -0.165059
-11.150000 -0.278114
-11.100000 -0.356910
-11.050000 -0.367187
-11.000000 -0.332928
-10.950000 -0.274688
-10.900000 -0.189041
-10.850000 -0.075986
-10.800000 0.037067
-10.750000 0.122715
-10.700000 0.187807
-10.650000 0.228918
-10.600000 0.198084
-10.550000 0.102160
-10.500000 0.006235
-10.450000 -0.079412
-10.400000 -0.178763
-10.350000 -0.260985
-10.300000 -0.284965
-10.250000 -0.291818
-10.200000 -0.281540
-10.150000 -0.216448
-10.100000 -0.110245
-10.050000 -0.010894
-10.000000 0.078179
-9.950000 0.143270
-9.900000 0.163826
-9.850000 0.136418
-9.800000 0.081604
-9.750000 -0.014320
-9.700000 -0.103394
-9.650000 -0.154782
-9.600000 -0.185615
-9.550000 -0.219874
-9.500000 -0.230152
-9.450000 -0.209596
-9.400000 -0.165059
-9.350000 -0.096542
-9.300000 -0.014320
-9.250000 0.071327
-9.200000 0.160400
-9.150000 0.246047
-9.100000 0.294009
-9.050000 0.317991
-9.000000 0.352250
-8.950000 0.393360
-8.900000 0.413915
-8.850000 0.441323
-8.800000 0.479008
-8.750000 0.492711
-8.700000 0.461878
-8.650000 0.437897
-8.600000 0.403638
-8.550000 0.341972
-8.500000 0.246047
-8.450000 0.122715
-8.400000 -0.007468
-8.350000 -0.110246
-8.300000 -0.171912
-8.250000 -0.223300
-8.200000 -0.281540
-8.150000 -0.315798
-8.100000 -0.305521
-8.050000 -0.260985
-8.000000 -0.202744
-7.950000 -0.158207
-7.900000 -0.113671
-7.850000 -0.048579
-7.800000 0.013086
-7.750000 0.009660
-7.700000 -0.028024
-7.650000 -0.045153
-7.600000 -0.062283
-7.550000 -0.103394
-7.500000 -0.120523
-7.450000 -0.075987
-7.400000 -0.017746
-7.350000 0.040494
-7.300000 0.129567
-7.250000 0.263176
-7.200000 0.389934
-7.150000 0.489285
-7.100000 0.574932
-7.050000 0.643450
-7.000000 0.664005
-6.950000 0.612617
-6.900000 0.533822
-6.850000 0.437897
-6.800000 0.324842
-6.750000 0.208363
-6.700000 0.109011
-6.650000 0.040494
-6.600000 -0.004043
-6.550000 -0.004043
-6.500000 0.009661
-6.450000 0.040494
-6.400000 0.095308
-6.350000 0.156974
-6.300000 0.194659
-6.250000 0.222066
-6.200000 0.252899
-6.150000 0.235770
-6.100000 0.153548
-6.050000 0.081605
-6.000000 0.040494
-5.950000 0.002809
-5.900000 -0.021172
-5.850000 -0.014321
-5.800000 0.002809
-5.750000 0.043920
-5.700000 0.129567
-5.650000 0.266602
-5.600000 0.389935
-5.550000 0.475582
-5.500000 0.550951
-5.450000 0.633172
-5.400000 0.698265
-5.350000 0.705117
-5.300000 0.640025
-5.250000 0.561230
-5.200000 0.489285
-5.150000 0.389935
-5.100000 0.294010
-5.050000 0.232343
-5.000000 0.163826
-4.950000 0.074753
-4.900000 0.016513
-4.850000 -0.010894
-4.800000 -0.082839
-4.750000 -0.168485
-4.700000 -0.223300
-4.650000 -0.281540
-4.600000 -0.363762
-4.550000 -0.415150
-4.500000 -0.445983
-4.450000 -0.493946
-4.400000 -0.500797
-4.350000 -0.459687
-4.300000 -0.411724
-4.250000 -0.350058
-4.200000 -0.257559
-4.150000 -0.199319
-4.100000 -0.178764
-4.050000 -0.144504
-4.000000 -0.141078
-3.950000 -0.209596
-3.900000 -0.267836
-3.850000 -0.305521
-3.800000 -0.377465
-3.750000 -0.463112
-3.700000 -0.487093
-3.650000 -0.456260
-3.600000 -0.394594
-3.550000 -0.305521
-3.500000 -0.209596
-3.450000 -0.096542
-3.400000 0.057623
-3.350000 0.143271
-3.300000 0.095308
-3.250000 0.112437
-3.200000 0.249473
-3.150000 0.249473
-3.100000 0.088456
-3.050000 0.054197
-3.000000 0.129567
-2.950000 0.057623
-2.900000 -0.075987
-2.850000 -0.099968
-2.800000 -0.165059
-2.750000 -0.271262
-2.700000 -0.192467
-2.650000 -0.106819
-2.600000 -0.240429
-2.550000 -0.284966
-2.500000 -0.130801
-2.450000 -0.158208
-2.400000 -0.308947
-2.350000 -0.237004
-2.300000 -0.134226
-2.250000 -0.260984
-2.200000 -0.250707
-2.150000 0.030216
-2.100000 0.146696
-2.050000 0.019939
-2.000000 0.016513
-1.950000 0.194659
-1.900000 0.362527
-1.850000 0.499563
-1.800000 0.540674
-1.750000 0.437897
-1.700000 0.379657
-1.650000 0.424193
-1.600000 0.331695
-1.550000 0.160400
-1.500000 0.167252
-1.450000 0.273455
-1.400000 0.259750
-1.350000 0.222066
-1.300000 0.232344
-1.250000 0.194659
-1.200000 0.252899
-1.150000 0.468730
-1.100000 0.479007
-1.050000 0.187807
-1.000000 0.067901
-0.950000 0.174103
-0.900000 0.091882
-0.850000 -0.096541
-0.800000 -0.096542
-0.750000 -0.137652
-0.700000 -0.360336
-0.650000 -0.445983
-0.600000 -0.367187
-0.550000 -0.432280
-0.500000 -0.555611
-0.450000 -0.480241
-0.400000 -0.370613
-0.350000 -0.404872
-0.300000 -0.449408
-0.250000 -0.422001
-0.200000 -0.428853
-0.150000 -0.487094
-0.100000 -0.514500
-0.050000 -0.493945
0.000000 -0.456260
0.050000 -0.490519
0.100000 -0.562463
0.150000 -0.521353
0.200000 -0.401446
0.250000 -0.439130
0.300000 -0.559037
0.350000 -0.493946
0.400000 -0.312373
0.450000 -0.237004
0.500000 -0.195893
0.550000 -0.075987
0.600000 -0.004043
0.650000 -0.031450
0.700000 0.009661
0.750000 0.163825
0.800000 0.338546
0.850000 0.571507
0.900000 0.965484
0.950000 1.503349
1.000000 2.198805
1.050000 3.168332
1.100000 4.453040
1.150000 5.998116
1.200000 7.837819
1.250000 9.999557
1.300000 12.394254
1.350000 14.902010
1.400000 17.471420
1.450000 20.123067
1.500000 22.832939
1.550000 25.532539
1.600000 28.160203
1.650000 30.722768
1.700000 33.196262
1.750000 35.498452
1.800000 37.615652
1.850000 39.602672
1.900000 41.435522
1.950000 43.028562
2.000000 44.313272
2.050000 45.262252
2.100000 45.872052
2.150000 46.139262
2.200000 46.002232
2.250000 45.423252
2.300000 44.470862
2.350000 43.216982
2.400000 41.675342
2.450000 39.842482
2.500000 37.783522
2.550000 35.549842
2.600000 33.182562
2.650000 30.770732
2.700000 28.369182
2.750000 25.964201
2.800000 23.610618
2.850000 21.424900
2.900000 19.468720
2.950000 17.721512
3.000000 16.248380
3.050000 15.117836
3.100000 14.288771
3.150000 13.737203
3.200000 13.459706
3.250000 13.411741
3.300000 13.524801
3.350000 13.822849
3.400000 14.275064
3.450000 14.799229
3.500000 15.374780
3.550000 15.991437
3.600000 16.621805
3.650000 17.221329
3.700000 17.772901
3.750000 18.286780
3.800000 18.718443
3.850000 19.026776
3.900000 19.204927
3.950000 19.273445
4.000000 19.215203
4.050000 18.951405
4.100000 18.471780
4.150000 17.844846
4.200000 17.101424
4.250000 16.207269
4.300000 15.169225
4.350000 14.093495
4.400000 13.031470
4.450000 11.938611
4.500000 10.814918
4.550000 9.763170
4.600000 8.807347
4.650000 7.899486
4.700000 7.073847
4.750000 6.409224
4.800000 5.905618
4.850000 5.508215
4.900000 5.237569
4.950000 5.127941
5.000000 5.155348
5.050000 5.268402
5.100000 5.497937
5.150000 5.847377
5.200000 6.244781
5.250000 6.635332
5.300000 7.039587
5.350000 7.443843
5.400000 7.779580
5.450000 8.026243
5.500000 8.228371
5.550000 8.392814
5.600000 8.509294
5.650000 8.560683
5.700000 8.550405
5.750000 8.485314
5.800000 8.372259
5.850000 8.200964
5.900000 7.985133
5.950000 7.728191
6.000000 7.392455
6.050000 6.957366
6.100000 6.470890
6.150000 5.960432
6.200000 5.402012
6.250000 4.816185
6.300000 4.285172
6.350000 3.822677
6.400000 3.404718
6.450000 3.038148
6.500000 2.736669
6.550000 2.507134
6.600000 2.342692
6.650000 2.233064
6.700000 2.161120
6.750000 2.143990
6.800000 2.133712
6.850000 2.085750
6.900000 2.065195
6.950000 2.120009
7.000000 2.191952
7.050000 2.281026
7.100000 2.442043
7.150000 2.640745
7.200000 2.842872
7.250000 3.075832
7.300000 3.346478
7.350000 3.562309
7.400000 3.706196
7.450000 3.788418
7.500000 3.808973
7.550000 3.767862
7.600000 3.675363
7.650000 3.528049
7.700000 3.315645
7.750000 3.075833
7.800000 2.836020
7.850000 2.585930
7.900000 2.335840
7.950000 2.102880
8.000000 1.907604
8.050000 1.726032
8.100000 1.551312
8.150000 1.393720
8.200000 1.287518
8.250000 1.212148
8.300000 1.136778
8.350000 1.088816
8.400000 1.088816
8.450000 1.078539
8.500000 1.040854
8.550000 1.003169
8.600000 0.965484
8.650000 0.907244
8.700000 0.866133
8.750000 0.852430
8.800000 0.811319
8.850000 0.753079
8.900000 0.742801
8.950000 0.756505
9.000000 0.746227
9.050000 0.739375
9.100000 0.766782
9.150000 0.797616
9.200000 0.818171
9.250000 0.845578
9.300000 0.855855
9.350000 0.842152
9.400000 0.825022
9.450000 0.825023
9.500000 0.855856
9.550000 0.903818
9.600000 0.955207
9.650000 0.989466
9.700000 1.023724
9.750000 1.064835
9.800000 1.085390
9.850000 1.051132
9.900000 0.986039
9.950000 0.924373
10.000000 0.849004
10.050000 0.725671
10.100000 0.581784
10.150000 0.468730
10.200000 0.383082
10.250000 0.283732
10.300000 0.180955
10.350000 0.136419
10.400000 0.109012
10.450000 0.057624
10.500000 0.016513
10.550000 0.006235
10.600000 -0.017747
10.650000 -0.065709
10.700000 -0.093116
10.750000 -0.120523
10.800000 -0.161634
10.850000 -0.178763
10.900000 -0.168485
10.950000 -0.171912
11.000000 -0.171912
11.050000 -0.161634
11.100000 -0.137652
11.150000 -0.093116
11.200000 -0.010895
11.250000 0.071327
11.300000 0.119289
11.350000 0.170678
11.400000 0.252899
11.450000 0.321417
11.500000 0.372805
11.550000 0.441323
11.600000 0.499563
11.650000 0.523544
11.700000 0.533822
11.750000 0.557804
11.800000 0.557803
11.850000 0.526970
11.900000 0.499563
11.950000 0.437897
12.000000 0.331694
12.050000 0.215214
12.100000 0.115863
12.150000 -0.004043
12.200000 -0.123949
12.250000 -0.195892
12.300000 -0.250707
12.350000 -0.322650
12.400000 -0.391168
12.450000 -0.449409
12.500000 -0.490519
12.550000 -0.487093
12.600000 -0.463112
12.650000 -0.445983
12.700000 -0.428854
12.750000 -0.380891
12.800000 -0.356910
12.850000 -0.350058
12.900000 -0.308947
12.950000 -0.237004
13.000000 -0.185615
13.050000 -0.106819
13.100000 0.019939
13.150000 0.126141
13.200000 0.187807
13.250000 0.263176
13.300000 0.362527
13.350000 0.441323
13.400000 0.502989
13.450000 0.557803
13.500000 0.571507
13.550000 0.540674
13.600000 0.489285
13.650000 0.400213
13.700000 0.259751
13.750000 0.088456
13.800000 -0.103393
13.850000 -0.305521
13.900000 -0.507649
13.950000 -0.709776
14.000000 -0.908478
14.050000 -1.076346
14.100000 -1.168845
14.150000 -1.209956
14.200000 -1.247641
14.250000 -1.230511
14.300000 -1.148290
14.350000 -1.052365
14.400000 -0.970144
14.450000 -0.853664
14.500000 -0.720054
14.550000 -0.634407
14.600000 -0.607000
14.650000 -0.603573
14.700000 -0.613851
14.750000 -0.627554
14.800000 -0.634407
14.850000 -0.648111
14.900000 -0.685795
14.950000 -0.699499
15.000000 -0.702924
15.050000 -0.730331
15.100000 -0.750887
15.150000 -0.733757
15.200000 -0.720054
15.250000 -0.761164
15.300000 -0.788571
15.350000 -0.774868
15.400000 -0.774868
15.450000 -0.812553
15.500000 -0.839960
15.550000 -0.857090
15.600000 -0.891348
15.650000 -0.915329
15.700000 -0.959866
15.750000 -1.048939
15.800000 -1.141438
15.850000 -1.216808
15.900000 -1.305882
15.950000 -1.394954
16.000000 -1.418935
16.050000 -1.418936
16.100000 -1.446343
16.150000 -1.442916
16.200000 -1.388102
16.250000 -1.333288
16.300000 -1.288751
16.350000 -1.206530
16.400000 -1.103754
16.450000 -1.028384
16.500000 -0.949589
16.550000 -0.857089
16.600000 -0.781720
16.650000 -0.737183
16.700000 -0.682369
16.750000 -0.613851
16.800000 -0.535056
16.850000 -0.452834
16.900000 -0.374039
16.950000 -0.312373
17.000000 -0.278114
17.050000 -0.298669
17.100000 -0.315799
17.150000 -0.326077
17.200000 -0.374039
17.250000 -0.483667
17.300000 -0.576166
17.350000 -0.627555
17.400000 -0.689220
17.450000 -0.771442
17.500000 -0.843386
17.550000 -0.901626
17.600000 -0.959866
17.650000 -0.987273
17.700000 -0.983848
17.750000 -0.970144
17.800000 -0.949588
17.850000 -0.932459
17.900000 -0.932459
17.950000 -0.932459
18.000000 -0.918755
18.050000 -0.922182
18.100000 -0.942737
18.150000 -0.976996
18.200000 -1.028384
18.250000 -1.117457
18.300000 -1.227086
18.350000 -1.336714
18.400000 -1.436065
18.450000 -1.501156
18.500000 -1.525138
18.550000 -1.501157
18.600000 -1.446343
18.650000 -1.370973
18.700000 -1.268196
18.750000 -1.131161
18.800000 -1.004403
18.850000 -0.918755
18.900000 -0.843386
18.950000 -0.754313
19.000000 -0.685795
19.050000 -0.665240
19.100000 -0.672092
19.150000 -0.706351
19.200000 -0.754313
19.250000 -0.795424
19.300000 -0.857090
19.350000 -0.932459
19.400000 -0.994125
19.450000 -1.042087
19.500000 -1.114032
19.550000 -1.179124
19.600000 -1.213382
19.650000 -1.240790
19.700000 -1.268196
19.750000 -1.278474
19.800000 -1.257918
19.850000 -1.230511
19.900000 -1.192827
19.950000 -1.148290
20.000000 -1.110605
20.050000 -1.093476
20.100000 -1.086624
20.150000 -1.069494
20.200000 -1.038661
20.250000 -1.018106
20.300000 -0.994125
20.350000 -0.959866
20.400000 -0.905051
20.450000 -0.846812
20.500000 -0.778294
20.550000 -0.706351
20.600000 -0.658388
20.650000 -0.658387
20.700000 -0.675517
20.750000 -0.696072
20.800000 -0.750886
20.850000 -0.846812
20.900000 -0.959866
20.950000 -1.069495
21.000000 -1.165420
21.050000 -1.233938
21.100000 -1.278474
21.150000 -1.295603
21.200000 -1.285326
21.250000 -1.244215
21.300000 -1.196252
21.350000 -1.144864
21.400000 -1.086624
21.450000 -1.042088
21.500000 -0.997551
21.550000 -0.966718
21.600000 -0.959866
21.650000 -0.973570
21.700000 -0.963292
21.750000 -0.935885
21.800000 -0.918755
21.850000 -0.915330
21.900000 -0.894774
21.950000 -0.850238
22.000000 -0.785145
22.050000 -0.726905
22.100000 -0.726905
22.150000 -0.737183
22.200000 -0.723480
22.250000 -0.730332
22.300000 -0.809127
22.350000 -0.905052
22.400000 -0.980421
22.450000 -1.069495
22.500000 -1.165419
22.550000 -1.213382
22.600000 -1.223660
22.650000 -1.203104
22.700000 -1.134586
22.750000 -1.031810
22.800000 -0.918756
22.850000 -0.802275
22.900000 -0.672092
22.950000 -0.576167
23.000000 -0.552185
23.050000 -0.583018
23.100000 -0.641258
23.150000 -0.720054
23.200000 -0.833108
23.250000 -0.983848
23.300000 -1.144864
23.350000 -1.292178
23.400000 -1.391528
23.450000 -1.460046
23.500000 -1.477176
23.550000 -1.429213
23.600000 -1.333288
23.650000 -1.213382
23.700000 -1.066069
23.750000 -0.908478
23.800000 -0.785145
23.850000 -0.716628
23.900000 -0.678944
23.950000 -0.665240
24.000000 -0.702925
24.050000 -0.795423
24.100000 -0.901626
24.150000 -1.004403
24.200000 -1.124309
24.250000 -1.237363
24.300000 -1.309307
24.350000 -1.340140
24.400000 -1.343566
24.450000 -1.319584
24.500000 -1.281899
24.550000 -1.261344
24.600000 -1.237363
24.650000 -1.203105
24.700000 -1.196253
24.750000 -1.227086
24.800000 -1.247641
24.850000 -1.244215
24.900000 -1.247641
24.950000 -1.240789
25.000000 -1.192826
25.050000 -1.134586
25.100000 -1.083198
25.150000 -1.004402
25.200000 -0.905052
25.250000 -0.833108
25.300000 -0.791997
25.350000 -0.757738
25.400000 -0.747461
25.450000 -0.781720
25.500000 -0.826256
25.550000 -0.881070
25.600000 -0.966718
25.650000 -1.052366
25.700000 -1.117457
25.750000 -1.172271
25.800000 -1.223660
25.850000 -1.261345
25.900000 -1.281900
25.950000 -1.278474
26.000000 -1.237363
26.050000 -1.189401
26.100000 -1.141439
26.150000 -1.062643
26.200000 -0.953015
26.250000 -0.857090
26.300000 -0.771442
26.350000 -0.675518
26.400000 -0.603574
26.450000 -0.593296
26.500000 -0.620703
26.550000 -0.692646
26.600000 -0.822830
26.650000 -0.976996
26.700000 -1.141438
26.750000 -1.346992
26.800000 -1.579952
26.850000 -1.782080
26.900000 -1.953374
26.950000 -2.104114
27.000000 -2.203464
27.050000 -2.244575
27.100000 -2.275408
27.150000 -2.275408
27.200000 -2.186335
27.250000 -2.035596
27.300000 -1.871153
27.350000 -1.696432
27.400000 -1.514861
27.450000 -1.333289
27.500000 -1.165419
27.550000 -1.021533
27.600000 -0.901626
27.650000 -0.791997
27.700000 -0.723480
27.750000 -0.730331
27.800000 -0.764591
27.850000 -0.798849
27.900000 -0.857089
27.950000 -0.918755
28.000000 -0.939310
28.050000 -0.935885
28.100000 -0.905052
28.150000 -0.819404
28.200000 -0.699499
28.250000 -0.586445
28.300000 -0.459686
28.350000 -0.326077
28.400000 -0.250707
28.450000 -0.219874
28.500000 -0.213022
28.550000 -0.247281
28.600000 -0.346632
28.650000 -0.466538
28.700000 -0.583018
28.750000 -0.702925
28.800000 -0.809127
28.850000 -0.881071
28.900000 -0.918755
28.950000 -0.898200
29.000000 -0.809127
29.050000 -0.702925
29.100000 -0.600148
29.150000 -0.466538
29.200000 -0.329503
29.250000 -0.240430
29.300000 -0.185615
29.350000 -0.165060
29.400000 -0.202744
29.450000 -0.291818
29.500000 -0.394595
29.550000 -0.500797
29.600000 -0.637832
29.650000 -0.809127
29.700000 -0.946163
29.750000 -0.994125
29.800000 -1.011255
29.850000 -1.052365
29.900000 -1.076347
29.950000 -1.052365
30.000000 -1.028384
30.050000 -1.021532
30.100000 -1.004402
30.150000 -0.976996
30.200000 -0.980421
30.250000 -1.024958
30.300000 -1.090050
30.350000 -1.134586
30.400000 -1.175698
30.450000 -1.251067
30.500000 -1.316159
30.550000 -1.326436
30.600000 -1.319584
30.650000 -1.323010
30.700000 -1.302456
30.750000 -1.233938
30.800000 -1.165420
30.850000 -1.117457
30.900000 -1.055791
30.950000 -0.970144
31.000000 -0.905052
31.050000 -0.881071
31.100000 -0.887922
31.150000 -0.894775
31.200000 -0.925608
31.250000 -0.994125
31.300000 -1.069494
31.350000 -1.144864
31.400000 -1.257919
31.450000 -1.381251
31.500000 -1.449769
31.550000 -1.477175
31.600000 -1.511435
31.650000 -1.521713
31.700000 -1.480601
31.750000 -1.381251
31.800000 -1.254492
31.850000 -1.134586
31.900000 -1.021532
31.950000 -0.905052
32.000000 -0.819405
32.050000 -0.802275
32.100000 -0.815979
32.150000 -0.839960
32.200000 -0.911904
32.250000 -1.031810
32.300000 -1.141438
32.350000 -1.254493
32.400000 -1.377825
32.450000 -1.501157
32.500000 -1.579953
32.550000 -1.631341
32.600000 -1.634767
32.650000 -1.593656
32.700000 -1.514861
32.750000 -1.391528
32.800000 -1.247641
32.850000 -1.096902
32.900000 -0.932459
32.950000 -0.781720
33.000000 -0.682369
33.050000 -0.606999
33.100000 -0.531630
33.150000 -0.490519
33.200000 -0.517926
33.250000 -0.593296
33.300000 -0.672092
33.350000 -0.713202
33.400000 -0.754313
33.450000 -0.819405
33.500000 -0.877645
33.550000 -0.908478
33.600000 -0.949589
33.650000 -1.007828
33.700000 -1.028384
33.750000 -1.014681
33.800000 -1.024958
33.850000 -1.062643
33.900000 -1.086624
33.950000 -1.107179
34.000000 -1.144864
34.050000 -1.189401
34.100000 -1.189401
34.150000 -1.148290
34.200000 -1.100327
34.250000 -1.083198
34.300000 -1.096902
34.350000 -1.120883
34.400000 -1.141438
34.450000 -1.172271
34.500000 -1.237364
34.550000 -1.312733
34.600000 -1.370973
34.650000 -1.432639
34.700000 -1.501156
34.750000 -1.531990
34.800000 -1.525138
34.850000 -1.508008
34.900000 -1.473749
34.950000 -1.391529
35.000000 -1.305882
35.050000 -1.257919
35.100000 -1.223660
35.150000 -1.179124
35.200000 -1.179124
35.250000 -1.227085
35.300000 -1.278474
35.350000 -1.309307
35.400000 -1.346992
35.450000 -1.398380
35.500000 -1.412084
35.550000 -1.381250
35.600000 -1.364121
35.650000 -1.343566
35.700000 -1.275048
35.750000 -1.158568
35.800000 -1.062643
35.850000 -0.990699
35.900000 -0.911904
35.950000 -0.846811
36.000000 -0.812553
36.050000 -0.815979
36.100000 -0.857089
36.150000 -0.922182
36.200000 -0.966718
36.250000 -1.024958
36.300000 -1.124309
36.350000 -1.192827
36.400000 -1.230511
36.450000 -1.278474
36.500000 -1.323011
36.550000 -1.312733
36.600000 -1.288751
36.650000 -1.288752
36.700000 -1.281900
36.750000 -1.251067
36.800000 -1.233937
36.850000 -1.237363
36.900000 -1.240789
36.950000 -1.223659
37.000000 -1.199679
37.050000 -1.192827
37.100000 -1.179123
37.150000 -1.151716
37.200000 -1.110606
37.250000 -1.069495
37.300000 -1.011254
37.350000 -0.959866
37.400000 -0.935885
37.450000 -0.946163
37.500000 -0.966718
37.550000 -0.997551
37.600000 -1.048939
37.650000 -1.127735
37.700000 -1.227085
37.750000 -1.333288
37.800000 -1.405232
37.850000 -1.453194
37.900000 -1.518286
37.950000 -1.545693
38.000000 -1.511434
38.050000 -1.463472
38.100000 -1.418936
38.150000 -1.343565
38.200000 -1.247641
38.250000 -1.192827
38.300000 -1.151716
38.350000 -1.100328
38.400000 -1.083198
38.450000 -1.103753
38.500000 -1.131161
38.550000 -1.165420
38.600000 -1.209956
38.650000 -1.237363
38.700000 -1.244215
38.750000 -1.244215
38.800000 -1.233938
38.850000 -1.203105
38.900000 -1.196253
38.950000 -1.203105
39.000000 -1.206531
39.050000 -1.206530
39.100000 -1.209956
39.150000 -1.199678
39.200000 -1.185975
39.250000 -1.196253
39.300000 -1.196253
39.350000 -1.165420
39.400000 -1.141438
39.450000 -1.124309
39.500000 -1.107179
39.550000 -1.117458
39.600000 -1.172271
39.650000 -1.237364
39.700000 -1.326437
39.750000 -1.436065
39.800000 -1.549119
39.850000 -1.662173
39.900000 -1.778654
39.950000 -1.860875
40.000000 -1.891708
40.050000 -1.922541
40.100000 -1.932819
40.150000 -1.840320
40.200000 -1.693007
40.250000 -1.583378
40.300000 -1.487453
40.350000 -1.353844
40.400000 -1.233938
40.450000 -1.172272
40.500000 -1.158568
40.550000 -1.161994
40.600000 -1.168845
40.650000 -1.168845
40.700000 -1.165420
40.750000 -1.161994
40.800000 -1.148290
40.850000 -1.114031
40.900000 -1.059217
40.950000 -0.997551
41.000000 -0.946162
41.050000 -0.922181
41.100000 -0.935885
41.150000 -0.987274
41.200000 -1.079772
41.250000 -1.189401
41.300000 -1.326437
41.350000 -1.470324
41.400000 -1.586804
41.450000 -1.655322
41.500000 -1.682729
41.550000 -1.641618
41.600000 -1.535416
41.650000 -1.401806
41.700000 -1.264770
41.750000 -1.107180
41.800000 -0.966717
41.850000 -0.891348
41.900000 -0.870793
41.950000 -0.887922
42.000000 -0.959866
42.050000 -1.086624
42.100000 -1.247641
42.150000 -1.394954
42.200000 -1.525138
42.250000 -1.638192
42.300000 -1.720414
42.350000 -1.734118
42.400000 -1.703285
42.450000 -1.648470
42.500000 -1.559397
42.550000 -1.456621
42.600000 -1.364121
42.650000 -1.302455
42.700000 -1.271622
42.750000 -1.292178
42.800000 -1.357270
42.850000 -1.446342
42.900000 -1.542268
42.950000 -1.614211
43.000000 -1.658748
43.050000 -1.679303
43.100000 -1.665599
43.150000 -1.603933
43.200000 -1.528564
43.250000 -1.449768
43.300000 -1.353843
43.350000 -1.264771
43.400000 -1.230511
43.450000 -1.244215
43.500000 -1.268197
43.550000 -1.302455
43.600000 -1.353843
43.650000 -1.415510
43.700000 -1.470324
43.750000 -1.531989
43.800000 -1.562823
43.850000 -1.535416
43.900000 -1.473749
43.950000 -1.408657
44.000000 -1.312732
44.050000 -1.192827
44.100000 -1.096901
44.150000 -1.052365
44.200000 -1.024958
44.250000 -0.983848
44.300000 -0.987273
44.350000 -1.042088
44.400000 -1.090050
44.450000 -1.120883
44.500000 -1.158568
44.550000 -1.196253
44.600000 -1.209956
44.650000 -1.192827
44.700000 -1.175697
44.750000 -1.161994
44.800000 -1.124309
44.850000 -1.079773
44.900000 -1.048940
44.950000 -1.011254
45.000000 -0.949588
45.050000 -0.901626
45.100000 -0.877645
45.150000 -0.836534
45.200000 -0.771442
45.250000 -0.720054
45.300000 -0.682369
45.350000 -0.613851
45.400000 -0.524778
45.450000 -0.445983
45.500000 -0.380891
45.550000 -0.329502
45.600000 -0.302095
45.650000 -0.295244
45.700000 -0.305521
45.750000 -0.326076
45.800000 -0.370613
45.850000 -0.449408
45.900000 -0.555611
45.950000 -0.648111
46.000000 -0.716628
46.050000 -0.795423
46.100000 -0.881071
46.150000 -0.929033
46.200000 -0.939311
46.250000 -0.932459
46.300000 -0.929033
46.350000 -0.929034
46.400000 -0.918756
46.450000 -0.905052
46.500000 -0.911904
46.550000 -0.929034
46.600000 -0.959866
46.650000 -1.004403
46.700000 -1.052365
46.750000 -1.072920
46.800000 -1.079772
46.850000 -1.103754
46.900000 -1.103753
46.950000 -1.045513
47.000000 -0.997551
47.050000 -0.987274
47.100000 -0.980422
47.150000 -0.973570
47.200000 -0.983847
47.250000 -1.004403
47.300000 -1.021533
47.350000 -1.076346
47.400000 -1.165420
47.450000 -1.261345
47.500000 -1.329862
47.550000 -1.360696
47.600000 -1.377825
47.650000 -1.398380
47.700000 -1.398380
47.750000 -1.360695
47.800000 -1.319585
47.850000 -1.292177
47.900000 -1.233937
47.950000 -1.155142
48.000000 -1.114031
48.050000 -1.100328
48.100000 -1.079772
48.150000 -1.066069
48.200000 -1.083198
48.250000 -1.120883
48.300000 -1.148290
48.350000 -1.158567
48.400000 -1.161993
48.450000 -1.192827
48.500000 -1.244215
48.550000 -1.271622
48.600000 -1.251066
48.650000 -1.230511
48.700000 -1.216808
48.750000 -1.192827
48.800000 -1.151716
48.850000 -1.100328
48.900000 -1.028384
48.950000 -0.966718
49.000000 -0.935885
49.050000 -0.898200
49.100000 -0.843386
49.150000 -0.815978
49.200000 -0.809127
49.250000 -0.785146
49.300000 -0.740609
49.350000 -0.716628
49.400000 -0.709777
49.450000 -0.702925
49.500000 -0.709776
49.550000 -0.730332
49.600000 -0.778294
49.650000 -0.857089
49.700000 -0.946162
49.750000 -1.038662
49.800000 -1.158568
49.850000 -1.309307
49.900000 -1.453194
49.950000 -1.579952
50.000000 -1.693006
50.050000 -1.768376
50.100000 -1.809487
50.150000 -1.840320
50.200000 -1.878005
50.250000 -1.888282
50.300000 -1.864301
50.350000 -1.816339
50.400000 -1.758098
50.450000 -1.699858
50.500000 -1.638193
50.550000 -1.521713
50.600000 -1.360695
50.650000 -1.230512
50.700000 -1.148291
50.750000 -1.059217
50.800000 -0.949588
50.850000 -0.870793
50.900000 -0.819405
50.950000 -0.778294
51.000000 -0.757739
51.050000 -0.785146
51.100000 -0.822830
51.150000 -0.863942
51.200000 -0.946163
51.250000 -1.062643
51.300000 -1.155142
51.350000 -1.220233
51.400000 -1.302455
51.450000 -1.377824
51.500000 -1.398380
51.550000 -1.364121
51.600000 -1.319585
51.650000 -1.268196
51.700000 -1.213382
51.750000 -1.158568
51.800000 -1.100328
51.850000 -1.042088
51.900000 -1.004403
51.950000 -0.976996
52.000000 -0.939311
52.050000 -0.929034
52.100000 -0.959866
52.150000 -0.994125
52.200000 -1.007828
52.250000 -1.028384
52.300000 -1.066069
52.350000 -1.083199
52.400000 -1.096902
52.450000 -1.127735
52.500000 -1.161994
52.550000 -1.189401
52.600000 -1.223660
52.650000 -1.268196
52.700000 -1.305881
52.750000 -1.336714
52.800000 -1.360695
52.850000 -1.394955
52.900000 -1.429213
52.950000 -1.456620
53.000000 -1.466898
53.050000 -1.501157
53.100000 -1.552545
53.150000 -1.586804
53.200000 -1.614211
53.250000 -1.658748
53.300000 -1.699859
53.350000 -1.713562
53.400000 -1.716988
53.450000 -1.720414
53.500000 -1.696433
53.550000 -1.658747
53.600000 -1.624488
53.650000 -1.576527
53.700000 -1.494305
53.750000 -1.398380
53.800000 -1.295603
53.850000 -1.179124
53.900000 -1.072920
53.950000 -0.997550
54.000000 -0.963292
54.050000 -0.946163
54.100000 -0.939311
54.150000 -0.942737
54.200000 -0.966718
54.250000 -1.000977
54.300000 -1.021533
54.350000 -1.031809
54.400000 -1.045513
54.450000 -1.062643
54.500000 -1.079772
54.550000 -1.083198
54.600000 -1.086624
54.650000 -1.114031
54.700000 -1.148290
54.750000 -1.158567
54.800000 -1.168846
54.850000 -1.209956
54.900000 -1.223660
54.950000 -1.189401
55.000000 -1.155141
55.050000 -1.117457
55.100000 -1.011254
55.150000 -0.877645
55.200000 -0.768017
55.250000 -0.696073
55.300000 -0.634407
55.350000 -0.583018
55.400000 -0.562463
55.450000 -0.620703
55.500000 -0.744035
55.550000 -0.870793
55.600000 -1.018107
55.650000 -1.213382
55.700000 -1.398380
55.750000 -1.511434
55.800000 -1.593656
55.850000 -1.658748
55.900000 -1.655322
55.950000 -1.573100
56.000000 -1.480601
56.050000 -1.398380
56.100000 -1.292178
56.150000 -1.172271
56.200000 -1.090050
56.250000 -1.059217
56.300000 -1.045514
56.350000 -1.038662
56.400000 -1.055791
56.450000 -1.093475
56.500000 -1.124309
56.550000 -1.131161
56.600000 -1.141438
56.650000 -1.155142
56.700000 -1.127734
56.750000 -1.072920
56.800000 -1.011255
56.850000 -0.953014
56.900000 -0.887922
56.950000 -0.833109
57.000000 -0.802276
57.050000 -0.791998
57.100000 -0.812552
57.150000 -0.891348
57.200000 -0.997551
57.250000 -1.117457
57.300000 -1.237363
57.350000 -1.346992
57.400000 -1.412083
57.450000 -1.449768
57.500000 -1.463472
57.550000 -1.425787
57.600000 -1.364121
57.650000 -1.326437
57.700000 -1.281900
57.750000 -1.203104
57.800000 -1.151716
57.850000 -1.161994
57.900000 -1.168846
57.950000 -1.155142
58.000000 -1.151716
58.050000 -1.161993
58.100000 -1.155142
58.150000 -1.151716
58.200000 -1.148291
58.250000 -1.110605
58.300000 -1.038662
58.350000 -0.959866
58.400000 -0.891349
58.450000 -0.839960
58.500000 -0.805701
58.550000 -0.774868
58.600000 -0.774868
58.650000 -0.805701
58.700000 -0.846812
58.750000 -0.860515
58.800000 -0.881070
58.850000 -0.908478
58.900000 -0.925607
58.950000 -0.901626
59.000000 -0.846812
59.050000 -0.812552
59.100000 -0.785146
59.150000 -0.716628
59.200000 -0.634407
59.250000 -0.593296
59.300000 -0.589871
59.350000 -0.565889
59.400000 -0.565888
59.450000 -0.610425
59.500000 -0.672092
59.550000 -0.733758
59.600000 -0.822830
59.650000 -0.929034
59.700000 -1.018106
59.750000 -1.114031
59.800000 -1.223659
59.850000 -1.316158
59.900000 -1.391529
59.950000 -1.463472
60.000000 -1.521712
60.050000 -1.573101
60.100000 -1.634766
60.150000 -1.669026
60.200000 -1.651896
60.250000 -1.658748
60.300000 -1.682729
60.350000 -1.648470
60.400000 -1.562822
60.450000 -1.501157
60.500000 -1.463472
60.550000 -1.422361
60.600000 -1.394954
60.650000 -1.384677
60.700000 -1.374398
60.750000 -1.377825
60.800000 -1.405231
60.850000 -1.422361
60.900000 -1.436065
60.950000 -1.456621
61.000000 -1.456620
61.050000 -1.432639
61.100000 -1.405232
61.150000 -1.353843
61.200000 -1.271623
61.250000 -1.203104
61.300000 -1.155142
61.350000 -1.086624
61.400000 -1.031810
61.450000 -1.052365
61.500000 -1.090050
61.550000 -1.079773
61.600000 -1.090050
61.650000 -1.148290
61.700000 -1.175697
61.750000 -1.155142
61.800000 -1.148290
61.850000 -1.148291
61.900000 -1.100328
61.950000 -1.018107
62.000000 -0.915330
62.050000 -0.805701
62.100000 -0.702924
62.150000 -0.613851
62.200000 -0.541908
62.250000 -0.511074
62.300000 -0.524779
62.350000 -0.559037
62.400000 -0.610426
62.450000 -0.706350
62.500000 -0.815979
62.550000 -0.891349
62.600000 -0.966718
62.650000 -1.048939
62.700000 -1.079772
62.750000 -1.038662
62.800000 -0.980421
62.850000 -0.915329
62.900000 -0.822830
62.950000 -0.723480
63.000000 -0.641259
63.050000 -0.603574
63.100000 -0.613852
63.150000 -0.651536
63.200000 -0.720054
63.250000 -0.867367
63.300000 -1.079772
63.350000 -1.285326
63.400000 -1.446342
63.450000 -1.607360
63.500000 -1.744395
63.550000 -1.816338
63.600000 -1.836894
63.650000 -1.799209
63.700000 -1.682729
63.750000 -1.528564
63.800000 -1.384677
63.850000 -1.254492
63.900000 -1.093476
63.950000 -0.946163
64.000000 -0.874219
64.050000 -0.843386
64.100000 -0.819405
64.150000 -0.836535
64.200000 -0.932459
64.250000 -1.052365
64.300000 -1.172272
64.350000 -1.285326
64.400000 -1.391528
64.450000 -1.470323
64.500000 -1.521712
64.550000 -1.525138
64.600000 -1.456620
64.650000 -1.346992
64.700000 -1.244215
64.750000 -1.114032
64.800000 -0.932459
64.850000 -0.778294
64.900000 -0.682369
64.950000 -0.606999
65.000000 -0.565889
65.050000 -0.593296
65.100000 -0.661814
65.150000 -0.761164
65.200000 -0.911904
65.250000 -1.069495
65.300000 -1.172272
65.350000 -1.233937
65.400000 -1.278474
65.450000 -1.261344
65.500000 -1.182549
65.550000 -1.090050
65.600000 -0.987273
65.650000 -0.843385
65.700000 -0.730331
65.750000 -0.678943
65.800000 -0.665239
65.850000 -0.682369
65.900000 -0.750887
65.950000 -0.836534
66.000000 -0.918756
66.050000 -1.014681
66.100000 -1.086624
66.150000 -1.093476
66.200000 -1.079772
66.250000 -1.035236
66.300000 -0.911903
66.350000 -0.754312
66.400000 -0.641258
66.450000 -0.538482
66.500000 -0.445983
66.550000 -0.422002
66.600000 -0.487094
66.650000 -0.617277
66.700000 -0.778294
66.750000 -0.949589
66.800000 -1.127735
66.850000 -1.333288
66.900000 -1.490879
66.950000 -1.552545
67.000000 -1.573101
67.050000 -1.586804
67.100000 -1.528564
67.150000 -1.408658
67.200000 -1.299029
67.250000 -1.185975
67.300000 -1.066069
67.350000 -0.987273
67.400000 -0.966718
67.450000 -0.946162
67.500000 -0.935885
67.550000 -0.949589
67.600000 -0.942736
67.650000 -0.898201
67.700000 -0.853663
67.750000 -0.805701
67.800000 -0.726906
67.850000 -0.641258
67.900000 -0.562463
67.950000 -0.483667
68.000000 -0.439131
68.050000 -0.456261
68.100000 -0.511075
68.150000 -0.613852
68.200000 -0.791998
68.250000 -1.000977
68.300000 -1.203104
68.350000 -1.377825
68.400000 -1.504583
68.450000 -1.573101
68.500000 -1.597082
68.550000 -1.579952
68.600000 -1.508009
68.650000 -1.384676
68.700000 -1.233937
68.750000 -1.062643
68.800000 -0.911903
68.850000 -0.802275
68.900000 -0.733758
68.950000 -0.723480
69.000000 -0.788572
69.050000 -0.922181
69.100000 -1.083198
69.150000 -1.275048
69.200000 -1.487453
69.250000 -1.693007
69.300000 -1.843746
69.350000 -1.925967
69.400000 -1.932819
69.450000 -1.895135
69.500000 -1.785506
69.550000 -1.597081
69.600000 -1.405232
69.650000 -1.264771
69.700000 -1.141438
69.750000 -1.052365
69.800000 -1.045514
69.850000 -1.103754
69.900000 -1.161994
69.950000 -1.247641
70.000000 -1.360695
70.050000 -1.439491
70.100000 -1.470323
70.150000 -1.490879
70.200000 -1.466898
70.250000 -1.374399
70.300000 -1.233937
70.350000 -1.066068
70.400000 -0.887922
70.450000 -0.733757
70.500000 -0.613851
70.550000 -0.521353
70.600000 -0.490520
70.650000 -0.545333
70.700000 -0.603573
70.750000 -0.637833
70.800000 -0.716628
70.850000 -0.829682
70.900000 -0.932459
70.950000 -1.035236
71.000000 -1.165419
71.050000 -1.292178
71.100000 -1.377825
71.150000 -1.439490
71.200000 -1.494305
71.250000 -1.508008
71.300000 -1.466897
71.350000 -1.384677
71.400000 -1.305881
71.450000 -1.237363
71.500000 -1.131161
71.550000 -0.980422
71.600000 -0.867368
71.650000 -0.829682
71.700000 -0.791997
71.750000 -0.757739
71.800000 -0.805701
71.850000 -0.908477
71.900000 -0.973569
71.950000 -1.011255
72.000000 -1.069494
72.050000 -1.103754
72.100000 -1.072921
72.150000 -1.028384
72.200000 -0.973570
72.250000 -0.877645
72.300000 -0.757739
72.350000 -0.641259
72.400000 -0.555611
72.450000 -0.517926
72.500000 -0.517926
72.550000 -0.545334
72.600000 -0.624129
72.650000 -0.761165
72.700000 -0.894774
72.750000 -1.018107
72.800000 -1.158568
72.850000 -1.292178
72.900000 -1.374399
72.950000 -1.429213
73.000000 -1.470323
73.050000 -1.487453
73.100000 -1.504582
73.150000 -1.521713
73.200000 -1.501157
73.250000 -1.490880
73.300000 -1.518287
73.350000 -1.525138
73.400000 -1.501157
73.450000 -1.504582
73.500000 -1.511434
73.550000 -1.460046
73.600000 -1.408657
73.650000 -1.377825
73.700000 -1.295603
73.750000 -1.182549
73.800000 -1.107179
73.850000 -1.035236
73.900000 -0.922181
73.950000 -0.819405
74.000000 -0.747461
74.050000 -0.685795
74.100000 -0.658387
74.150000 -0.672091
74.200000 -0.689221
74.250000 -0.726905
74.300000 -0.805701
74.350000 -0.894774
74.400000 -0.994125
74.450000 -1.127735
74.500000 -1.240789
74.550000 -1.312733
74.600000 -1.398380
74.650000 -1.473750
74.700000 -1.432639
74.750000 -1.319584
74.800000 -1.227086
74.850000 -1.100328
74.900000 -0.905052
74.950000 -0.713202
75.000000 -0.562463
75.050000 -0.428853
75.100000 -0.339780
75.150000 -0.302096
75.200000 -0.305521
75.250000 -0.370614
75.300000 -0.469963
75.350000 -0.545333
75.400000 -0.637833
75.450000 -0.788572
75.500000 -0.894775
75.550000 -0.911904
75.600000 -0.925607
75.650000 -0.942736
75.700000 -0.918756
75.750000 -0.877645
75.800000 -0.853663
75.850000 -0.836534
75.900000 -0.836535
75.950000 -0.867367
76.000000 -0.901626
76.050000 -0.953015
76.100000 -1.031810
76.150000 -1.093476
76.200000 -1.138012
76.250000 -1.192827
76.300000 -1.240789
76.350000 -1.264770
76.400000 -1.299030
76.450000 -1.326437
76.500000 -1.305881
76.550000 -1.264770
76.600000 -1.223660
76.650000 -1.141438
76.700000 -1.042087
76.750000 -0.983847
76.800000 -0.935885
76.850000 -0.863942
76.900000 -0.826256
76.950000 -0.812553
77.000000 -0.809127
77.050000 -0.846811
77.100000 -0.915329
77.150000 -0.939311
77.200000 -0.963292
77.250000 -1.038661
77.300000 -1.107179
77.350000 -1.131160
77.400000 -1.138013
77.450000 -1.134587
77.500000 -1.090050
77.550000 -1.045514
77.600000 -1.028384
77.650000 -1.000976
77.700000 -0.973570
77.750000 -0.980422
77.800000 -0.990699
77.850000 -0.976996
77.900000 -0.980422
77.950000 -0.987273
78.000000 -0.946163
78.050000 -0.881070
78.100000 -0.829682
78.150000 -0.757738
78.200000 -0.654962
78.250000 -0.579592
78.300000 -0.531630
78.350000 -0.490519
78.400000 -0.469963
78.450000 -0.487094
78.500000 -0.535056
78.550000 -0.613851
78.600000 -0.713202
78.650000 -0.819405
78.700000 -0.935885
78.750000 -1.045514
78.800000 -1.124309
78.850000 -1.179123
78.900000 -1.216808
78.950000 -1.206530
79.000000 -1.155142
79.050000 -1.110605
79.100000 -1.076346
79.150000 -1.045513
79.200000 -1.018107
79.250000 -1.021532
79.300000 -1.042088
79.350000 -1.083198
79.400000 -1.148290
79.450000 -1.203105
79.500000 -1.240789
79.550000 -1.275048
79.600000 -1.323010
79.650000 -1.350418
79.700000 -1.340140
79.750000 -1.309307
79.800000 -1.278474
79.850000 -1.251067
79.900000 -1.216808
79.950000 -1.182549
80.000000 -1.161994
80.050000 -1.172272
80.100000 -1.192827
80.150000 -1.206530
80.200000 -1.223660
80.250000 -1.247641
80.300000 -1.288751
80.350000 -1.340140
80.400000 -1.377824
80.450000 -1.388103
80.500000 -1.415510
80.550000 -1.480602
80.600000 -1.538841
80.650000 -1.569675
80.700000 -1.586804
80.750000 -1.607360
80.800000 -1.624489
80.850000 -1.634767
80.900000 -1.610785
80.950000 -1.535416
81.000000 -1.442917
81.050000 -1.360696
81.100000 -1.244215
81.150000 -1.100328
81.200000 -0.990699
81.250000 -0.905052
81.300000 -0.812553
81.350000 -0.733757
81.400000 -0.709776
81.450000 -0.696073
81.500000 -0.696073
81.550000 -0.737183
81.600000 -0.815979
81.650000 -0.891348
81.700000 -0.966718
81.750000 -1.052366
81.800000 -1.144865
81.850000 -1.251067
81.900000 -1.340140
81.950000 -1.391529
82.000000 -1.415510
82.050000 -1.418936
82.100000 -1.374399
82.150000 -1.302455
82.200000 -1.216807
82.250000 -1.120883
82.300000 -1.004402
82.350000 -0.874219
82.400000 -0.740609
82.450000 -0.613851
82.500000 -0.511075
82.550000 -0.428853
82.600000 -0.363761
82.650000 -0.308947
82.700000 -0.291818
82.750000 -0.281540
82.800000 -0.274688
82.850000 -0.284966
82.900000 -0.319224
82.950000 -0.360336
83.000000 -0.425427
83.050000 -0.493945
83.100000 -0.552185
83.150000 -0.620703
83.200000 -0.730332
83.250000 -0.826257
83.300000 -0.881071
83.350000 -0.966717
83.400000 -1.076346
83.450000 -1.134586
83.500000 -1.168845
83.550000 -1.227085
83.600000 -1.268197
83.650000 -1.257918
83.700000 -1.240789
83.750000 -1.216808
83.800000 -1.175697
83.850000 -1.134587
83.900000 -1.090050
83.950000 -1.035236
84.000000 -1.004403
84.050000 -1.004403
84.100000 -0.997551
84.150000 -1.000977
84.200000 -1.052365
84.250000 -1.127735
84.300000 -1.185974
84.350000 -1.237364
84.400000 -1.285326
84.450000 -1.316159
84.500000 -1.305881
84.550000 -1.257919
84.600000 -1.192826
84.650000 -1.127735
84.700000 -1.038661
84.750000 -0.925608
84.800000 -0.812553
84.850000 -0.720054
84.900000 -0.658388
84.950000 -0.617277
85.000000 -0.586444
85.050000 -0.586444
85.100000 -0.634406
85.150000 -0.699499
85.200000 -0.750886
85.250000 -0.815978
85.300000 -0.877644
85.350000 -0.905052
85.400000 -0.935885
85.450000 -0.990699
85.500000 -1.028384
85.550000 -1.028384
85.600000 -1.038661
85.650000 -1.045514
85.700000 -1.011255
85.750000 -0.983848
85.800000 -0.983847
85.850000 -0.949588
85.900000 -0.870793
85.950000 -0.795423
86.000000 -0.740610
86.050000 -0.665239
86.100000 -0.565889
86.150000 -0.473389
86.200000 -0.415150
86.250000 -0.394594
86.300000 -0.401447
86.350000 -0.435705
86.400000 -0.504222
86.450000 -0.593296
86.500000 -0.665239
86.550000 -0.720054
86.600000 -0.764591
86.650000 -0.774868
86.700000 -0.744035
86.750000 -0.706350
86.800000 -0.654962
86.850000 -0.586444
86.900000 -0.555612
86.950000 -0.596721
87.000000 -0.668666
87.050000 -0.761165
87.100000 -0.922181
87.150000 -1.117457
87.200000 -1.281900
87.250000 -1.442916
87.300000 -1.597082
87.350000 -1.675877
87.400000 -1.669025
87.450000 -1.621063
87.500000 -1.528564
87.550000 -1.374399
87.600000 -1.213382
87.650000 -1.072920
87.700000 -0.925608
87.750000 -0.778294
87.800000 -0.699498
87.850000 -0.682369
87.900000 -0.678943
87.950000 -0.689221
88.000000 -0.750887
88.050000 -0.822830
88.100000 -0.867367
88.150000 -0.898200
88.200000 -0.935885
88.250000 -0.987274
88.300000 -1.035236
88.350000 -1.042087
88.400000 -1.042087
88.450000 -1.066068
88.500000 -1.086624
88.550000 -1.093476
88.600000 -1.117457
88.650000 -1.144864
88.700000 -1.124309
88.750000 -1.076346
88.800000 -1.069495
88.850000 -1.083199
88.900000 -1.055791
88.950000 -1.004403
89.000000 -0.966718
89.050000 -0.939310
89.100000 -0.877645
89.150000 -0.795423
89.200000 -0.726905
89.250000 -0.658388
89.300000 -0.593296
89.350000 -0.562463
89.400000 -0.565889
89.450000 -0.569314
89.500000 -0.610425
89.550000 -0.716628
89.600000 -0.833108
89.650000 -0.946163
89.700000 -1.066068
89.750000 -1.182549
89.800000 -1.233938
89.850000 -1.244215
89.900000 -1.240789
89.950000 -1.206530
90.000000 -1.124309
90.050000 -1.035235
90.100000 -0.966718
90.150000 -0.925607
90.200000 -0.908478
90.250000 -0.915330
90.300000 -0.918756
90.350000 -0.905051
90.400000 -0.894774
90.450000 -0.901626
90.500000 -0.894775
90.550000 -0.857089
90.600000 -0.815978
90.650000 -0.774869
90.700000 -0.713202
90.750000 -0.665240
90.800000 -0.651537
90.850000 -0.654962
90.900000 -0.682369
90.950000 -0.740609
91.000000 -0.812553
91.050000 -0.877645
91.100000 -0.935885
91.150000 -0.966718
91.200000 -0.959866
91.250000 -0.925607
91.300000 -0.870793
91.350000 -0.798850
91.400000 -0.750887
91.450000 -0.720054
91.500000 -0.682369
91.550000 -0.675518
91.600000 -0.716628
91.650000 -0.750887
91.700000 -0.744035
91.750000 -0.740610
91.800000 -0.747461
91.850000 -0.757738
91.900000 -0.764591
91.950000 -0.750887
92.000000 -0.696073
92.050000 -0.644685
92.100000 -0.630981
92.150000 -0.637833
92.200000 -0.648110
92.250000 -0.654962
92.300000 -0.675517
92.350000 -0.737184
92.400000 -0.815979
92.450000 -0.898200
92.500000 -0.980422
92.550000 -1.045513
92.600000 -1.107179
92.650000 -1.172271
92.700000 -1.227086
92.750000 -1.247641
92.800000 -1.268196
92.850000 -1.305881
92.900000 -1.336714
92.950000 -1.350417
93.000000 -1.360695
93.050000 -1.367547
93.100000 -1.353843
93.150000 -1.329862
93.200000 -1.299029
93.250000 -1.261345
93.300000 -1.227086
93.350000 -1.189400
93.400000 -1.155142
93.450000 -1.117457
93.500000 -1.076346
93.550000 -1.021532
93.600000 -0.997551
93.650000 -0.983848
93.700000 -0.942737
93.750000 -0.891348
93.800000 -0.881071
93.850000 -0.891348
93.900000 -0.894774
93.950000 -0.884496
94.000000 -0.884497
94.050000 -0.887922
94.100000 -0.891348
94.150000 -0.905052
94.200000 -0.915330
94.250000 -0.905051
94.300000 -0.874219
94.350000 -0.846812
94.400000 -0.836534
94.450000 -0.839960
94.500000 -0.836534
94.550000 -0.812553
94.600000 -0.798849
94.650000 -0.822831
94.700000 -0.850238
94.750000 -0.860515
94.800000 -0.870793
94.850000 -0.887923
94.900000 -0.898200
94.950000 -0.887923
95.000000 -0.839960
95.050000 -0.788572
95.100000 -0.761164
95.150000 -0.754312
95.200000 -0.730332
95.250000 -0.744035
95.300000 -0.822831
95.350000 -0.894774
95.400000 -0.953014
95.450000 -1.052365
95.500000 -1.165419
95.550000 -1.220233
95.600000 -1.237363
95.650000 -1.278474
95.700000 -1.309307
95.750000 -1.268196
95.800000 -1.189401
95.850000 -1.110605
95.900000 -1.024958
95.950000 -0.918756
96.000000 -0.826256
96.050000 -0.764591
96.100000 -0.692646
96.150000 -0.589870
96.200000 -0.504223
96.250000 -0.445982
96.300000 -0.377465
96.350000 -0.298670
96.400000 -0.254132
96.450000 -0.223300
96.500000 -0.206170
96.550000 -0.233577
96.600000 -0.291818
96.650000 -0.339780
96.700000 -0.401446
96.750000 -0.487094
96.800000 -0.559037
96.850000 -0.630981
96.900000 -0.702925
96.950000 -0.737183
97.000000 -0.740609
97.050000 -0.737184
97.100000 -0.716628
97.150000 -0.651536
97.200000 -0.610425
97.250000 -0.603573
97.300000 -0.596722
97.350000 -0.565889
97.400000 -0.569315
97.450000 -0.627555
97.500000 -0.678943
97.550000 -0.706351
97.600000 -0.733758
97.650000 -0.771442
97.700000 -0.791997
97.750000 -0.791998
97.800000 -0.764591
97.850000 -0.740609
97.900000 -0.730332
97.950000 -0.716628
98.000000 -0.696072
98.050000 -0.699499
98.100000 -0.737183
98.150000 -0.778294
98.200000 -0.833108
98.250000 -0.929033
98.300000 -1.045513
98.350000 -1.138013
98.400000 -1.206530
98.450000 -1.268196
98.500000 -1.309307
98.550000 -1.336714
98.600000 -1.343566
98.650000 -1.319585
98.700000 -1.268196
98.750000 -1.206531
98.800000 -1.172271
98.850000 -1.138012
98.900000 -1.066069
98.950000 -0.976995
99.000000 -0.901626
99.050000 -0.822830
99.100000 -0.744035
99.150000 -0.685795
99.200000 -0.644684
99.250000 -0.620703
99.300000 -0.627555
99.350000 -0.661813
99.400000 -0.696072
99.450000 -0.754313
99.500000 -0.829682
99.550000 -0.867367
99.600000 -0.881071
99.650000 -0.908477
99.700000 -0.908478
99.750000 -0.839960
99.800000 -0.764591
99.850000 -0.716628
99.900000 -0.661814
99.950000 -0.583018
100.000000 -0.504223
100.050000 -0.456261
100.100000 -0.435705
100.150000 -0.428853
100.200000 -0.415150
100.250000 -0.425428
100.300000 -0.456260
100.350000 -0.469964
100.400000 -0.452834
100.450000 -0.463112
100.500000 -0.480242
100.550000 -0.483668
100.600000 -0.528204
100.650000 -0.610425
100.700000 -0.665239
100.750000 -0.709776
100.800000 -0.795424
100.850000 -0.884497
100.900000 -0.918755
100.950000 -0.966718
101.000000 -1.045513
101.050000 -1.062642
101.100000 -1.024958
101.150000 -0.987273
101.200000 -0.959866
101.250000 -0.898200
101.300000 -0.826257
101.350000 -0.809127
101.400000 -0.839960
101.450000 -0.881071
101.500000 -0.925607
101.550000 -1.000977
101.600000 -1.103753
101.650000 -1.179123
101.700000 -1.220234
101.750000 -1.275048
101.800000 -1.333288
101.850000 -1.350417
101.900000 -1.309307
101.950000 -1.240790
102.000000 -1.141438
102.050000 -1.035236
102.100000 -0.949589
102.150000 -0.881070
102.200000 -0.819405
102.250000 -0.826256
102.300000 -0.891349
102.350000 -0.980422
102.400000 -1.096902
102.450000 -1.254493
102.500000 -1.388102
102.550000 -1.470324
102.600000 -1.549119
102.650000 -1.607359
102.700000 -1.600507
102.750000 -1.538842
102.800000 -1.439491
102.850000 -1.292177
102.900000 -1.114031
102.950000 -0.949588
103.000000 -0.826256
103.050000 -0.740610
103.100000 -0.672092
103.150000 -0.624129
103.200000 -0.620703
103.250000 -0.651536
103.300000 -0.685795
103.350000 -0.747461
103.400000 -0.836534
103.450000 -0.877644
103.500000 -0.857089
103.550000 -0.867367
103.600000 -0.915329
103.650000 -0.915329
103.700000 -0.857089
103.750000 -0.815979
103.800000 -0.802275
103.850000 -0.785146
103.900000 -0.778294
103.950000 -0.781720
104.000000 -0.781720
104.050000 -0.798849
104.100000 -0.839960
104.150000 -0.846812
104.200000 -0.833108
104.250000 -0.839960
104.300000 -0.833109
104.350000 -0.795423
104.400000 -0.754312
104.450000 -0.702924
104.500000 -0.607000
104.550000 -0.500797
104.600000 -0.425427
104.650000 -0.353483
104.700000 -0.281540
104.750000 -0.237004
104.800000 -0.237003
104.850000 -0.264410
104.900000 -0.312373
104.950000 -0.367188
105.000000 -0.439131
105.050000 -0.538482
105.100000 -0.627555
105.150000 -0.696073
105.200000 -0.761164
105.250000 -0.822830
105.300000 -0.839960
105.350000 -0.829682
105.400000 -0.826256
105.450000 -0.809127
105.500000 -0.764591
105.550000 -0.713202
105.600000 -0.682369
105.650000 -0.648111
105.700000 -0.603573
105.750000 -0.559037
105.800000 -0.538482
105.850000 -0.541908
105.900000 -0.548759
105.950000 -0.555611
106.000000 -0.583018
106.050000 -0.627555
106.100000 -0.675517
106.150000 -0.726906
106.200000 -0.791997
106.250000 -0.857089
106.300000 -0.908478
106.350000 -0.976996
106.400000 -1.072921
106.450000 -1.165419
106.500000 -1.230511
106.550000 -1.268196
106.600000 -1.292178
106.650000 -1.295603
106.700000 -1.271622
106.750000 -1.223660
106.800000 -1.138013
106.850000 -1.014681
106.900000 -0.846812
106.950000 -0.661813
107.000000 -0.511074
107.050000 -0.404872
107.100000 -0.302095
107.150000 -0.226726
107.200000 -0.233577
107.250000 -0.298670
107.300000 -0.353484
107.350000 -0.422001
107.400000 -0.531630
107.450000 -0.637833
107.500000 -0.723480
107.550000 -0.778294
107.600000 -0.795424
107.650000 -0.785145
107.700000 -0.774869
107.750000 -0.740609
107.800000 -0.702924
107.850000 -0.699498
107.900000 -0.737183
107.950000 -0.750887
108.000000 -0.781720
108.050000 -0.850238
108.100000 -0.887922
108.150000 -0.874219
108.200000 -0.843386
108.250000 -0.802275
108.300000 -0.713202
108.350000 -0.593296
108.400000 -0.480241
108.450000 -0.377465
108.500000 -0.302095
108.550000 -0.274688
108.600000 -0.284966
108.650000 -0.343206
108.700000 -0.452834
108.750000 -0.607000
108.800000 -0.812553
108.850000 -1.055791
108.900000 -1.275048
108.950000 -1.432639
109.000000 -1.542267
109.050000 -1.624489
109.100000 -1.662174
109.150000 -1.631341
109.200000 -1.531990
109.250000 -1.425788
109.300000 -1.319585
109.350000 -1.175698
109.400000 -1.031810
109.450000 -0.953015
109.500000 -0.901626
109.550000 -0.846812
109.600000 -0.833108
109.650000 -0.881070
109.700000 -0.935885
109.750000 -0.949589
109.800000 -0.953014
109.850000 -0.953015
109.900000 -0.908478
109.950000 -0.809126
110.000000 -0.692646
110.050000 -0.606999
110.100000 -0.541907
110.150000 -0.459686
110.200000 -0.391168
110.250000 -0.370613
110.300000 -0.398020
110.350000 -0.442557
110.400000 -0.528204
110.450000 -0.665240
110.500000 -0.809127
110.550000 -0.918755
110.600000 -1.004403
110.650000 -1.090050
110.700000 -1.151716
110.750000 -1.165420
110.800000 -1.165420
110.850000 -1.148290
110.900000 -1.076346
110.950000 -0.966718
111.000000 -0.881071
111.050000 -0.822831
111.100000 -0.771443
111.150000 -0.726906
111.200000 -0.723480
111.250000 -0.747460
111.300000 -0.785146
111.350000 -0.850238
111.400000 -0.949588
111.450000 -1.059217
111.500000 -1.161993
111.550000 -1.271623
111.600000 -1.367548
111.650000 -1.422361
111.700000 -1.429213
111.750000 -1.401806
111.800000 -1.340140
111.850000 -1.247641
111.900000 -1.141439
111.950000 -1.011255
112.000000 -0.867368
112.050000 -0.723480
112.100000 -0.589870
112.150000 -0.480241
112.200000 -0.404872
112.250000 -0.370613
112.300000 -0.360335
112.350000 -0.374039
112.400000 -0.442557
112.450000 -0.555611
112.500000 -0.665239
112.550000 -0.754313
112.600000 -0.860515
112.650000 -0.963292
112.700000 -1.004402
112.750000 -0.983848
112.800000 -0.935885
112.850000 -0.870793
112.900000 -0.757739
112.950000 -0.589870
113.000000 -0.394595
113.050000 -0.233577
113.100000 -0.110246
113.150000 -0.024598
113.200000 -0.010894
113.250000 -0.072561
113.300000 -0.178763
113.350000 -0.326076
113.400000 -0.517926
113.450000 -0.720054
113.500000 -0.891348
113.550000 -1.031810
113.600000 -1.151716
113.650000 -1.240789
113.700000 -1.257919
113.750000 -1.199678
113.800000 -1.110605
113.850000 -1.031809
113.900000 -0.939310
113.950000 -0.833108
114.000000 -0.747460
114.050000 -0.706350
114.100000 -0.692647
114.150000 -0.685795
114.200000 -0.730332
114.250000 -0.833108
114.300000 -0.922181
114.350000 -0.959867
114.400000 -1.000977
114.450000 -1.038662
114.500000 -1.018106
114.550000 -0.946163
114.600000 -0.874219
114.650000 -0.812553
114.700000 -0.737184
114.750000 -0.644684
114.800000 -0.569315
114.850000 -0.535056
114.900000 -0.528204
114.950000 -0.521353
115.000000 -0.538482
115.050000 -0.589870
115.100000 -0.634407
115.150000 -0.675517
115.200000 -0.730331
115.250000 -0.781720
115.300000 -0.791997
115.350000 -0.788571
115.400000 -0.791998
115.450000 -0.798849
115.500000 -0.809127
115.550000 -0.826257
115.600000 -0.846811
115.650000 -0.898201
115.700000 -0.987273
115.750000 -1.083198
115.800000 -1.151716
115.850000 -1.203105
115.900000 -1.240789
115.950000 -1.230511
116.000000 -1.189401
116.050000 -1.141438
116.100000 -1.083198
116.150000 -1.000977
116.200000 -0.901626
116.250000 -0.798850
116.300000 -0.706350
116.350000 -0.637832
116.400000 -0.596721
116.450000 -0.562463
116.500000 -0.517926
116.550000 -0.480241
116.600000 -0.466538
116.650000 -0.487094
116.700000 -0.514501
116.750000 -0.524778
116.800000 -0.548759
116.850000 -0.603574
116.900000 -0.651536
116.950000 -0.682369
117.000000 -0.733757
117.050000 -0.805701
117.100000 -0.846812
117.150000 -0.853664
117.200000 -0.874219
117.250000 -0.918755
117.300000 -0.922181
117.350000 -0.891348
117.400000 -0.877645
117.450000 -0.870793
117.500000 -0.839960
117.550000 -0.805701
117.600000 -0.809127
117.650000 -0.839960
117.700000 -0.874219
117.750000 -0.915329
117.800000 -0.966718
117.850000 -1.004403
117.900000 -1.007828
117.950000 -0.987273
118.000000 -0.970144
118.050000 -0.956440
118.100000 -0.935884
118.150000 -0.901626
118.200000 -0.870793
118.250000 -0.863941
118.300000 -0.887923
118.350000 -0.915329
118.400000 -0.932459
118.450000 -0.956441
118.500000 -1.000977
118.550000 -1.031810
118.600000 -1.035236
118.650000 -1.028384
118.700000 -1.042088
118.750000 -1.055792
118.800000 -1.066068
118.850000 -1.093476
118.900000 -1.155142
118.950000 -1.223660
119.000000 -1.316159
119.050000 -1.470324
119.100000 -1.627915
119.150000 -1.727265
119.200000 -1.812912
119.250000 -1.898560
119.300000 -1.929393
119.350000 -1.878005
119.400000 -1.802635
119.450000 -1.703285
119.500000 -1.531989
119.550000 -1.312733
119.600000 -1.110605
119.650000 -0.918756
119.700000 -0.720053
119.750000 -0.548759
119.800000 -0.418576
119.850000 -0.315798
119.900000 -0.243855
119.950000 -0.226726
120.000000 -0.264410
120.050000 -0.302095
120.100000 -0.343206
120.150000 -0.401447
120.200000 -0.463112
120.250000 -0.517926
120.300000 -0.565888
120.350000 -0.603573
120.400000 -0.603574
120.450000 -0.589871
120.500000 -0.569315
120.550000 -0.514500
120.600000 -0.432279
120.650000 -0.377465
120.700000 -0.350058
120.750000 -0.336354
120.800000 -0.363762
120.850000 -0.439131
120.900000 -0.511074
120.950000 -0.569315
121.000000 -0.654962
121.050000 -0.740610
121.100000 -0.798850
121.150000 -0.839960
121.200000 -0.877645
121.250000 -0.884496
121.300000 -0.857089
121.350000 -0.829683
121.400000 -0.812553
121.450000 -0.795423
121.500000 -0.781720
121.550000 -0.781720
121.600000 -0.785145
121.650000 -0.802276
121.700000 -0.843386
121.750000 -0.877645
121.800000 -0.891348
121.850000 -0.905052
121.900000 -0.942736
121.950000 -0.980421
122.000000 -0.990699
122.050000 -1.000976
122.100000 -1.042087
122.150000 -1.096902
122.200000 -1.134587
122.250000 -1.161993
122.300000 -1.192827
122.350000 -1.223659
122.400000 -1.216808
122.450000 -1.165420
122.500000 -1.100328
122.550000 -1.018107
122.600000 -0.908478
122.650000 -0.778294
122.700000 -0.678943
122.750000 -0.627555
122.800000 -0.613851
122.850000 -0.637832
122.900000 -0.699499
122.950000 -0.785145
123.000000 -0.925607
123.050000 -1.138012
123.100000 -1.353843
123.150000 -1.525138
123.200000 -1.679303
123.250000 -1.857449
123.300000 -1.994485
123.350000 -2.035596
123.400000 -2.025318
123.450000 -2.001337
123.500000 -1.932819
123.550000 -1.802635
123.600000 -1.648470
123.650000 -1.497731
123.700000 -1.309307
123.750000 -1.086625
123.800000 -0.874219
123.850000 -0.709776
123.900000 -0.569315
123.950000 -0.442557
124.000000 -0.343206
124.050000 -0.274688
124.100000 -0.230152
124.150000 -0.226726
124.200000 -0.240430
124.250000 -0.243855
124.300000 -0.250707
124.350000 -0.271263
124.400000 -0.295243
124.450000 -0.322651
124.500000 -0.346632
124.550000 -0.367187
124.600000 -0.415150
124.650000 -0.483668
124.700000 -0.524778
124.750000 -0.565889
124.800000 -0.654962
124.850000 -0.747461
124.900000 -0.802276
124.950000 -0.839960
125.000000 -0.887922
125.050000 -0.939311
125.100000 -0.963292
125.150000 -0.949588
125.200000 -0.911904
125.250000 -0.884497
125.300000 -0.867367
125.350000 -0.809127
125.400000 -0.730331
125.450000 -0.665240
125.500000 -0.613851
125.550000 -0.538481
125.600000 -0.480242
125.650000 -0.473390
125.700000 -0.459687
125.750000 -0.428853
125.800000 -0.439130
125.850000 -0.504223
125.900000 -0.559037
125.950000 -0.610425
126.000000 -0.709776
126.050000 -0.836534
126.100000 -0.939310
126.150000 -1.014681
126.200000 -1.083198
126.250000 -1.103754
126.300000 -1.059217
126.350000 -1.000977
126.400000 -0.935885
126.450000 -0.850238
126.500000 -0.761165
126.550000 -0.702924
126.600000 -0.661814
126.650000 -0.620703
126.700000 -0.603573
126.750000 -0.610426
126.800000 -0.634407
126.850000 -0.682369
126.900000 -0.730332
126.950000 -0.737183
127.000000 -0.706351
127.050000 -0.672091
127.100000 -0.658388
127.150000 -0.613852
127.200000 -0.521352
127.250000 -0.449408
127.300000 -0.425427
127.350000 -0.401446
127.400000 -0.398020
127.450000 -0.442557
127.500000 -0.490519
127.550000 -0.511075
127.600000 -0.538482
127.650000 -0.572741
127.700000 -0.589870
127.750000 -0.589870
127.800000 -0.583019
127.850000 -0.569315
127.900000 -0.559037
127.950000 -0.541908
128.000000 -0.511075
128.050000 -0.497371
128.100000 -0.535056
128.150000 -0.586444
128.200000 -0.634407
128.250000 -0.685795
128.300000 -0.744035
128.350000 -0.791997
128.400000 -0.819404
128.450000 -0.802275
128.500000 -0.754313
128.550000 -0.706350
128.600000 -0.661814
128.650000 -0.600148
128.700000 -0.528204
128.750000 -0.480242
128.800000 -0.442557
128.850000 -0.415150
128.900000 -0.411724
128.950000 -0.439130
129.000000 -0.476816
129.050000 -0.521352
129.100000 -0.583018
129.150000 -0.648110
129.200000 -0.716628
129.250000 -0.788571
129.300000 -0.846812
129.350000 -0.877645
129.400000 -0.894774
129.450000 -0.887922
129.500000 -0.843386
129.550000 -0.791997
129.600000 -0.747461
129.650000 -0.682369
129.700000 -0.603574
129.750000 -0.535056
129.800000 -0.480242
129.850000 -0.411723
129.900000 -0.380891
129.950000 -0.398020
130.000000 -0.432279
130.050000 -0.466538
130.100000 -0.504223
130.150000 -0.545333
130.200000 -0.603573
130.250000 -0.685795
130.300000 -0.720054
130.350000 -0.702924
130.400000 -0.706350
130.450000 -0.713202
130.500000 -0.651536
130.550000 -0.555611
130.600000 -0.497371
130.650000 -0.473389
130.700000 -0.459686
130.750000 -0.469964
130.800000 -0.507649
130.850000 -0.572741
130.900000 -0.668666
130.950000 -0.774868
131.000000 -0.857089
131.050000 -0.932459
131.100000 -1.024958
131.150000 -1.100328
131.200000 -1.138012
131.250000 -1.155142
131.300000 -1.127735
131.350000 -1.052365
131.400000 -0.994125
131.450000 -0.956440
131.500000 -0.898200
131.550000 -0.836535
131.600000 -0.836534
131.650000 -0.877645
131.700000 -0.922181
131.750000 -0.980421
131.800000 -1.090050
131.850000 -1.192826
131.900000 -1.247641
131.950000 -1.268196
132.000000 -1.271622
132.050000 -1.257918
132.100000 -1.227085
132.150000 -1.172271
132.200000 -1.079772
132.250000 -0.997551
132.300000 -0.946163
132.350000 -0.908478
132.400000 -0.867367
132.450000 -0.860515
132.500000 -0.870793
132.550000 -0.863941
132.600000 -0.850237
132.650000 -0.860516
132.700000 -0.870793
132.750000 -0.853663
132.800000 -0.846812
132.850000 -0.870793
132.900000 -0.898200
132.950000 -0.918756
133.000000 -0.929033
133.050000 -0.942736
133.100000 -0.956440
133.150000 -0.966718
133.200000 -0.966718
133.250000 -0.959866
133.300000 -0.935885
133.350000 -0.881071
133.400000 -0.836535
133.450000 -0.836534
133.500000 -0.833108
133.550000 -0.802275
133.600000 -0.785145
133.650000 -0.819405
133.700000 -0.877645
133.750000 -0.939310
133.800000 -1.011255
133.850000 -1.069495
133.900000 -1.100328
133.950000 -1.110605
134.000000 -1.086624
134.050000 -1.011254
134.100000 -0.935885
134.150000 -0.894774
134.200000 -0.843385
134.250000 -0.754312
134.300000 -0.672091
134.350000 -0.600147
134.400000 -0.511074
134.450000 -0.422001
134.500000 -0.360336
134.550000 -0.305521
134.600000 -0.271263
134.650000 -0.295244
134.700000 -0.356909
134.750000 -0.415150
134.800000 -0.493946
134.850000 -0.606999
134.900000 -0.733758
134.950000 -0.853663
135.000000 -0.976996
135.050000 -1.076347
135.100000 -1.144864
135.150000 -1.175697
135.200000 -1.172271
135.250000 -1.138012
135.300000 -1.066069
135.350000 -0.966718
135.400000 -0.860515
135.450000 -0.774868
135.500000 -0.692647
135.550000 -0.603573
135.600000 -0.555612
135.650000 -0.545333
135.700000 -0.514500
135.750000 -0.476816
135.800000 -0.490520
135.850000 -0.538482
135.900000 -0.559038
135.950000 -0.548760
136.000000 -0.569315
136.050000 -0.617278
136.100000 -0.637832
136.150000 -0.641258
136.200000 -0.661814
136.250000 -0.699499
136.300000 -0.737184
136.350000 -0.750887
136.400000 -0.774868
136.450000 -0.802275
136.500000 -0.812553
136.550000 -0.809127
136.600000 -0.822830
136.650000 -0.839960
136.700000 -0.863941
136.750000 -0.918756
136.800000 -0.987273
136.850000 -1.048939
136.900000 -1.093475
136.950000 -1.127735
137.000000 -1.161994
137.050000 -1.196252
137.100000 -1.220233
137.150000 -1.237364
137.200000 -1.223659
137.250000 -1.182549
137.300000 -1.114031
137.350000 -1.038661
137.400000 -0.922181
137.450000 -0.774868
137.500000 -0.617277
137.550000 -0.466538
137.600000 -0.315798
137.650000 -0.171912
137.700000 -0.072560
137.750000 -0.017746
137.800000 -0.014321
137.850000 -0.072561
137.900000 -0.195893
137.950000 -0.346631
138.000000 -0.517926
138.050000 -0.723480
138.100000 -0.939311
138.150000 -1.131160
138.200000 -1.285326
138.250000 -1.398380
138.300000 -1.456620
138.350000 -1.453195
138.400000 -1.405232
138.450000 -1.333289
138.500000 -1.227086
138.550000 -1.107180
138.600000 -1.018106
138.650000 -0.966718
138.700000 -0.918755
138.750000 -0.887922
138.800000 -0.901626
138.850000 -0.918756
138.900000 -0.911904
138.950000 -0.905052
139.000000 -0.901626
139.050000 -0.870793
139.100000 -0.791997
139.150000 -0.692647
139.200000 -0.603574
139.250000 -0.524778
139.300000 -0.473390
139.350000 -0.442557
139.400000 -0.439131
139.450000 -0.459686
139.500000 -0.511075
139.550000 -0.579593
139.600000 -0.665239
139.650000 -0.754313
139.700000 -0.826257
139.750000 -0.901626
139.800000 -0.987273
139.850000 -1.066068
139.900000 -1.093476
139.950000 -1.066069
140.000000 -1.048940
140.050000 -1.055791
140.100000 -1.045514
140.150000 -1.011254
140.200000 -0.997551
140.250000 -1.007828
140.300000 -1.042088
140.350000 -1.083198
140.400000 -1.131161
140.450000 -1.179123
140.500000 -1.230512
140.550000 -1.281900
140.600000 -1.336715
140.650000 -1.370973
140.700000 -1.381250
140.750000 -1.353843
140.800000 -1.302455
140.850000 -1.240789
140.900000 -1.155142
140.950000 -1.045514
141.000000 -0.925608
141.050000 -0.815979
141.100000 -0.744035
141.150000 -0.692647
141.200000 -0.661813
141.250000 -0.675517
141.300000 -0.733758
141.350000 -0.788572
141.400000 -0.822830
141.450000 -0.846811
141.500000 -0.867368
141.550000 -0.850238
141.600000 -0.791997
141.650000 -0.723480
141.700000 -0.654962
141.750000 -0.579593
141.800000 -0.517926
141.850000 -0.507648
141.900000 -0.541908
141.950000 -0.589870
142.000000 -0.648111
142.050000 -0.744035
142.100000 -0.850238
142.150000 -0.911904
142.200000 -0.946163
142.250000 -0.973570
142.300000 -0.973570
142.350000 -0.908478
142.400000 -0.778294
142.450000 -0.637833
142.500000 -0.500797
142.550000 -0.363761
142.600000 -0.250707
142.650000 -0.185615
142.700000 -0.151356
142.750000 -0.137653
142.800000 -0.161634
142.850000 -0.216448
142.900000 -0.267836
142.950000 -0.339780
143.000000 -0.435705
143.050000 -0.517926
143.100000 -0.596722
143.150000 -0.672091
143.200000 -0.730331
143.250000 -0.774869
143.300000 -0.822831
143.350000 -0.839960
143.400000 -0.846811
143.450000 -0.905052
143.500000 -0.966718
143.550000 -0.963292
143.600000 -0.963292
143.650000 -1.018107
143.700000 -1.059217
143.750000 -1.059217
143.800000 -1.076346
143.850000 -1.086624
143.900000 -1.042087
143.950000 -1.000977
144.000000 -0.983847
144.050000 -0.932459
144.100000 -0.846812
144.150000 -0.778294
144.200000 -0.733758
144.250000 -0.678944
144.300000 -0.634406
144.350000 -0.617277
144.400000 -0.617277
144.450000 -0.634407
144.500000 -0.678943
144.550000 -0.716628
144.600000 -0.723479
144.650000 -0.726906
144.700000 -0.740609
144.750000 -0.737183
144.800000 -0.737183
144.850000 -0.744035
144.900000 -0.744035
144.950000 -0.733757
145.000000 -0.733757
145.050000 -0.709776
145.100000 -0.654962
145.150000 -0.641259
145.200000 -0.668666
145.250000 -0.678943
145.300000 -0.682369
145.350000 -0.723480
145.400000 -0.768016
145.450000 -0.788572
145.500000 -0.795424
145.550000 -0.802275
145.600000 -0.819405
145.650000 -0.870793
145.700000 -0.915330
145.750000 -0.915329
145.800000 -0.887922
145.850000 -0.901626
145.900000 -0.935885
145.950000 -0.935885
146.000000 -0.894774
146.050000 -0.870793
146.100000 -0.870793
146.150000 -0.839960
146.200000 -0.757739
146.250000 -0.675517
146.300000 -0.627555
146.350000 -0.565889
146.400000 -0.490520
146.450000 -0.445982
146.500000 -0.452835
146.550000 -0.480242
146.600000 -0.504223
146.650000 -0.545333
146.700000 -0.641258
146.750000 -0.754313
146.800000 -0.843386
146.850000 -0.918756
146.900000 -1.004402
146.950000 -1.072920
147.000000 -1.083198
147.050000 -1.059217
147.100000 -1.018106
147.150000 -0.966718
147.200000 -0.898201
147.250000 -0.815979
147.300000 -0.716628
147.350000 -0.617277
147.400000 -0.538482
147.450000 -0.493945
147.500000 -0.463112
147.550000 -0.425427
147.600000 -0.425428
147.650000 -0.469964
147.700000 -0.511075
147.750000 -0.541908
147.800000 -0.593296
147.850000 -0.651536
147.900000 -0.682369
147.950000 -0.682369
148.000000 -0.661814
148.050000 -0.613851
148.100000 -0.565889
148.150000 -0.511075
148.200000 -0.445982
148.250000 -0.408298
148.300000 -0.425427
148.350000 -0.445982
148.400000 -0.483668
148.450000 -0.610425
148.500000 -0.791998
148.550000 -0.949589
148.600000 -1.107179
148.650000 -1.295603
148.700000 -1.456620
148.750000 -1.566249
148.800000 -1.631341
148.850000 -1.638193
148.900000 -1.573100
148.950000 -1.456620
149.000000 -1.292177
149.050000 -1.076346
149.100000 -0.836534
149.150000 -0.596722
149.200000 -0.380891
149.250000 -0.209596
149.300000 -0.079413
149.350000 -0.004042
149.400000 -0.007469
149.450000 -0.093116
149.500000 -0.240429
149.550000 -0.428853
149.600000 -0.624129
149.650000 -0.788572
149.700000 -0.922181
149.750000 -1.038662
149.800000 -1.120883
149.850000 -1.127734
149.900000 -1.083198
149.950000 -1.021532
150.000000 -0.956441
150.050000 -0.884497
150.100000 -0.812553
150.150000 -0.737183
150.200000 -0.702925
150.250000 -0.720054
150.300000 -0.754312
150.350000 -0.791998
150.400000 -0.833108
150.450000 -0.870793
150.500000 -0.898200
150.550000 -0.915330
150.600000 -0.939311
150.650000 -0.976996
150.700000 -1.042088
150.750000 -1.100328
150.800000 -1.107179
150.850000 -1.114031
150.900000 -1.148290
150.950000 -1.158568
151.000000 -1.114031
151.050000 -1.079772
151.100000 -1.038661
151.150000 -0.946162
151.200000 -0.822831
151.250000 -0.706350
151.300000 -0.565888
151.350000 -0.442557
151.400000 -0.380891
151.450000 -0.353484
151.500000 -0.332928
151.550000 -0.367187
151.600000 -0.456260
151.650000 -0.538481
151.700000 -0.624129
151.750000 -0.757738
151.800000 -0.884496
151.850000 -0.980421
151.900000 -1.052365
151.950000 -1.086624
152.000000 -1.083198
152.050000 -1.076347
152.100000 -1.052365
152.150000 -0.980421
152.200000 -0.918756
152.250000 -0.891348
152.300000 -0.867367
152.350000 -0.874218
152.400000 -0.901626
152.450000 -0.918755
152.500000 -0.939311
152.550000 -0.980422
152.600000 -1.021532
152.650000 -1.028384
152.700000 -1.000977
152.750000 -0.949588
152.800000 -0.881071
152.850000 -0.815979
152.900000 -0.747461
152.950000 -0.665239
153.000000 -0.613851
153.050000 -0.596721
153.100000 -0.600148
153.150000 -0.620703
153.200000 -0.675518
153.250000 -0.750887
153.300000 -0.826257
153.350000 -0.867367
153.400000 -0.850238
153.450000 -0.802275
153.500000 -0.737183
153.550000 -0.641258
153.600000 -0.511075
153.650000 -0.384317
153.700000 -0.274689
153.750000 -0.161634
153.800000 -0.082838
153.850000 -0.072560
153.900000 -0.113672
153.950000 -0.182189
154.000000 -0.312373
154.050000 -0.500797
154.100000 -0.699498
154.150000 -0.870793
154.200000 -1.031810
154.250000 -1.185975
154.300000 -1.302455
154.350000 -1.360695
154.400000 -1.381250
154.450000 -1.350418
154.500000 -1.268197
154.550000 -1.161994
154.600000 -1.062643
154.650000 -0.970144
154.700000 -0.863942
154.750000 -0.778294
154.800000 -0.744035
154.850000 -0.761165
154.900000 -0.802275
154.950000 -0.846811
155.000000 -0.901626
155.050000 -0.973569
155.100000 -1.045513
155.150000 -1.079772
155.200000 -1.069495
155.250000 -1.035236
155.300000 -0.966718
155.350000 -0.867368
155.400000 -0.754313
155.450000 -0.665240
155.500000 -0.583018
155.550000 -0.517926
155.600000 -0.514501
155.650000 -0.559037
155.700000 -0.630981
155.750000 -0.733758
155.800000 -0.853664
155.850000 -0.980421
155.900000 -1.114031
155.950000 -1.240789
156.000000 -1.326436
156.050000 -1.384677
156.100000 -1.425787
156.150000 -1.408658
156.200000 -1.367547
156.250000 -1.346991
156.300000 -1.305881
156.350000 -1.209956
156.400000 -1.134587
156.450000 -1.117457
156.500000 -1.076347
156.550000 -1.011254
156.600000 -0.973570
156.650000 -0.959866
156.700000 -0.929033
156.750000 -0.877644
156.800000 -0.839960
156.850000 -0.819405
156.900000 -0.795423
156.950000 -0.754313
157.000000 -0.720054
157.050000 -0.723480
157.100000 -0.740609
157.150000 -0.737184
157.200000 -0.740610
157.250000 -0.774868
157.300000 -0.815979
157.350000 -0.846812
157.400000 -0.870793
157.450000 -0.874219
157.500000 -0.887923
157.550000 -0.908478
157.600000 -0.911904
157.650000 -0.911904
157.700000 -0.932459
157.750000 -0.953014
157.800000 -0.970143
157.850000 -1.024958
157.900000 -1.079773
157.950000 -1.093476
158.000000 -1.076347
158.050000 -1.072921
158.100000 -1.069494
158.150000 -1.035236
158.200000 -0.976996
158.250000 -0.922181
158.300000 -0.867367
158.350000 -0.812553
158.400000 -0.768016
158.450000 -0.737183
158.500000 -0.706350
158.550000 -0.675517
158.600000 -0.699499
158.650000 -0.737183
158.700000 -0.730332
158.750000 -0.699498
158.800000 -0.682369
158.850000 -0.672091
158.900000 -0.651536
158.950000 -0.648110
159.000000 -0.641258
159.050000 -0.627555
159.100000 -0.651537
159.150000 -0.692647
159.200000 -0.726906
159.250000 -0.778294
159.300000 -0.853664
159.350000 -0.905052
159.400000 -0.935885
159.450000 -0.980421
159.500000 -1.014680
159.550000 -1.028384
159.600000 -1.048940
159.650000 -1.093476
159.700000 -1.127735
159.750000 -1.134587
159.800000 -1.148290
159.850000 -1.161994
159.900000 -1.172272
159.950000 -1.192827
160.000000 -1.230512
160.050000 -1.240789
160.100000 -1.227085
160.150000 -1.189401
160.200000 -1.131161
160.250000 -1.069494
160.300000 -1.004403
160.350000 -0.898201
160.400000 -0.795423
160.450000 -0.737184
160.500000 -0.692647
160.550000 -0.620703
160.600000 -0.572740
160.650000 -0.555611
160.700000 -0.517927
160.750000 -0.466537
160.800000 -0.445983
160.850000 -0.435705
160.900000 -0.404872
160.950000 -0.384317
161.000000 -0.391169
161.050000 -0.401446
161.100000 -0.401446
161.150000 -0.411724
161.200000 -0.459686
161.250000 -0.528204
161.300000 -0.565889
161.350000 -0.559037
161.400000 -0.583018
161.450000 -0.651536
161.500000 -0.696072
161.550000 -0.716628
161.600000 -0.747461
161.650000 -0.788571
161.700000 -0.802275
161.750000 -0.781720
161.800000 -0.750887
161.850000 -0.723479
161.900000 -0.682369
161.950000 -0.613851
162.000000 -0.528204
162.050000 -0.463113
162.100000 -0.425427
162.150000 -0.408298
162.200000 -0.411724
162.250000 -0.469964
162.300000 -0.589870
162.350000 -0.723480
162.400000 -0.836534
162.450000 -0.949588
162.500000 -1.086624
162.550000 -1.199678
162.600000 -1.251067
162.650000 -1.285326
162.700000 -1.295604
162.750000 -1.220233
162.800000 -1.114031
162.850000 -1.042087
162.900000 -0.970144
162.950000 -0.860515
163.000000 -0.791998
163.050000 -0.768016
163.100000 -0.740609
163.150000 -0.737183
163.200000 -0.771442
163.250000 -0.785145
163.300000 -0.795424
163.350000 -0.850237
163.400000 -0.901626
163.450000 -0.894774
163.500000 -0.860515
163.550000 -0.843386
163.600000 -0.826256
163.650000 -0.812553
163.700000 -0.826256
163.750000 -0.843386
163.800000 -0.874219
163.850000 -0.935885
163.900000 -0.987274
163.950000 -1.014680
164.000000 -1.052365
164.050000 -1.079772
164.100000 -1.048939
164.150000 -1.007829
164.200000 -0.976996
164.250000 -0.908478
164.300000 -0.826257
164.350000 -0.802275
164.400000 -0.802275
164.450000 -0.768016
164.500000 -0.761165
164.550000 -0.802275
164.600000 -0.839960
164.650000 -0.881070
164.700000 -0.925608
164.750000 -0.953014
164.800000 -0.966718
164.850000 -0.976995
164.900000 -0.956441
164.950000 -0.935885
165.000000 -0.939311
165.050000 -0.935885
165.100000 -0.905052
165.150000 -0.894774
165.200000 -0.911903
165.250000 -0.905052
165.300000 -0.870793
165.350000 -0.860515
165.400000 -0.877645
165.450000 -0.901626
165.500000 -0.915330
165.550000 -0.915329
165.600000 -0.925607
165.650000 -0.953015
165.700000 -0.983847
165.750000 -1.018106
165.800000 -1.048939
165.850000 -1.069495
165.900000 -1.114032
165.950000 -1.168846
166.000000 -1.192827
166.050000 -1.206530
166.100000 -1.237363
166.150000 -1.244215
166.200000 -1.196252
166.250000 -1.131160
166.300000 -1.052365
166.350000 -0.929033
166.400000 -0.785146
166.450000 -0.651537
166.500000 -0.504223
166.550000 -0.343205
166.600000 -0.192467
166.650000 -0.058857
166.700000 0.040494
166.750000 0.088456
166.800000 0.119289
166.850000 0.132993
166.900000 0.091882
166.950000 0.013086
167.000000 -0.065709
167.050000 -0.161634
167.100000 -0.271263
167.150000 -0.360336
167.200000 -0.425427
167.250000 -0.480242
167.300000 -0.511074
167.350000 -0.514500
167.400000 -0.535056
167.450000 -0.555611
167.500000 -0.559037
167.550000 -0.552185
167.600000 -0.555612
167.650000 -0.572741
167.700000 -0.583019
167.750000 -0.586444
167.800000 -0.593296
167.850000 -0.624129
167.900000 -0.668665
167.950000 -0.692647
168.000000 -0.726906
168.050000 -0.785145
168.100000 -0.829682
168.150000 -0.863941
168.200000 -0.908478
168.250000 -0.973570
168.300000 -1.028384
168.350000 -1.072920
168.400000 -1.100328
168.450000 -1.107179
168.500000 -1.096901
168.550000 -1.066069
168.600000 -1.000977
168.650000 -0.925608
168.700000 -0.843386
168.750000 -0.750887
168.800000 -0.654962
168.850000 -0.569315
168.900000 -0.507649
168.950000 -0.476816
169.000000 -0.456260
169.050000 -0.432279
169.100000 -0.445982
169.150000 -0.507649
169.200000 -0.572740
169.250000 -0.603573
169.300000 -0.634407
169.350000 -0.685795
169.400000 -0.716628
169.450000 -0.723480
169.500000 -0.723480
169.550000 -0.692647
169.600000 -0.627555
169.650000 -0.559037
169.700000 -0.490520
169.750000 -0.401446
169.800000 -0.312373
169.850000 -0.254133
169.900000 -0.216448
169.950000 -0.185615
170.000000 -0.202744
170.050000 -0.264411
170.100000 -0.367187
170.150000 -0.487093
170.200000 -0.610425
170.250000 -0.737184
170.300000 -0.843385
170.350000 -0.898200
170.400000 -0.932459
170.450000 -0.983848
170.500000 -1.004403
170.550000 -0.959866
170.600000 -0.911903
170.650000 -0.881071
170.700000 -0.798849
170.750000 -0.726906
170.800000 -0.744035
170.850000 -0.791998
170.900000 -0.798849
170.950000 -0.843386
171.000000 -0.925607
171.050000 -0.973570
171.100000 -1.007829
171.150000 -1.069495
171.200000 -1.110606
171.250000 -1.124309
171.300000 -1.144865
171.350000 -1.151716
171.400000 -1.148290
171.450000 -1.185975
171.500000 -1.223660
171.550000 -1.216808
171.600000 -1.223660
171.650000 -1.281899
171.700000 -1.333288
171.750000 -1.377825
171.800000 -1.456620
171.850000 -1.535416
171.900000 -1.566249
171.950000 -1.566248
172.000000 -1.555971
172.050000 -1.508008
172.100000 -1.432639
172.150000 -1.323010
172.200000 -1.179123
172.250000 -1.024958
172.300000 -0.881070
172.350000 -0.737183
172.400000 -0.603573
172.450000 -0.535056
172.500000 -0.511075
172.550000 -0.490519
172.600000 -0.497371
172.650000 -0.552186
172.700000 -0.620703
172.750000 -0.685795
172.800000 -0.774868
172.850000 -0.853663
172.900000 -0.884496
172.950000 -0.881071
173.000000 -0.874219
173.050000 -0.853664
173.100000 -0.798849
173.150000 -0.730332
173.200000 -0.685795
173.250000 -0.672091
173.300000 -0.665239
173.350000 -0.648110
173.400000 -0.644684
173.450000 -0.654962
173.500000 -0.651536
173.550000 -0.627555
173.600000 -0.613851
173.650000 -0.617277
173.700000 -0.617277
173.750000 -0.596722
173.800000 -0.589870
173.850000 -0.620703
173.900000 -0.668666
173.950000 -0.702924
174.000000 -0.733757
174.050000 -0.774868
174.100000 -0.812553
174.150000 -0.822831
174.200000 -0.815979
174.250000 -0.809127
174.300000 -0.781720
174.350000 -0.757739
174.400000 -0.761165
174.450000 -0.778294
174.500000 -0.785146
174.550000 -0.788571
174.600000 -0.798849
174.650000 -0.812552
174.700000 -0.836534
174.750000 -0.853664
174.800000 -0.850238
174.850000 -0.833108
174.900000 -0.815979
174.950000 -0.805702
175.000000 -0.788571
175.050000 -0.768016
175.100000 -0.774868
175.150000 -0.839960
175.200000 -0.929033
175.250000 -1.014680
175.300000 -1.103754
175.350000 -1.199678
175.400000 -1.305881
175.450000 -1.412083
175.500000 -1.473749
175.550000 -1.449768
175.600000 -1.377825
175.650000 -1.309307
175.700000 -1.244215
175.750000 -1.161993
175.800000 -1.079773
175.850000 -1.021532
175.900000 -0.980422
175.950000 -0.966718
176.000000 -0.983848
176.050000 -1.018107
176.100000 -1.028384
176.150000 -1.021532
176.200000 -1.021532
176.250000 -1.007829
176.300000 -0.942737
176.350000 -0.826256
176.400000 -0.689221
176.450000 -0.572741
176.500000 -0.483668
176.550000 -0.391169
176.600000 -0.302095
176.650000 -0.257559
176.700000 -0.274688
176.750000 -0.312373
176.800000 -0.356909
176.850000 -0.418576
176.900000 -0.476815
176.950000 -0.514500
177.000000 -0.548759
177.050000 -0.565889
177.100000 -0.524778
177.150000 -0.459686
177.200000 -0.411724
177.250000 -0.370613
177.300000 -0.312373
177.350000 -0.257559
177.400000 -0.209597
177.450000 -0.182189
177.500000 -0.165059
177.550000 -0.144505
177.600000 -0.144505
177.650000 -0.182189
177.700000 -0.237003
177.750000 -0.291817
177.800000 -0.387742
177.850000 -0.493946
177.900000 -0.593296
177.950000 -0.692646
178.000000 -0.798849
178.050000 -0.891348
178.100000 -0.953015
178.150000 -0.990699
178.200000 -1.014680
178.250000 -1.021532
178.300000 -0.994125
178.350000 -0.963292
178.400000 -0.953014
178.450000 -0.949589
178.500000 -0.915330
178.550000 -0.867367
178.600000 -0.833109
178.650000 -0.809127
178.700000 -0.781719
178.750000 -0.750887
178.800000 -0.709776
178.850000 -0.668666
178.900000 -0.620703
178.950000 -0.569314
179.000000 -0.531630
179.050000 -0.531630
179.100000 -0.538482
179.150000 -0.559037
179.200000 -0.627555
179.250000 -0.740609
179.300000 -0.863942
179.350000 -0.970144
179.400000 -1.038662
179.450000 -1.066069
179.500000 -1.066069
179.550000 -1.024958
179.600000 -0.939311
179.650000 -0.850238
179.700000 -0.757739
179.750000 -0.648110
179.800000 -0.565888
179.850000 -0.538482
179.900000 -0.535055
179.950000 -0.572741
180.000000 -0.713202
180.050000 -0.911903
180.100000 -1.083199
180.150000 -1.251067
180.200000 -1.432639
180.250000 -1.579952
180.300000 -1.634766
180.350000 -1.624489
180.400000 -1.590230
180.450000 -1.538842
180.500000 -1.442917
180.550000 -1.299030
180.600000 -1.182549
180.650000 -1.117457
180.700000 -1.072921
180.750000 -1.014681
180.800000 -0.994125
180.850000 -1.035236
180.900000 -1.076346
180.950000 -1.066069
181.000000 -1.035236
181.050000 -1.024958
181.100000 -1.007829
181.150000 -0.953014
181.200000 -0.887922
181.250000 -0.850238
181.300000 -0.812553
181.350000 -0.757738
181.400000 -0.723480
181.450000 -0.730331
181.500000 -0.730332
181.550000 -0.706351
181.600000 -0.702925
181.650000 -0.720054
181.700000 -0.699499
181.750000 -0.627555
181.800000 -0.565889
181.850000 -0.531630
181.900000 -0.480241
181.950000 -0.404872
182.000000 -0.363761
182.050000 -0.363761
182.100000 -0.367187
182.150000 -0.374039
182.200000 -0.415150
182.250000 -0.497371
182.300000 -0.589870
182.350000 -0.678943
182.400000 -0.771442
182.450000 -0.870793
182.500000 -0.980422
182.550000 -1.076346
182.600000 -1.148290
182.650000 -1.203105
182.700000 -1.220234
182.750000 -1.203105
182.800000 -1.179124
182.850000 -1.144865
182.900000 -1.059217
182.950000 -0.946163
183.000000 -0.846812
183.050000 -0.778294
183.100000 -0.737184
183.150000 -0.723480
183.200000 -0.723480
183.250000 -0.720054
183.300000 -0.723480
183.350000 -0.733758
183.400000 -0.726905
183.450000 -0.689221
183.500000 -0.641258
183.550000 -0.596722
183.600000 -0.555611
183.650000 -0.517926
183.700000 -0.473390
183.750000 -0.428853
183.800000 -0.415149
183.850000 -0.452834
183.900000 -0.521352
183.950000 -0.600148
184.000000 -0.702924
184.050000 -0.812553
184.100000 -0.881071
184.150000 -0.932459
184.200000 -0.987274
184.250000 -1.004403
184.300000 -0.953015
184.350000 -0.881070
184.400000 -0.812553
184.450000 -0.723480
184.500000 -0.624129
184.550000 -0.538482
184.600000 -0.476815
184.650000 -0.445983
184.700000 -0.459686
184.750000 -0.504223
184.800000 -0.555611
184.850000 -0.603573
184.900000 -0.661813
184.950000 -0.713203
185.000000 -0.754313
185.050000 -0.781720
185.100000 -0.795423
185.150000 -0.791997
185.200000 -0.798850
185.250000 -0.805701
185.300000 -0.805701
185.350000 -0.833108
185.400000 -0.908478
185.450000 -0.994125
185.500000 -1.062643
185.550000 -1.124309
185.600000 -1.192826
185.650000 -1.237363
185.700000 -1.216808
185.750000 -1.158568
185.800000 -1.103753
185.850000 -1.045513
185.900000 -0.935885
185.950000 -0.822831
186.000000 -0.757739
186.050000 -0.713202
186.100000 -0.658388
186.150000 -0.658388
186.200000 -0.723480
186.250000 -0.795423
186.300000 -0.863942
186.350000 -0.953014
186.400000 -1.011254
186.450000 -1.004403
186.500000 -0.973570
186.550000 -0.942737
186.600000 -0.887923
186.650000 -0.819405
186.700000 -0.754312
186.750000 -0.685795
186.800000 -0.654962
186.850000 -0.682369
186.900000 -0.737183
186.950000 -0.815978
187.000000 -0.929033
187.050000 -1.038662
187.100000 -1.127735
187.150000 -1.199679
187.200000 -1.233938
187.250000 -1.213382
187.300000 -1.158567
187.350000 -1.062643
187.400000 -0.932459
187.450000 -0.791998
187.500000 -0.644684
187.550000 -0.487094
187.600000 -0.353484
187.650000 -0.260985
187.700000 -0.178763
187.750000 -0.106819
187.800000 -0.086264
187.850000 -0.110246
187.900000 -0.161633
187.950000 -0.237003
188.000000 -0.308947
188.050000 -0.353484
188.100000 -0.384316
188.150000 -0.411724
188.200000 -0.415149
188.250000 -0.404872
188.300000 -0.394594
188.350000 -0.377465
188.400000 -0.380891
188.450000 -0.452834
188.500000 -0.579592
188.550000 -0.720054
188.600000 -0.867367
188.650000 -1.052365
188.700000 -1.247641
188.750000 -1.401806
188.800000 -1.521712
