fit_time[ns] Functional_fit[mV] Thermal_fit[mV]
3.700000 26.149524 25.286121
3.750000 25.802733 24.781770
3.800000 25.440492 24.287356
3.850000 25.059720 23.802671
3.900000 24.658029 23.327513
3.950000 24.233772 22.861687
4.000000 23.786067 22.404997
4.050000 23.314807 21.957256
4.100000 22.820652 21.518279
4.150000 22.305002 21.087886
4.200000 21.769952 20.665900
4.250000 21.218235 20.252149
4.300000 20.653146 19.846464
4.350000 20.078453 19.448679
4.400000 19.498306 19.058634
4.450000 18.917129 18.676171
4.500000 18.339510 18.301135
4.550000 17.770089 17.933375
4.600000 17.213444 17.572743
4.650000 16.673981 17.219095
4.700000 16.155829 16.872288
4.750000 15.662743 16.532186
4.800000 15.198012 16.198652
4.850000 14.764390 15.871553
4.900000 14.364024 15.550761
4.950000 13.998413 15.236148
5.000000 13.668374 14.927589
5.050000 13.374024 14.624965
5.100000 13.114781 14.328154
5.150000 12.889384 14.037042
5.200000 12.695923 13.751513
5.250000 12.531888 13.471458
5.300000 12.394230 13.196765
5.350000 12.279436 12.927329
5.400000 12.183613 12.663045
5.450000 12.102579 12.403810
5.500000 12.031963 12.149524
5.550000 11.967305 11.900089
5.600000 11.904162 11.655409
5.650000 11.838206 11.415389
5.700000 11.765326 11.179938
5.750000 11.681720 10.948965
5.800000 11.583974 10.722383
5.850000 11.469146 10.500103
5.900000 11.334820 10.282042
5.950000 11.179161 10.068117
6.000000 11.000949 9.858247
6.050000 10.799600 9.652351
6.100000 10.575173 9.450352
6.150000 10.328362 9.252173
6.200000 10.060470 9.057741
6.250000 9.773370 8.866981
6.300000 9.469458 8.679821
6.350000 9.151590 8.496193
6.400000 8.823005 8.316026
6.450000 8.487247 8.139253
6.500000 8.148078 7.965808
6.550000 7.809385 7.795627
6.600000 7.475084 7.628646
6.650000 7.149032 7.464803
6.700000 6.834930 7.304037
6.750000 6.536238 7.146289
6.800000 6.256095 6.991499
6.850000 5.997246 6.839612
6.900000 5.761981 6.690570
6.950000 5.552082 6.544319
7.000000 5.368788 6.400805
7.050000 5.212764 6.259976
7.100000 5.084093 6.121778
7.150000 4.982281 5.986163
7.200000 4.906264 5.853080
7.250000 4.854445 5.722480
7.300000 4.824731 5.594317
7.350000 4.814588 5.468542
7.400000 4.821101 5.345111
7.450000 4.841045 5.223978
7.500000 4.870964 5.105100
7.550000 4.907252 4.988432
7.600000 4.946239 4.873934
7.650000 4.984275 4.761564
7.700000 5.017817 4.651280
7.750000 5.043507 4.543044
7.800000 5.058251 4.436816
7.850000 5.059288 4.332558
7.900000 5.044248 4.230232
7.950000 5.011209 4.129802
8.000000 4.958730 4.031231
8.050000 4.885887 3.934485
8.100000 4.792283 3.839529
8.150000 4.678055 3.746328
8.200000 4.543866 3.654850
8.250000 4.390879 3.565062
8.300000 4.220731 3.476931
8.350000 4.035486 3.390427
8.400000 3.837582 3.305519
8.450000 3.629768 3.222177
8.500000 3.415042 3.140370
8.550000 3.196570 3.060071
8.600000 2.977616 2.981250
8.650000 2.761458 2.903880
8.700000 2.551316 2.827933
8.750000 2.350272 2.753383
8.800000 2.161200 2.680203
8.850000 1.986699 2.608368
8.900000 1.829036 2.537852
8.950000 1.690092 2.468631
9.000000 1.571324 2.400680
9.050000 1.473729 2.333975
9.100000 1.397830 2.268494
9.150000 1.343666 2.204213
9.200000 1.310791 2.141109
9.250000 1.298293 2.079161
9.300000 1.304815 2.018347
9.350000 1.328596 1.958645
9.400000 1.367510 1.900036
9.450000 1.419119 1.842499
9.500000 1.480737 1.786013
9.550000 1.549492 1.730559
9.600000 1.622393 1.676117
9.650000 1.696403 1.622670
9.700000 1.768511 1.570198
9.750000 1.835800 1.518683
9.800000 1.895514 1.468108
9.850000 1.945124 1.418454
9.900000 1.982381 1.369705
9.950000 2.005369 1.321845
10.000000 2.012545 1.274855
10.050000 2.002770 1.228722
10.100000 1.975335 1.183427
10.150000 1.929972 1.138956
10.200000 1.866856 1.095294
10.250000 1.786595 1.052426
10.300000 1.690213 1.010336
10.350000 1.579123 0.969011
10.400000 1.455088 0.928437
10.450000 1.320177 0.888599
10.500000 1.176711 0.849483
10.550000 1.027212 0.811078
10.600000 0.874335 0.773368
10.650000 0.720807 0.736342
10.700000 0.569363 0.699988
10.750000 0.422679 0.664291
10.800000 0.283313 0.629242
10.850000 0.153640 0.594826
10.900000 0.035806 0.561034
10.950000 -0.068331 0.527853
11.000000 -0.157233 0.495272
11.050000 -0.229721 0.463280
11.100000 -0.284997 0.431866
11.150000 -0.322661 0.401020
11.200000 -0.342717 0.370731
11.250000 -0.345569 0.340989
11.300000 -0.332008 0.311784
11.350000 -0.303190 0.283107
11.400000 -0.260609 0.254946
11.450000 -0.206052 0.227293
11.500000 -0.141563 0.200139
11.550000 -0.069387 0.173475
11.600000 0.008081 0.147291
11.650000 0.088357 0.121579
11.700000 0.168923 0.096329
11.750000 0.247287 0.071535
11.800000 0.321043 0.047186
11.850000 0.387925 0.023276
11.900000 0.445860 -0.000204
11.950000 0.493013 -0.023262
12.000000 0.527828 -0.045905
12.050000 0.549064 -0.068141
12.100000 0.555819 -0.089978
12.150000 0.547547 -0.111422
12.200000 0.524072 -0.132482
12.250000 0.485584 -0.153163
12.300000 0.432631 -0.173473
12.350000 0.366107 -0.193418
12.400000 0.287224 -0.213006
12.450000 0.197483 -0.232242
12.500000 0.098632 -0.251134
12.550000 -0.007372 -0.269687
12.600000 -0.118415 -0.287907
12.650000 -0.232276 -0.305801
12.700000 -0.346679 -0.323374
12.750000 -0.459348 -0.340633
12.800000 -0.568064 -0.357582
12.850000 -0.670709 -0.374229
12.900000 -0.765322 -0.390577
12.950000 -0.850141 -0.406633
13.000000 -0.923642 -0.422402
13.050000 -0.984574 -0.437889
13.100000 -1.031986 -0.453099
13.150000 -1.065247 -0.468037
13.200000 -1.084055 -0.482708
13.250000 -1.088447 -0.497117
13.300000 -1.078789 -0.511269
13.350000 -1.055769 -0.525168
13.400000 -1.020377 -0.538819
13.450000 -0.973876 -0.552227
13.500000 -0.917777 -0.565395
13.550000 -0.853794 -0.578328
13.600000 -0.783804 -0.591031
13.650000 -0.709807 -0.603507
13.700000 -0.633870 -0.615761
13.750000 -0.558082 -0.627796
13.800000 -0.484507 -0.639617
13.850000 -0.415131 -0.651228
13.900000 -0.351820 -0.662631
13.950000 -0.296274 -0.673832
14.000000 -0.249994 -0.684833
14.050000 -0.214241 -0.695638
14.100000 -0.190017 -0.706252
14.150000 -0.178036 -0.716676
14.200000 -0.178717 -0.726915
14.250000 -0.192172 -0.736972
14.300000 -0.218208 -0.746850
14.350000 -0.256333 -0.756552
14.400000 -0.305773 -0.766082
14.450000 -0.365492 -0.775443
14.500000 -0.434215 -0.784637
14.550000 -0.510466 -0.793668
14.600000 -0.592601 -0.802539
14.650000 -0.678848 -0.811253
14.700000 -0.767350 -0.819811
14.750000 -0.856214 -0.828218
14.800000 -0.943547 -0.836476
14.850000 -1.027508 -0.844587
14.900000 -1.106349 -0.852554
14.950000 -1.178453 -0.860380
15.000000 -1.242373 -0.868068
15.050000 -1.296863 -0.875619
15.100000 -1.340907 -0.883036
15.150000 -1.373742 -0.890322
15.200000 -1.394868 -0.897479
15.250000 -1.404065 -0.904509
15.300000 -1.401391 -0.911414
15.350000 -1.387177 -0.918198
15.400000 -1.362022 -0.924861
15.450000 -1.326773 -0.931406
15.500000 -1.282501 -0.937836
15.550000 -1.230481 -0.944152
15.600000 -1.172152 -0.950356
15.650000 -1.109087 -0.956450
15.700000 -1.042953 -0.962437
15.750000 -0.975471 -0.968318
15.800000 -0.908378 -0.974095
15.850000 -0.843381 -0.979769
15.900000 -0.782122 -0.985344
15.950000 -0.726136 -0.990820
16.000000 -0.676821 -0.996200
16.050000 -0.635400 -1.001484
16.100000 -0.602901 -1.006675
16.150000 -0.580128 -1.011775
16.200000 -0.567650 -1.016784
16.250000 -0.565785 -1.021705
16.300000 -0.574597 -1.026540
16.350000 -0.593899 -1.031289
16.400000 -0.623254 -1.035954
16.450000 -0.661993 -1.040537
16.500000 -0.709232 -1.045039
16.550000 -0.763890 -1.049462
16.600000 -0.824722 -1.053807
16.650000 -0.890348 -1.058075
16.700000 -0.959284 -1.062269
16.750000 -1.029981 -1.066388
16.800000 -1.100862 -1.070435
16.850000 -1.170356 -1.074410
16.900000 -1.236938 -1.078316
16.950000 -1.299163 -1.082152
17.000000 -1.355701 -1.085922
17.050000 -1.405364 -1.089625
17.100000 -1.447137 -1.093262
17.150000 -1.480194 -1.096836
17.200000 -1.503924 -1.100347
17.250000 -1.517935 -1.103796
17.300000 -1.522068 -1.107185
17.350000 -1.516394 -1.110514
17.400000 -1.501215 -1.113784
17.450000 -1.477049 -1.116997
17.500000 -1.444619 -1.120154
17.550000 -1.404837 -1.123255
17.600000 -1.358776 -1.126301
17.650000 -1.307646 -1.129294
17.700000 -1.252762 -1.132235
17.750000 -1.195518 -1.135124
17.800000 -1.137346 -1.137962
17.850000 -1.079688 -1.140750
17.900000 -1.023958 -1.143490
17.950000 -0.971513 -1.146181
18.000000 -0.923616 -1.148825
18.050000 -0.881416 -1.151423
18.100000 -0.845911 -1.153975
18.150000 -0.817937 -1.156483
18.200000 -0.798140 -1.158946
18.250000 -0.786971 -1.161366
18.300000 -0.784672 -1.163744
18.350000 -0.791272 -1.166080
18.400000 -0.806592 -1.168376
18.450000 -0.830248 -1.170631
18.500000 -0.861663 -1.172846
18.550000 -0.900082 -1.175023
18.600000 -0.944591 -1.177162
18.650000 -0.994142 -1.179263
18.700000 -1.047575 -1.181327
18.750000 -1.103650 -1.183355
18.800000 -1.161074 -1.185348
18.850000 -1.218535 -1.187306
18.900000 -1.274728 -1.189229
18.950000 -1.328393 -1.191119
19.000000 -1.378336 -1.192976
19.050000 -1.423462 -1.194800
19.100000 -1.462799 -1.196593
19.150000 -1.495517 -1.198354
19.200000 -1.520949 -1.200084
19.250000 -1.538605 -1.201784
19.300000 -1.548181 -1.203455
19.350000 -1.549563 -1.205096
19.400000 -1.542831 -1.206708
19.450000 -1.528256 -1.208293
19.500000 -1.506287 -1.209849
19.550000 -1.477543 -1.211379
19.600000 -1.442796 -1.212881
19.650000 -1.402951 -1.214358
19.700000 -1.359025 -1.215808
19.750000 -1.312119 -1.217234
19.800000 -1.263396 -1.218634
19.850000 -1.214049 -1.220010
19.900000 -1.165273 -1.221362
19.950000 -1.118242 -1.222691
20.000000 -1.074075 -1.223996
20.050000 -1.033814 -1.225278
20.100000 -0.998399 -1.226538
20.150000 -0.968648 -1.227777
20.200000 -0.945238 -1.228993
20.250000 -0.928689 -1.230188
20.300000 -0.919358 -1.231363
20.350000 -0.917425 -1.232517
20.400000 -0.922898 -1.233651
20.450000 -0.935606 -1.234765
20.500000 -0.955215 -1.235859
20.550000 -0.981226 -1.236935
20.600000 -1.012997 -1.237992
20.650000 -1.049756 -1.239030
20.700000 -1.090619 -1.240051
20.750000 -1.134613 -1.241053
20.800000 -1.180702 -1.242039
20.850000 -1.227809 -1.243006
20.900000 -1.274840 -1.243958
20.950000 -1.320715 -1.244892
21.000000 -1.364389 -1.245811
21.050000 -1.404879 -1.246713
21.100000 -1.441284 -1.247599
21.150000 -1.472806 -1.248471
21.200000 -1.498772 -1.249327
21.250000 -1.518640 -1.250168
21.300000 -1.532020 -1.250994
21.350000 -1.538675 -1.251806
21.400000 -1.538528 -1.252604
21.450000 -1.531664 -1.253389
21.500000 -1.518322 -1.254159
21.550000 -1.498892 -1.254916
21.600000 -1.473903 -1.255660
21.650000 -1.444008 -1.256391
21.700000 -1.409972 -1.257110
21.750000 -1.372648 -1.257815
21.800000 -1.332957 -1.258509
21.850000 -1.291870 -1.259190
21.900000 -1.250380 -1.259860
21.950000 -1.209480 -1.260518
22.000000 -1.170140 -1.261165
22.050000 -1.133286 -1.261800
22.100000 -1.099776 -1.262424
22.150000 -1.070380 -1.263038
22.200000 -1.045766 -1.263641
22.250000 -1.026484 -1.264233
22.300000 -1.012952 -1.264815
22.350000 -1.005449 -1.265387
22.400000 -1.004112 -1.265949
22.450000 -1.008929 -1.266502
22.500000 -1.019745 -1.267045
22.550000 -1.036265 -1.267578
22.600000 -1.058062 -1.268102
22.650000 -1.084590 -1.268617
22.700000 -1.115195 -1.269123
22.750000 -1.149134 -1.269620
22.800000 -1.185592 -1.270109
22.850000 -1.223703 -1.270589
22.900000 -1.262567 -1.271061
22.950000 -1.301277 -1.271525
23.000000 -1.338936 -1.271980
23.050000 -1.374681 -1.272428
23.100000 -1.407701 -1.272868
23.150000 -1.437254 -1.273300
23.200000 -1.462688 -1.273725
23.250000 -1.483454 -1.274143
23.300000 -1.499116 -1.274553
23.350000 -1.509361 -1.274956
23.400000 -1.514008 -1.275353
23.450000 -1.513007 -1.275742
23.500000 -1.506442 -1.276124
23.550000 -1.494525 -1.276500
23.600000 -1.477594 -1.276870
23.650000 -1.456100 -1.277233
23.700000 -1.430597 -1.277590
23.750000 -1.401729 -1.277940
23.800000 -1.370211 -1.278285
23.850000 -1.336816 -1.278623
23.900000 -1.302353 -1.278956
23.950000 -1.267647 -1.279283
24.000000 -1.233524 -1.279604
24.050000 -1.200787 -1.279920
24.100000 -1.170200 -1.280231
24.150000 -1.142469 -1.280535
24.200000 -1.118226 -1.280835
24.250000 -1.098016 -1.281130
24.300000 -1.082284 -1.281419
24.350000 -1.071367 -1.281703
24.400000 -1.065483 -1.281983
24.450000 -1.064732 -1.282257
24.500000 -1.069093 -1.282527
24.550000 -1.078423 -1.282793
24.600000 -1.092465 -1.283053
24.650000 -1.110852 -1.283309
24.700000 -1.133121 -1.283561
24.750000 -1.158719 -1.283808
24.800000 -1.187022 -1.284051
24.850000 -1.217345 -1.284290
24.900000 -1.248966 -1.284525
24.950000 -1.281135 -1.284756
25.000000 -1.313097 -1.284983
25.050000 -1.344110 -1.285205
25.100000 -1.373460 -1.285424
25.150000 -1.400476 -1.285639
25.200000 -1.424552 -1.285851
25.250000 -1.445154 -1.286059
25.300000 -1.461833 -1.286263
25.350000 -1.474239 -1.286464
25.400000 -1.482123 -1.286661
25.450000 -1.485346 -1.286855
25.500000 -1.483878 -1.287045
25.550000 -1.477801 -1.287232
25.600000 -1.467304 -1.287416
25.650000 -1.452676 -1.287597
25.700000 -1.434303 -1.287775
25.750000 -1.412653 -1.287950
25.800000 -1.388270 -1.288121
25.850000 -1.361753 -1.288290
25.900000 -1.333749 -1.288456
25.950000 -1.304932 -1.288618
26.000000 -1.275990 -1.288779
26.050000 -1.247607 -1.288936
26.100000 -1.220448 -1.289091
26.150000 -1.195144 -1.289242
26.200000 -1.172276 -1.289392
26.250000 -1.152362 -1.289539
26.300000 -1.135846 -1.289683
26.350000 -1.123089 -1.289824
26.400000 -1.114359 -1.289964
26.450000 -1.109830 -1.290101
26.500000 -1.109573 -1.290235
26.550000 -1.113558 -1.290367
26.600000 -1.121657 -1.290497
26.650000 -1.133646 -1.290625
26.700000 -1.149211 -1.290751
26.750000 -1.167959 -1.290874
26.800000 -1.189422 -1.290995
26.850000 -1.213075 -1.291114
26.900000 -1.238347 -1.291231
26.950000 -1.264632 -1.291346
27.000000 -1.291307 -1.291460
27.050000 -1.317744 -1.291571
27.100000 -1.343329 -1.291680
27.150000 -1.367469 -1.291787
27.200000 -1.389615 -1.291893
27.250000 -1.409267 -1.291996
27.300000 -1.425987 -1.292098
27.350000 -1.439414 -1.292199
27.400000 -1.449262 -1.292297
27.450000 -1.455336 -1.292394
27.500000 -1.457530 -1.292489
27.550000 -1.455828 -1.292582
27.600000 -1.450308 -1.292674
27.650000 -1.441137 -1.292764
27.700000 -1.428564 -1.292853
27.750000 -1.412918 -1.292940
27.800000 -1.394595 -1.293026
27.850000 -1.374051 -1.293110
27.900000 -1.351792 -1.293193
27.950000 -1.328356 -1.293274
28.000000 -1.304307 -1.293354
28.050000 -1.280216 -1.293433
28.100000 -1.256652 -1.293510
28.150000 -1.234165 -1.293586
28.200000 -1.213274 -1.293660
28.250000 -1.194458 -1.293734
28.300000 -1.178141 -1.293806
28.350000 -1.164686 -1.293876
28.400000 -1.154384 -1.293946
28.450000 -1.147450 -1.294014
28.500000 -1.144020 -1.294082
28.550000 -1.144142 -1.294148
28.600000 -1.147785 -1.294213
28.650000 -1.154832 -1.294276
28.700000 -1.165088 -1.294339
28.750000 -1.178286 -1.294401
28.800000 -1.194091 -1.294461
28.850000 -1.212110 -1.294521
28.900000 -1.231900 -1.294579
28.950000 -1.252984 -1.294637
29.000000 -1.274855 -1.294694
29.050000 -1.296995 -1.294749
29.100000 -1.318883 -1.294804
29.150000 -1.340007 -1.294857
29.200000 -1.359882 -1.294910
29.250000 -1.378052 -1.294962
29.300000 -1.394107 -1.295013
29.350000 -1.407691 -1.295063
29.400000 -1.418508 -1.295112
29.450000 -1.426331 -1.295161
29.500000 -1.431003 -1.295208
29.550000 -1.432445 -1.295255
29.600000 -1.430653 -1.295301
29.650000 -1.425699 -1.295346
29.700000 -1.417729 -1.295390
29.750000 -1.406959 -1.295434
29.800000 -1.393666 -1.295477
29.850000 -1.378188 -1.295519
29.900000 -1.360908 -1.295560
29.950000 -1.342249 -1.295601
30.000000 -1.322662 -1.295641
30.050000 -1.302617 -1.295680
30.100000 -1.282589 -1.295719
30.150000 -1.263049 -1.295757
30.200000 -1.244452 -1.295794
30.250000 -1.227228 -1.295831
30.300000 -1.211769 -1.295867
30.350000 -1.198423 -1.295902
30.400000 -1.187486 -1.295937
30.450000 -1.179192 -1.295971
30.500000 -1.173715 -1.296005
30.550000 -1.171157 -1.296038
30.600000 -1.171554 -1.296071
30.650000 -1.174870 -1.296103
30.700000 -1.181003 -1.296134
30.750000 -1.189783 -1.296165
30.800000 -1.200981 -1.296195
30.850000 -1.214313 -1.296225
30.900000 -1.229448 -1.296254
30.950000 -1.246015 -1.296283
31.000000 -1.263613 -1.296311
31.050000 -1.281820 -1.296339
31.100000 -1.300204 -1.296367
31.150000 -1.318332 -1.296394
31.200000 -1.335782 -1.296420
31.250000 -1.352151 -1.296446
31.300000 -1.367064 -1.296471
31.350000 -1.380186 -1.296497
31.400000 -1.391224 -1.296521
31.450000 -1.399940 -1.296545
31.500000 -1.406150 -1.296569
31.550000 -1.409731 -1.296593
31.600000 -1.410624 -1.296616
31.650000 -1.408832 -1.296638
31.700000 -1.404422 -1.296661
31.750000 -1.397522 -1.296682
31.800000 -1.388316 -1.296704
31.850000 -1.377042 -1.296725
31.900000 -1.363984 -1.296746
31.950000 -1.349465 -1.296766
32.000000 -1.333838 -1.296786
32.050000 -1.317483 -1.296806
32.100000 -1.300789 -1.296825
32.150000 -1.284152 -1.296844
32.200000 -1.267962 -1.296863
32.250000 -1.252597 -1.296881
32.300000 -1.238409 -1.296899
32.350000 -1.225722 -1.296917
32.400000 -1.214820 -1.296935
32.450000 -1.205944 -1.296952
32.500000 -1.199285 -1.296969
32.550000 -1.194978 -1.296985
32.600000 -1.193105 -1.297002
32.650000 -1.193687 -1.297018
32.700000 -1.196690 -1.297033
32.750000 -1.202022 -1.297049
32.800000 -1.209536 -1.297064
32.850000 -1.219038 -1.297079
32.900000 -1.230286 -1.297094
32.950000 -1.243001 -1.297108
33.000000 -1.256872 -1.297122
33.050000 -1.271563 -1.297136
33.100000 -1.286722 -1.297150
33.150000 -1.301989 -1.297164
33.200000 -1.317006 -1.297177
33.250000 -1.331421 -1.297190
33.300000 -1.344904 -1.297203
33.350000 -1.357145 -1.297215
33.400000 -1.367869 -1.297228
33.450000 -1.376838 -1.297240
33.500000 -1.383858 -1.297252
33.550000 -1.388781 -1.297263
33.600000 -1.391511 -1.297275
33.650000 -1.392004 -1.297286
33.700000 -1.390269 -1.297298
33.750000 -1.386367 -1.297308
33.800000 -1.380409 -1.297319
33.850000 -1.372554 -1.297330
33.900000 -1.363004 -1.297340
33.950000 -1.351998 -1.297351
34.000000 -1.339807 -1.297361
34.050000 -1.326730 -1.297370
34.100000 -1.313082 -1.297380
34.150000 -1.299187 -1.297390
34.200000 -1.285375 -1.297399
34.250000 -1.271970 -1.297408
34.300000 -1.259282 -1.297417
34.350000 -1.247604 -1.297426
34.400000 -1.237200 -1.297435
34.450000 -1.228304 -1.297444
34.500000 -1.221111 -1.297452
34.550000 -1.215775 -1.297461
34.600000 -1.212405 -1.297469
34.650000 -1.211062 -1.297477
34.700000 -1.211759 -1.297485
34.750000 -1.214463 -1.297492
34.800000 -1.219092 -1.297500
34.850000 -1.225519 -1.297508
34.900000 -1.233579 -1.297515
34.950000 -1.243067 -1.297522
35.000000 -1.253749 -1.297529
35.050000 -1.265362 -1.297536
35.100000 -1.277625 -1.297543
35.150000 -1.290246 -1.297550
35.200000 -1.302925 -1.297557
35.250000 -1.315364 -1.297563
35.300000 -1.327273 -1.297570
35.350000 -1.338377 -1.297576
35.400000 -1.348423 -1.297582
35.450000 -1.357186 -1.297588
35.500000 -1.364470 -1.297594
35.550000 -1.370119 -1.297600
35.600000 -1.374015 -1.297606
35.650000 -1.376081 -1.297612
35.700000 -1.376287 -1.297617
35.750000 -1.374644 -1.297623
35.800000 -1.371208 -1.297628
35.850000 -1.366075 -1.297634
35.900000 -1.359381 -1.297639
35.950000 -1.351298 -1.297644
36.000000 -1.342028 -1.297649
36.050000 -1.331800 -1.297654
36.100000 -1.320862 -1.297659
36.150000 -1.309478 -1.297664
36.200000 -1.297918 -1.297669
36.250000 -1.286457 -1.297673
36.300000 -1.275362 -1.297678
36.350000 -1.264891 -1.297682
36.400000 -1.255284 -1.297687
36.450000 -1.246759 -1.297691
36.500000 -1.239506 -1.297695
36.550000 -1.233684 -1.297699
36.600000 -1.229418 -1.297704
36.650000 -1.226793 -1.297708
36.700000 -1.225856 -1.297712
36.750000 -1.226615 -1.297715
36.800000 -1.229036 -1.297719
36.850000 -1.233048 -1.297723
36.900000 -1.238542 -1.297727
36.950000 -1.245376 -1.297730
37.000000 -1.253377 -1.297734
37.050000 -1.262348 -1.297738
37.100000 -1.272069 -1.297741
37.150000 -1.282305 -1.297744
37.200000 -1.292812 -1.297748
37.250000 -1.303340 -1.297751
37.300000 -1.313641 -1.297754
37.350000 -1.323478 -1.297758
37.400000 -1.332622 -1.297761
37.450000 -1.340865 -1.297764
37.500000 -1.348022 -1.297767
37.550000 -1.353935 -1.297770
37.600000 -1.358476 -1.297773
37.650000 -1.361551 -1.297775
37.700000 -1.363101 -1.297778
37.750000 -1.363104 -1.297781
37.800000 -1.361573 -1.297784
37.850000 -1.358558 -1.297787
37.900000 -1.354144 -1.297789
37.950000 -1.348446 -1.297792
38.000000 -1.341611 -1.297794
38.050000 -1.333808 -1.297797
38.100000 -1.325230 -1.297799
38.150000 -1.316085 -1.297802
38.200000 -1.306593 -1.297804
38.250000 -1.296981 -1.297806
38.300000 -1.287474 -1.297809
38.350000 -1.278295 -1.297811
38.400000 -1.269657 -1.297813
38.450000 -1.261758 -1.297815
38.500000 -1.254776 -1.297817
38.550000 -1.248867 -1.297820
38.600000 -1.244161 -1.297822
38.650000 -1.240757 -1.297824
38.700000 -1.238723 -1.297826
38.750000 -1.238096 -1.297828
38.800000 -1.238876 -1.297830
38.850000 -1.241033 -1.297832
38.900000 -1.244504 -1.297833
38.950000 -1.249195 -1.297835
39.000000 -1.254987 -1.297837
39.050000 -1.261732 -1.297839
39.100000 -1.269264 -1.297841
39.150000 -1.277400 -1.297842
39.200000 -1.285942 -1.297844
39.250000 -1.294686 -1.297846
39.300000 -1.303427 -1.297847
39.350000 -1.311957 -1.297849
39.400000 -1.320080 -1.297850
39.450000 -1.327607 -1.297852
39.500000 -1.334368 -1.297853
39.550000 -1.340212 -1.297855
39.600000 -1.345008 -1.297856
39.650000 -1.348654 -1.297858
39.700000 -1.351075 -1.297859
39.750000 -1.352224 -1.297861
39.800000 -1.352087 -1.297862
39.850000 -1.350679 -1.297863
39.900000 -1.348043 -1.297865
39.950000 -1.344252 -1.297866
40.000000 -1.339407 -1.297867
40.050000 -1.333630 -1.297869
40.100000 -1.327066 -1.297870
40.150000 -1.319875 -1.297871
40.200000 -1.312232 -1.297872
40.250000 -1.304321 -1.297873
40.300000 -1.296330 -1.297875
40.350000 -1.288447 -1.297876
40.400000 -1.280856 -1.297877
40.450000 -1.273733 -1.297878
40.500000 -1.267241 -1.297879
40.550000 -1.261527 -1.297880
40.600000 -1.256717 -1.297881
40.650000 -1.252917 -1.297882
40.700000 -1.250207 -1.297883
40.750000 -1.248641 -1.297884
40.800000 -1.248244 -1.297885
40.850000 -1.249017 -1.297886
40.900000 -1.250930 -1.297887
40.950000 -1.253928 -1.297888
41.000000 -1.257931 -1.297889
41.050000 -1.262837 -1.297890
41.100000 -1.268521 -1.297891
41.150000 -1.274843 -1.297892
41.200000 -1.281649 -1.297892
41.250000 -1.288776 -1.297893
41.300000 -1.296053 -1.297894
41.350000 -1.303307 -1.297895
41.400000 -1.310369 -1.297896
41.450000 -1.317075 -1.297896
41.500000 -1.323270 -1.297897
41.550000 -1.328813 -1.297898
41.600000 -1.333581 -1.297899
41.650000 -1.337469 -1.297899
41.700000 -1.340392 -1.297900
41.750000 -1.342292 -1.297901
41.800000 -1.343132 -1.297902
41.850000 -1.342903 -1.297902
41.900000 -1.341620 -1.297903
41.950000 -1.339321 -1.297904
42.000000 -1.336071 -1.297904
42.050000 -1.331955 -1.297905
42.100000 -1.327076 -1.297905
42.150000 -1.321556 -1.297906
42.200000 -1.315530 -1.297907
42.250000 -1.309145 -1.297907
42.300000 -1.302554 -1.297908
42.350000 -1.295912 -1.297908
42.400000 -1.289378 -1.297909
42.450000 -1.283102 -1.297910
42.500000 -1.277231 -1.297910
42.550000 -1.271898 -1.297911
42.600000 -1.267223 -1.297911
42.650000 -1.263311 -1.297912
42.700000 -1.260247 -1.297912
42.750000 -1.258094 -1.297913
42.800000 -1.256895 -1.297913
42.850000 -1.256671 -1.297914
42.900000 -1.257416 -1.297914
42.950000 -1.259106 -1.297915
43.000000 -1.261691 -1.297915
43.050000 -1.265104 -1.297916
43.100000 -1.269256 -1.297916
43.150000 -1.274044 -1.297916
43.200000 -1.279349 -1.297917
43.250000 -1.285042 -1.297917
43.300000 -1.290986 -1.297918
43.350000 -1.297040 -1.297918
43.400000 -1.303059 -1.297919
43.450000 -1.308904 -1.297919
43.500000 -1.314438 -1.297919
43.550000 -1.319535 -1.297920
43.600000 -1.324079 -1.297920
43.650000 -1.327967 -1.297920
43.700000 -1.331115 -1.297921
43.750000 -1.333456 -1.297921
43.800000 -1.334941 -1.297921
43.850000 -1.335543 -1.297922
43.900000 -1.335258 -1.297922
43.950000 -1.334098 -1.297923
44.000000 -1.332099 -1.297923
44.050000 -1.329316 -1.297923
44.100000 -1.325821 -1.297923
44.150000 -1.321702 -1.297924
44.200000 -1.317063 -1.297924
44.250000 -1.312015 -1.297924
44.300000 -1.306683 -1.297925
44.350000 -1.301193 -1.297925
44.400000 -1.295675 -1.297925
44.450000 -1.290260 -1.297926
44.500000 -1.285073 -1.297926
44.550000 -1.280235 -1.297926
44.600000 -1.275856 -1.297926
44.650000 -1.272034 -1.297927
44.700000 -1.268855 -1.297927
44.750000 -1.266387 -1.297927
44.800000 -1.264681 -1.297927
44.850000 -1.263771 -1.297928
44.900000 -1.263671 -1.297928
44.950000 -1.264377 -1.297928
45.000000 -1.265863 -1.297928
45.050000 -1.268089 -1.297929
45.100000 -1.270996 -1.297929
45.150000 -1.274509 -1.297929
45.200000 -1.278540 -1.297929
45.250000 -1.282990 -1.297929
45.300000 -1.287750 -1.297930
45.350000 -1.292707 -1.297930
45.400000 -1.297742 -1.297930
45.450000 -1.302735 -1.297930
45.500000 -1.307572 -1.297930
45.550000 -1.312138 -1.297931
45.600000 -1.316329 -1.297931
45.650000 -1.320051 -1.297931
45.700000 -1.323221 -1.297931
45.750000 -1.325768 -1.297931
45.800000 -1.327638 -1.297932
45.850000 -1.328795 -1.297932
45.900000 -1.329216 -1.297932
45.950000 -1.328899 -1.297932
46.000000 -1.327858 -1.297932
46.050000 -1.326124 -1.297932
46.100000 -1.323743 -1.297933
46.150000 -1.320779 -1.297933
46.200000 -1.317304 -1.297933
46.250000 -1.313406 -1.297933
46.300000 -1.309179 -1.297933
46.350000 -1.304727 -1.297933
46.400000 -1.300155 -1.297933
46.450000 -1.295573 -1.297934
46.500000 -1.291086 -1.297934
46.550000 -1.286801 -1.297934
46.600000 -1.282816 -1.297934
46.650000 -1.279222 -1.297934
46.700000 -1.276099 -1.297934
46.750000 -1.273517 -1.297934
46.800000 -1.271532 -1.297935
46.850000 -1.270184 -1.297935
46.900000 -1.269500 -1.297935
46.950000 -1.269489 -1.297935
47.000000 -1.270146 -1.297935
47.050000 -1.271450 -1.297935
47.100000 -1.273364 -1.297935
47.150000 -1.275838 -1.297935
47.200000 -1.278808 -1.297935
47.250000 -1.282200 -1.297936
47.300000 -1.285931 -1.297936
47.350000 -1.289911 -1.297936
47.400000 -1.294043 -1.297936
47.450000 -1.298229 -1.297936
47.500000 -1.302371 -1.297936
47.550000 -1.306371 -1.297936
47.600000 -1.310138 -1.297936
47.650000 -1.313584 -1.297936
47.700000 -1.316631 -1.297936
47.750000 -1.319213 -1.297937
47.800000 -1.321271 -1.297937
47.850000 -1.322764 -1.297937
47.900000 -1.323660 -1.297937
47.950000 -1.323944 -1.297937
48.000000 -1.323615 -1.297937
48.050000 -1.322686 -1.297937
48.100000 -1.321184 -1.297937
48.150000 -1.319151 -1.297937
48.200000 -1.316637 -1.297937
48.250000 -1.313707 -1.297937
48.300000 -1.310433 -1.297937
48.350000 -1.306896 -1.297938
48.400000 -1.303179 -1.297938
48.450000 -1.299374 -1.297938
48.500000 -1.295568 -1.297938
48.550000 -1.291853 -1.297938
48.600000 -1.288314 -1.297938
48.650000 -1.285033 -1.297938
48.700000 -1.282084 -1.297938
48.750000 -1.279534 -1.297938
48.800000 -1.277438 -1.297938
48.850000 -1.275843 -1.297938
48.900000 -1.274781 -1.297938
48.950000 -1.274273 -1.297938
49.000000 -1.274324 -1.297938
49.050000 -1.274929 -1.297938
49.100000 -1.276070 -1.297939
49.150000 -1.277713 -1.297939
49.200000 -1.279816 -1.297939
49.250000 -1.282326 -1.297939
49.300000 -1.285180 -1.297939
49.350000 -1.288307 -1.297939
49.400000 -1.291633 -1.297939
49.450000 -1.295076 -1.297939
49.500000 -1.298556 -1.297939
49.550000 -1.301990 -1.297939
49.600000 -1.305299 -1.297939
49.650000 -1.308404 -1.297939
49.700000 -1.311236 -1.297939
49.750000 -1.313730 -1.297939
49.800000 -1.315832 -1.297939
49.850000 -1.317494 -1.297939
49.900000 -1.318682 -1.297939
49.950000 -1.319372 -1.297939
50.000000 -1.319554 -1.297939
50.050000 -1.319226 -1.297939
50.100000 -1.318401 -1.297939
50.150000 -1.317103 -1.297940
50.200000 -1.315367 -1.297940
50.250000 -1.313238 -1.297940
50.300000 -1.310769 -1.297940
50.350000 -1.308020 -1.297940
50.400000 -1.305060 -1.297940
50.450000 -1.301959 -1.297940
50.500000 -1.298792 -1.297940
50.550000 -1.295633 -1.297940
50.600000 -1.292557 -1.297940
50.650000 -1.289635 -1.297940
50.700000 -1.286934 -1.297940
50.750000 -1.284516 -1.297940
50.800000 -1.282434 -1.297940
50.850000 -1.280736 -1.297940
50.900000 -1.279456 -1.297940
50.950000 -1.278622 -1.297940
51.000000 -1.278249 -1.297940
51.050000 -1.278342 -1.297940
51.100000 -1.278894 -1.297940
51.150000 -1.279888 -1.297940
51.200000 -1.281297 -1.297940
51.250000 -1.283084 -1.297940
51.300000 -1.285204 -1.297940
51.350000 -1.287604 -1.297940
51.400000 -1.290224 -1.297940
51.450000 -1.293003 -1.297940
51.500000 -1.295872 -1.297940
51.550000 -1.298764 -1.297940
51.600000 -1.301610 -1.297940
51.650000 -1.304345 -1.297940
51.700000 -1.306905 -1.297940
51.750000 -1.309232 -1.297940
51.800000 -1.311272 -1.297941
51.850000 -1.312981 -1.297941
51.900000 -1.314322 -1.297941
51.950000 -1.315265 -1.297941
52.000000 -1.315794 -1.297941
52.050000 -1.315899 -1.297941
52.100000 -1.315581 -1.297941
52.150000 -1.314852 -1.297941
52.200000 -1.313733 -1.297941
52.250000 -1.312253 -1.297941
52.300000 -1.310450 -1.297941
52.350000 -1.308370 -1.297941
52.400000 -1.306063 -1.297941
52.450000 -1.303587 -1.297941
52.500000 -1.301000 -1.297941
52.550000 -1.298365 -1.297941
52.600000 -1.295744 -1.297941
52.650000 -1.293198 -1.297941
52.700000 -1.290786 -1.297941
52.750000 -1.288563 -1.297941
52.800000 -1.286581 -1.297941
52.850000 -1.284883 -1.297941
52.900000 -1.283508 -1.297941
52.950000 -1.282483 -1.297941
53.000000 -1.281831 -1.297941
53.050000 -1.281562 -1.297941
53.100000 -1.281681 -1.297941
53.150000 -1.282180 -1.297941
53.200000 -1.283045 -1.297941
53.250000 -1.284251 -1.297941
53.300000 -1.285769 -1.297941
53.350000 -1.287558 -1.297941
53.400000 -1.289575 -1.297941
53.450000 -1.291770 -1.297941
53.500000 -1.294090 -1.297941
53.550000 -1.296480 -1.297941
53.600000 -1.298883 -1.297941
53.650000 -1.301242 -1.297941
53.700000 -1.303502 -1.297941
53.750000 -1.305612 -1.297941
53.800000 -1.307522 -1.297941
53.850000 -1.309190 -1.297941
53.900000 -1.310579 -1.297941
53.950000 -1.311659 -1.297941
54.000000 -1.312407 -1.297941
54.050000 -1.312809 -1.297941
54.100000 -1.312858 -1.297941
54.150000 -1.312557 -1.297941
54.200000 -1.311915 -1.297941
54.250000 -1.310951 -1.297941
54.300000 -1.309690 -1.297941
54.350000 -1.308164 -1.297941
54.400000 -1.306413 -1.297941
54.450000 -1.304478 -1.297941
54.500000 -1.302407 -1.297941
54.550000 -1.300250 -1.297941
54.600000 -1.298058 -1.297941
54.650000 -1.295883 -1.297941
54.700000 -1.293776 -1.297941
54.750000 -1.291786 -1.297941
54.800000 -1.289958 -1.297941
54.850000 -1.288334 -1.297941
54.900000 -1.286951 -1.297941
54.950000 -1.285837 -1.297941
55.000000 -1.285018 -1.297941
55.050000 -1.284510 -1.297941
55.100000 -1.284321 -1.297941
55.150000 -1.284454 -1.297941
55.200000 -1.284903 -1.297941
55.250000 -1.285653 -1.297941
55.300000 -1.286685 -1.297941
55.350000 -1.287972 -1.297941
55.400000 -1.289482 -1.297941
55.450000 -1.291177 -1.297941
55.500000 -1.293015 -1.297941
55.550000 -1.294952 -1.297941
55.600000 -1.296942 -1.297941
55.650000 -1.298938 -1.297941
55.700000 -1.300892 -1.297942
55.750000 -1.302760 -1.297942
55.800000 -1.304497 -1.297942
55.850000 -1.306065 -1.297942
55.900000 -1.307428 -1.297942
55.950000 -1.308557 -1.297942
56.000000 -1.309425 -1.297942
56.050000 -1.310017 -1.297942
56.100000 -1.310319 -1.297942
56.150000 -1.310329 -1.297942
56.200000 -1.310047 -1.297942
56.250000 -1.309484 -1.297942
56.300000 -1.308655 -1.297942
56.350000 -1.307581 -1.297942
56.400000 -1.306292 -1.297942
56.450000 -1.304817 -1.297942
56.500000 -1.303195 -1.297942
56.550000 -1.301464 -1.297942
56.600000 -1.299665 -1.297942
56.650000 -1.297843 -1.297942
56.700000 -1.296039 -1.297942
56.750000 -1.294296 -1.297942
56.800000 -1.292654 -1.297942
56.850000 -1.291151 -1.297942
56.900000 -1.289822 -1.297942
56.950000 -1.288694 -1.297942
57.000000 -1.287794 -1.297942
57.050000 -1.287141 -1.297942
57.100000 -1.286746 -1.297942
57.150000 -1.286618 -1.297942
57.200000 -1.286758 -1.297942
57.250000 -1.287158 -1.297942
57.300000 -1.287808 -1.297942
57.350000 -1.288690 -1.297942
57.400000 -1.289781 -1.297942
57.450000 -1.291054 -1.297942
57.500000 -1.292478 -1.297942
57.550000 -1.294016 -1.297942
57.600000 -1.295633 -1.297942
57.650000 -1.297290 -1.297942
57.700000 -1.298947 -1.297942
57.750000 -1.300566 -1.297942
57.800000 -1.302108 -1.297942
57.850000 -1.303539 -1.297942
57.900000 -1.304825 -1.297942
57.950000 -1.305939 -1.297942
58.000000 -1.306854 -1.297942
58.050000 -1.307552 -1.297942
58.100000 -1.308018 -1.297942
58.150000 -1.308244 -1.297942
58.200000 -1.308225 -1.297942
58.250000 -1.307966 -1.297942
58.300000 -1.307473 -1.297942
58.350000 -1.306761 -1.297942
58.400000 -1.305848 -1.297942
58.450000 -1.304758 -1.297942
58.500000 -1.303518 -1.297942
58.550000 -1.302158 -1.297942
58.600000 -1.300711 -1.297942
58.650000 -1.299212 -1.297942
58.700000 -1.297697 -1.297942
58.750000 -1.296201 -1.297942
58.800000 -1.294760 -1.297942
58.850000 -1.293406 -1.297942
58.900000 -1.292171 -1.297942
58.950000 -1.291082 -1.297942
59.000000 -1.290165 -1.297942
59.050000 -1.289438 -1.297942
59.100000 -1.288917 -1.297942
59.150000 -1.288613 -1.297942
59.200000 -1.288531 -1.297942
59.250000 -1.288670 -1.297942
59.300000 -1.289026 -1.297942
59.350000 -1.289588 -1.297942
59.400000 -1.290341 -1.297942
59.450000 -1.291265 -1.297942
59.500000 -1.292338 -1.297942
59.550000 -1.293533 -1.297942
59.600000 -1.294821 -1.297942
59.650000 -1.296170 -1.297942
59.700000 -1.297549 -1.297942
59.750000 -1.298924 -1.297942
59.800000 -1.300265 -1.297942
59.850000 -1.301538 -1.297942
59.900000 -1.302716 -1.297942
59.950000 -1.303771 -1.297942
60.000000 -1.304680 -1.297942
60.050000 -1.305422 -1.297942
60.100000 -1.305982 -1.297942
60.150000 -1.306348 -1.297942
60.200000 -1.306514 -1.297942
60.250000 -1.306477 -1.297942
60.300000 -1.306239 -1.297942
60.350000 -1.305810 -1.297942
60.400000 -1.305199 -1.297942
60.450000 -1.304423 -1.297942
60.500000 -1.303503 -1.297942
60.550000 -1.302460 -1.297942
60.600000 -1.301320 -1.297942
60.650000 -1.300111 -1.297942
60.700000 -1.298862 -1.297942
60.750000 -1.297603 -1.297942
60.800000 -1.296363 -1.297942
60.850000 -1.295172 -1.297942
60.900000 -1.294056 -1.297942
60.950000 -1.293041 -1.297942
61.000000 -1.292151 -1.297942
61.050000 -1.291404 -1.297942
61.100000 -1.290818 -1.297942
61.150000 -1.290404 -1.297942
61.200000 -1.290171 -1.297942
61.250000 -1.290122 -1.297942
61.300000 -1.290258 -1.297942
61.350000 -1.290572 -1.297942
61.400000 -1.291057 -1.297942
61.450000 -1.291699 -1.297942
61.500000 -1.292482 -1.297942
61.550000 -1.293386 -1.297942
61.600000 -1.294389 -1.297942
61.650000 -1.295466 -1.297942
61.700000 -1.296592 -1.297942
61.750000 -1.297739 -1.297942
61.800000 -1.298880 -1.297942
61.850000 -1.299990 -1.297942
61.900000 -1.301041 -1.297942
61.950000 -1.302010 -1.297942
62.000000 -1.302875 -1.297942
62.050000 -1.303616 -1.297942
62.100000 -1.304218 -1.297942
62.150000 -1.304666 -1.297942
62.200000 -1.304953 -1.297942
62.250000 -1.305072 -1.297942
62.300000 -1.305023 -1.297942
62.350000 -1.304809 -1.297942
62.400000 -1.304435 -1.297942
62.450000 -1.303912 -1.297942
62.500000 -1.303253 -1.297942
62.550000 -1.302476 -1.297942
62.600000 -1.301599 -1.297942
62.650000 -1.300644 -1.297942
62.700000 -1.299635 -1.297942
62.750000 -1.298594 -1.297942
62.800000 -1.297548 -1.297942
62.850000 -1.296521 -1.297942
62.900000 -1.295536 -1.297942
62.950000 -1.294616 -1.297942
63.000000 -1.293783 -1.297942
63.050000 -1.293055 -1.297942
63.100000 -1.292448 -1.297942
63.150000 -1.291976 -1.297942
63.200000 -1.291648 -1.297942
63.250000 -1.291470 -1.297942
63.300000 -1.291446 -1.297942
63.350000 -1.291575 -1.297942
63.400000 -1.291852 -1.297942
63.450000 -1.292270 -1.297942
63.500000 -1.292817 -1.297942
63.550000 -1.293480 -1.297942
63.600000 -1.294241 -1.297942
63.650000 -1.295082 -1.297942
63.700000 -1.295983 -1.297942
63.750000 -1.296922 -1.297942
63.800000 -1.297876 -1.297942
63.850000 -1.298823 -1.297942
63.900000 -1.299741 -1.297942
63.950000 -1.300609 -1.297942
64.000000 -1.301406 -1.297942
64.050000 -1.302114 -1.297942
64.100000 -1.302718 -1.297942
64.150000 -1.303205 -1.297942
64.200000 -1.303564 -1.297942
64.250000 -1.303787 -1.297942
64.300000 -1.303872 -1.297942
64.350000 -1.303816 -1.297942
64.400000 -1.303623 -1.297942
64.450000 -1.303298 -1.297942
64.500000 -1.302851 -1.297942
64.550000 -1.302292 -1.297942
64.600000 -1.301636 -1.297942
64.650000 -1.300899 -1.297942
64.700000 -1.300100 -1.297942
64.750000 -1.299257 -1.297942
64.800000 -1.298391 -1.297942
64.850000 -1.297522 -1.297942
64.900000 -1.296670 -1.297942
64.950000 -1.295857 -1.297942
65.000000 -1.295099 -1.297942
65.050000 -1.294415 -1.297942
65.100000 -1.293820 -1.297942
65.150000 -1.293327 -1.297942
65.200000 -1.292947 -1.297942
65.250000 -1.292688 -1.297942
65.300000 -1.292554 -1.297942
65.350000 -1.292548 -1.297942
65.400000 -1.292668 -1.297942
65.450000 -1.292912 -1.297942
65.500000 -1.293271 -1.297942
65.550000 -1.293737 -1.297942
65.600000 -1.294297 -1.297942
65.650000 -1.294938 -1.297942
65.700000 -1.295643 -1.297942
65.750000 -1.296396 -1.297942
65.800000 -1.297179 -1.297942
65.850000 -1.297972 -1.297942
65.900000 -1.298758 -1.297942
65.950000 -1.299517 -1.297942
66.000000 -1.300233 -1.297942
66.050000 -1.300888 -1.297942
66.100000 -1.301469 -1.297942
66.150000 -1.301961 -1.297942
66.200000 -1.302354 -1.297942
66.250000 -1.302641 -1.297942
66.300000 -1.302814 -1.297942
66.350000 -1.302872 -1.297942
66.400000 -1.302813 -1.297942
66.450000 -1.302641 -1.297942
66.500000 -1.302359 -1.297942
66.550000 -1.301977 -1.297942
66.600000 -1.301503 -1.297942
66.650000 -1.300950 -1.297942
66.700000 -1.300331 -1.297942
66.750000 -1.299662 -1.297942
66.800000 -1.298958 -1.297942
66.850000 -1.298237 -1.297942
66.900000 -1.297515 -1.297942
66.950000 -1.296810 -1.297942
67.000000 -1.296138 -1.297942
67.050000 -1.295514 -1.297942
67.100000 -1.294953 -1.297942
67.150000 -1.294467 -1.297942
67.200000 -1.294067 -1.297942
67.250000 -1.293762 -1.297942
67.300000 -1.293557 -1.297942
67.350000 -1.293457 -1.297942
67.400000 -1.293464 -1.297942
67.450000 -1.293575 -1.297942
67.500000 -1.293788 -1.297942
67.550000 -1.294097 -1.297942
67.600000 -1.294493 -1.297942
67.650000 -1.294966 -1.297942
67.700000 -1.295505 -1.297942
67.750000 -1.296097 -1.297942
67.800000 -1.296726 -1.297942
67.850000 -1.297378 -1.297942
67.900000 -1.298038 -1.297942
67.950000 -1.298690 -1.297942
68.000000 -1.299318 -1.297942
68.050000 -1.299908 -1.297942
68.100000 -1.300446 -1.297942
68.150000 -1.300921 -1.297942
68.200000 -1.301322 -1.297942
68.250000 -1.301640 -1.297942
68.300000 -1.301868 -1.297942
68.350000 -1.302002 -1.297942
68.400000 -1.302039 -1.297942
68.450000 -1.301980 -1.297942
68.500000 -1.301827 -1.297942
68.550000 -1.301584 -1.297942
68.600000 -1.301257 -1.297942
68.650000 -1.300856 -1.297942
68.700000 -1.300389 -1.297942
68.750000 -1.299870 -1.297942
68.800000 -1.299310 -1.297942
68.850000 -1.298723 -1.297942
68.900000 -1.298122 -1.297942
68.950000 -1.297523 -1.297942
69.000000 -1.296940 -1.297942
69.050000 -1.296384 -1.297942
69.100000 -1.295871 -1.297942
69.150000 -1.295411 -1.297942
69.200000 -1.295014 -1.297942
69.250000 -1.294690 -1.297942
69.300000 -1.294444 -1.297942
69.350000 -1.294284 -1.297942
69.400000 -1.294210 -1.297942
69.450000 -1.294225 -1.297942
69.500000 -1.294327 -1.297942
69.550000 -1.294513 -1.297942
69.600000 -1.294777 -1.297942
69.650000 -1.295114 -1.297942
69.700000 -1.295514 -1.297942
69.750000 -1.295967 -1.297942
69.800000 -1.296463 -1.297942
69.850000 -1.296989 -1.297942
69.900000 -1.297532 -1.297942
69.950000 -1.298081 -1.297942
70.000000 -1.298621 -1.297942
70.050000 -1.299140 -1.297942
70.100000 -1.299626 -1.297942
70.150000 -1.300069 -1.297942
70.200000 -1.300458 -1.297942
70.250000 -1.300784 -1.297942
70.300000 -1.301040 -1.297942
70.350000 -1.301221 -1.297942
70.400000 -1.301324 -1.297942
70.450000 -1.301347 -1.297942
70.500000 -1.301289 -1.297942
70.550000 -1.301153 -1.297942
70.600000 -1.300943 -1.297942
70.650000 -1.300665 -1.297942
70.700000 -1.300325 -1.297942
70.750000 -1.299932 -1.297942
70.800000 -1.299496 -1.297942
70.850000 -1.299027 -1.297942
70.900000 -1.298538 -1.297942
70.950000 -1.298038 -1.297942
71.000000 -1.297541 -1.297942
71.050000 -1.297058 -1.297942
71.100000 -1.296599 -1.297942
71.150000 -1.296177 -1.297942
71.200000 -1.295800 -1.297942
71.250000 -1.295476 -1.297942
71.300000 -1.295213 -1.297942
71.350000 -1.295017 -1.297942
71.400000 -1.294891 -1.297942
71.450000 -1.294838 -1.297942
71.500000 -1.294858 -1.297942
71.550000 -1.294950 -1.297942
71.600000 -1.295112 -1.297942
71.650000 -1.295339 -1.297942
71.700000 -1.295624 -1.297942
71.750000 -1.295962 -1.297942
71.800000 -1.296343 -1.297942
71.850000 -1.296758 -1.297942
71.900000 -1.297198 -1.297942
71.950000 -1.297650 -1.297942
72.000000 -1.298106 -1.297942
72.050000 -1.298554 -1.297942
72.100000 -1.298983 -1.297942
72.150000 -1.299384 -1.297942
72.200000 -1.299747 -1.297942
72.250000 -1.300065 -1.297942
72.300000 -1.300330 -1.297942
72.350000 -1.300537 -1.297942
72.400000 -1.300681 -1.297942
72.450000 -1.300759 -1.297942
72.500000 -1.300770 -1.297942
72.550000 -1.300715 -1.297942
72.600000 -1.300595 -1.297942
72.650000 -1.300415 -1.297942
72.700000 -1.300177 -1.297942
72.750000 -1.299890 -1.297942
72.800000 -1.299559 -1.297942
72.850000 -1.299193 -1.297942
72.900000 -1.298801 -1.297942
72.950000 -1.298393 -1.297942
73.000000 -1.297977 -1.297942
73.050000 -1.297565 -1.297942
73.100000 -1.297165 -1.297942
73.150000 -1.296787 -1.297942
73.200000 -1.296439 -1.297942
73.250000 -1.296130 -1.297942
73.300000 -1.295866 -1.297942
73.350000 -1.295653 -1.297942
73.400000 -1.295496 -1.297942
73.450000 -1.295398 -1.297942
73.500000 -1.295360 -1.297942
73.550000 -1.295383 -1.297942
73.600000 -1.295467 -1.297942
73.650000 -1.295607 -1.297942
73.700000 -1.295801 -1.297942
73.750000 -1.296044 -1.297942
73.800000 -1.296329 -1.297942
73.850000 -1.296649 -1.297942
73.900000 -1.296997 -1.297942
73.950000 -1.297363 -1.297942
74.000000 -1.297740 -1.297942
74.050000 -1.298119 -1.297942
74.100000 -1.298490 -1.297942
74.150000 -1.298844 -1.297942
74.200000 -1.299175 -1.297942
74.250000 -1.299473 -1.297942
74.300000 -1.299733 -1.297942
74.350000 -1.299948 -1.297942
74.400000 -1.300114 -1.297942
74.450000 -1.300228 -1.297942
74.500000 -1.300287 -1.297942
74.550000 -1.300291 -1.297942
74.600000 -1.300239 -1.297942
74.650000 -1.300134 -1.297942
74.700000 -1.299978 -1.297942
74.750000 -1.299776 -1.297942
74.800000 -1.299533 -1.297942
74.850000 -1.299255 -1.297942
74.900000 -1.298948 -1.297942
74.950000 -1.298620 -1.297942
75.000000 -1.298280 -1.297942
75.050000 -1.297934 -1.297942
75.100000 -1.297592 -1.297942
75.150000 -1.297261 -1.297942
75.200000 -1.296949 -1.297942
75.250000 -1.296663 -1.297942
75.300000 -1.296410 -1.297942
75.350000 -1.296195 -1.297942
75.400000 -1.296023 -1.297942
75.450000 -1.295898 -1.297942
75.500000 -1.295821 -1.297942
75.550000 -1.295795 -1.297942
75.600000 -1.295820 -1.297942
75.650000 -1.295895 -1.297942
75.700000 -1.296016 -1.297942
75.750000 -1.296182 -1.297942
75.800000 -1.296388 -1.297942
75.850000 -1.296628 -1.297942
75.900000 -1.296897 -1.297942
75.950000 -1.297188 -1.297942
76.000000 -1.297494 -1.297942
76.050000 -1.297808 -1.297942
76.100000 -1.298123 -1.297942
76.150000 -1.298430 -1.297942
76.200000 -1.298723 -1.297942
76.250000 -1.298995 -1.297942
76.300000 -1.299239 -1.297942
76.350000 -1.299452 -1.297942
76.400000 -1.299626 -1.297942
76.450000 -1.299760 -1.297942
76.500000 -1.299850 -1.297942
76.550000 -1.299894 -1.297942
76.600000 -1.299892 -1.297942
76.650000 -1.299844 -1.297942
76.700000 -1.299752 -1.297942
76.750000 -1.299618 -1.297942
76.800000 -1.299447 -1.297942
76.850000 -1.299241 -1.297942
76.900000 -1.299007 -1.297942
76.950000 -1.298749 -1.297942
77.000000 -1.298476 -1.297942
77.050000 -1.298192 -1.297942
77.100000 -1.297905 -1.297942
77.150000 -1.297621 -1.297942
77.200000 -1.297347 -1.297942
77.250000 -1.297090 -1.297942
77.300000 -1.296855 -1.297942
77.350000 -1.296648 -1.297942
77.400000 -1.296473 -1.297942
77.450000 -1.296334 -1.297942
77.500000 -1.296234 -1.297942
77.550000 -1.296175 -1.297942
77.600000 -1.296158 -1.297942
77.650000 -1.296183 -1.297942
77.700000 -1.296249 -1.297942
77.750000 -1.296354 -1.297942
77.800000 -1.296496 -1.297942
77.850000 -1.296670 -1.297942
77.900000 -1.296873 -1.297942
77.950000 -1.297099 -1.297942
78.000000 -1.297342 -1.297942
78.050000 -1.297598 -1.297942
78.100000 -1.297859 -1.297942
78.150000 -1.298120 -1.297942
78.200000 -1.298374 -1.297942
78.250000 -1.298616 -1.297942
78.300000 -1.298840 -1.297942
78.350000 -1.299041 -1.297942
78.400000 -1.299214 -1.297942
78.450000 -1.299356 -1.297942
78.500000 -1.299463 -1.297942
78.550000 -1.299534 -1.297942
78.600000 -1.299566 -1.297942
78.650000 -1.299561 -1.297942
78.700000 -1.299517 -1.297942
78.750000 -1.299436 -1.297942
78.800000 -1.299322 -1.297942
78.850000 -1.299176 -1.297942
78.900000 -1.299002 -1.297942
78.950000 -1.298805 -1.297942
79.000000 -1.298589 -1.297942
79.050000 -1.298360 -1.297942
79.100000 -1.298124 -1.297942
79.150000 -1.297885 -1.297942
79.200000 -1.297650 -1.297942
79.250000 -1.297424 -1.297942
79.300000 -1.297212 -1.297942
79.350000 -1.297019 -1.297942
79.400000 -1.296849 -1.297942
79.450000 -1.296707 -1.297942
79.500000 -1.296594 -1.297942
79.550000 -1.296515 -1.297942
79.600000 -1.296470 -1.297942
79.650000 -1.296459 -1.297942
79.700000 -1.296484 -1.297942
79.750000 -1.296542 -1.297942
79.800000 -1.296633 -1.297942
79.850000 -1.296754 -1.297942
79.900000 -1.296902 -1.297942
79.950000 -1.297073 -1.297942
80.000000 -1.297262 -1.297942
80.050000 -1.297466 -1.297942
80.100000 -1.297679 -1.297942
80.150000 -1.297896 -1.297942
80.200000 -1.298113 -1.297942
80.250000 -1.298324 -1.297942
80.300000 -1.298523 -1.297942
80.350000 -1.298708 -1.297942
80.400000 -1.298872 -1.297942
80.450000 -1.299013 -1.297942
80.500000 -1.299128 -1.297942
80.550000 -1.299214 -1.297942
80.600000 -1.299270 -1.297942
80.650000 -1.299293 -1.297942
80.700000 -1.299285 -1.297942
80.750000 -1.299245 -1.297942
80.800000 -1.299175 -1.297942
80.850000 -1.299077 -1.297942
80.900000 -1.298953 -1.297942
80.950000 -1.298806 -1.297942
81.000000 -1.298641 -1.297942
81.050000 -1.298460 -1.297942
81.100000 -1.298269 -1.297942
81.150000 -1.298072 -1.297942
81.200000 -1.297874 -1.297942
81.250000 -1.297679 -1.297942
81.300000 -1.297492 -1.297942
81.350000 -1.297317 -1.297942
81.400000 -1.297158 -1.297942
81.450000 -1.297020 -1.297942
81.500000 -1.296904 -1.297942
81.550000 -1.296813 -1.297942
81.600000 -1.296750 -1.297942
81.650000 -1.296716 -1.297942
81.700000 -1.296710 -1.297942
81.750000 -1.296734 -1.297942
81.800000 -1.296785 -1.297942
81.850000 -1.296864 -1.297942
81.900000 -1.296967 -1.297942
81.950000 -1.297092 -1.297942
82.000000 -1.297235 -1.297942
82.050000 -1.297395 -1.297942
82.100000 -1.297565 -1.297942
82.150000 -1.297743 -1.297942
82.200000 -1.297924 -1.297942
82.250000 -1.298103 -1.297942
82.300000 -1.298278 -1.297942
82.350000 -1.298442 -1.297942
82.400000 -1.298594 -1.297942
82.450000 -1.298729 -1.297942
82.500000 -1.298844 -1.297942
82.550000 -1.298937 -1.297942
82.600000 -1.299006 -1.297942
82.650000 -1.299049 -1.297942
82.700000 -1.299066 -1.297942
82.750000 -1.299056 -1.297942
82.800000 -1.299020 -1.297942
82.850000 -1.298960 -1.297942
82.900000 -1.298875 -1.297942
82.950000 -1.298770 -1.297942
83.000000 -1.298646 -1.297942
83.050000 -1.298507 -1.297942
83.100000 -1.298356 -1.297942
83.150000 -1.298196 -1.297942
83.200000 -1.298032 -1.297942
83.250000 -1.297867 -1.297942
83.300000 -1.297706 -1.297942
83.350000 -1.297551 -1.297942
83.400000 -1.297407 -1.297942
83.450000 -1.297277 -1.297942
83.500000 -1.297164 -1.297942
83.550000 -1.297070 -1.297942
83.600000 -1.296997 -1.297942
83.650000 -1.296947 -1.297942
83.700000 -1.296921 -1.297942
83.750000 -1.296919 -1.297942
83.800000 -1.296941 -1.297942
83.850000 -1.296987 -1.297942
83.900000 -1.297054 -1.297942
83.950000 -1.297142 -1.297942
84.000000 -1.297247 -1.297942
84.050000 -1.297368 -1.297942
84.100000 -1.297502 -1.297942
84.150000 -1.297644 -1.297942
84.200000 -1.297792 -1.297942
84.250000 -1.297943 -1.297942
84.300000 -1.298092 -1.297942
84.350000 -1.298236 -1.297942
84.400000 -1.298372 -1.297942
84.450000 -1.298497 -1.297942
84.500000 -1.298607 -1.297942
84.550000 -1.298701 -1.297942
84.600000 -1.298776 -1.297942
84.650000 -1.298831 -1.297942
84.700000 -1.298865 -1.297942
84.750000 -1.298876 -1.297942
84.800000 -1.298866 -1.297942
84.850000 -1.298834 -1.297942
84.900000 -1.298781 -1.297942
84.950000 -1.298709 -1.297942
85.000000 -1.298620 -1.297942
85.050000 -1.298516 -1.297942
85.100000 -1.298399 -1.297942
85.150000 -1.298272 -1.297942
85.200000 -1.298139 -1.297942
85.250000 -1.298002 -1.297942
85.300000 -1.297865 -1.297942
85.350000 -1.297732 -1.297942
85.400000 -1.297604 -1.297942
85.450000 -1.297485 -1.297942
85.500000 -1.297378 -1.297942
85.550000 -1.297286 -1.297942
85.600000 -1.297209 -1.297942
85.650000 -1.297151 -1.297942
85.700000 -1.297112 -1.297942
85.750000 -1.297092 -1.297942
85.800000 -1.297093 -1.297942
85.850000 -1.297113 -1.297942
85.900000 -1.297153 -1.297942
85.950000 -1.297211 -1.297942
86.000000 -1.297285 -1.297942
86.050000 -1.297375 -1.297942
86.100000 -1.297477 -1.297942
86.150000 -1.297588 -1.297942
86.200000 -1.297708 -1.297942
86.250000 -1.297831 -1.297942
86.300000 -1.297956 -1.297942
86.350000 -1.298080 -1.297942
86.400000 -1.298199 -1.297942
86.450000 -1.298311 -1.297942
86.500000 -1.298414 -1.297942
86.550000 -1.298504 -1.297942
86.600000 -1.298580 -1.297942
86.650000 -1.298641 -1.297942
86.700000 -1.298685 -1.297942
86.750000 -1.298711 -1.297942
86.800000 -1.298719 -1.297942
86.850000 -1.298708 -1.297942
86.900000 -1.298679 -1.297942
86.950000 -1.298634 -1.297942
87.000000 -1.298572 -1.297942
87.050000 -1.298497 -1.297942
87.100000 -1.298409 -1.297942
87.150000 -1.298311 -1.297942
87.200000 -1.298205 -1.297942
87.250000 -1.298093 -1.297942
87.300000 -1.297980 -1.297942
87.350000 -1.297866 -1.297942
87.400000 -1.297755 -1.297942
87.450000 -1.297650 -1.297942
87.500000 -1.297552 -1.297942
87.550000 -1.297465 -1.297942
87.600000 -1.297389 -1.297942
87.650000 -1.297327 -1.297942
87.700000 -1.297280 -1.297942
87.750000 -1.297249 -1.297942
87.800000 -1.297235 -1.297942
87.850000 -1.297237 -1.297942
87.900000 -1.297256 -1.297942
87.950000 -1.297290 -1.297942
88.000000 -1.297340 -1.297942
88.050000 -1.297404 -1.297942
88.100000 -1.297479 -1.297942
88.150000 -1.297565 -1.297942
88.200000 -1.297658 -1.297942
88.250000 -1.297758 -1.297942
88.300000 -1.297861 -1.297942
88.350000 -1.297965 -1.297942
88.400000 -1.298067 -1.297942
88.450000 -1.298166 -1.297942
88.500000 -1.298258 -1.297942
88.550000 -1.298343 -1.297942
88.600000 -1.298417 -1.297942
88.650000 -1.298479 -1.297942
88.700000 -1.298528 -1.297942
88.750000 -1.298563 -1.297942
88.800000 -1.298583 -1.297942
88.850000 -1.298587 -1.297942
88.900000 -1.298577 -1.297942
88.950000 -1.298552 -1.297942
89.000000 -1.298512 -1.297942
89.050000 -1.298460 -1.297942
89.100000 -1.298396 -1.297942
89.150000 -1.298322 -1.297942
89.200000 -1.298239 -1.297942
89.250000 -1.298151 -1.297942
89.300000 -1.298058 -1.297942
89.350000 -1.297963 -1.297942
89.400000 -1.297869 -1.297942
89.450000 -1.297777 -1.297942
89.500000 -1.297690 -1.297942
89.550000 -1.297610 -1.297942
89.600000 -1.297538 -1.297942
89.650000 -1.297476 -1.297942
89.700000 -1.297426 -1.297942
89.750000 -1.297388 -1.297942
89.800000 -1.297364 -1.297942
89.850000 -1.297354 -1.297942
89.900000 -1.297357 -1.297942
89.950000 -1.297374 -1.297942
90.000000 -1.297404 -1.297942
90.050000 -1.297447 -1.297942
90.100000 -1.297501 -1.297942
90.150000 -1.297564 -1.297942
90.200000 -1.297636 -1.297942
90.250000 -1.297715 -1.297942
90.300000 -1.297798 -1.297942
90.350000 -1.297884 -1.297942
90.400000 -1.297970 -1.297942
90.450000 -1.298055 -1.297942
90.500000 -1.298137 -1.297942
90.550000 -1.298213 -1.297942
90.600000 -1.298282 -1.297942
90.650000 -1.298343 -1.297942
90.700000 -1.298393 -1.297942
90.750000 -1.298433 -1.297942
90.800000 -1.298460 -1.297942
90.850000 -1.298476 -1.297942
90.900000 -1.298478 -1.297942
90.950000 -1.298468 -1.297942
91.000000 -1.298446 -1.297942
91.050000 -1.298412 -1.297942
91.100000 -1.298367 -1.297942
91.150000 -1.298313 -1.297942
91.200000 -1.298250 -1.297942
91.250000 -1.298181 -1.297942
91.300000 -1.298107 -1.297942
91.350000 -1.298030 -1.297942
91.400000 -1.297951 -1.297942
91.450000 -1.297873 -1.297942
91.500000 -1.297797 -1.297942
91.550000 -1.297725 -1.297942
91.600000 -1.297659 -1.297942
91.650000 -1.297600 -1.297942
91.700000 -1.297550 -1.297942
91.750000 -1.297509 -1.297942
91.800000 -1.297479 -1.297942
91.850000 -1.297460 -1.297942
91.900000 -1.297453 -1.297942
91.950000 -1.297457 -1.297942
92.000000 -1.297472 -1.297942
92.050000 -1.297498 -1.297942
92.100000 -1.297535 -1.297942
92.150000 -1.297580 -1.297942
92.200000 -1.297634 -1.297942
92.250000 -1.297695 -1.297942
92.300000 -1.297761 -1.297942
92.350000 -1.297830 -1.297942
92.400000 -1.297901 -1.297942
92.450000 -1.297973 -1.297942
92.500000 -1.298044 -1.297942
92.550000 -1.298111 -1.297942
92.600000 -1.298174 -1.297942
92.650000 -1.298230 -1.297942
92.700000 -1.298280 -1.297942
92.750000 -1.298321 -1.297942
92.800000 -1.298353 -1.297942
92.850000 -1.298375 -1.297942
92.900000 -1.298386 -1.297942
92.950000 -1.298387 -1.297942
93.000000 -1.298378 -1.297942
93.050000 -1.298358 -1.297942
93.100000 -1.298329 -1.297942
93.150000 -1.298291 -1.297942
93.200000 -1.298245 -1.297942
93.250000 -1.298192 -1.297942
93.300000 -1.298134 -1.297942
93.350000 -1.298072 -1.297942
93.400000 -1.298008 -1.297942
93.450000 -1.297942 -1.297942
93.500000 -1.297878 -1.297942
93.550000 -1.297815 -1.297942
93.600000 -1.297755 -1.297942
93.650000 -1.297701 -1.297942
93.700000 -1.297653 -1.297942
93.750000 -1.297612 -1.297942
93.800000 -1.297579 -1.297942
93.850000 -1.297555 -1.297942
93.900000 -1.297540 -1.297942
93.950000 -1.297535 -1.297942
94.000000 -1.297539 -1.297942
94.050000 -1.297553 -1.297942
94.100000 -1.297576 -1.297942
94.150000 -1.297607 -1.297942
94.200000 -1.297646 -1.297942
94.250000 -1.297691 -1.297942
94.300000 -1.297742 -1.297942
94.350000 -1.297797 -1.297942
94.400000 -1.297855 -1.297942
94.450000 -1.297915 -1.297942
94.500000 -1.297974 -1.297942
94.550000 -1.298033 -1.297942
94.600000 -1.298088 -1.297942
94.650000 -1.298140 -1.297942
94.700000 -1.298186 -1.297942
94.750000 -1.298227 -1.297942
94.800000 -1.298260 -1.297942
94.850000 -1.298286 -1.297942
94.900000 -1.298303 -1.297942
94.950000 -1.298312 -1.297942
95.000000 -1.298312 -1.297942
95.050000 -1.298303 -1.297942
95.100000 -1.298286 -1.297942
95.150000 -1.298261 -1.297942
95.200000 -1.298228 -1.297942
95.250000 -1.298189 -1.297942
95.300000 -1.298145 -1.297942
95.350000 -1.298097 -1.297942
95.400000 -1.298045 -1.297942
95.450000 -1.297991 -1.297942
95.500000 -1.297937 -1.297942
95.550000 -1.297883 -1.297942
95.600000 -1.297831 -1.297942
95.650000 -1.297782 -1.297942
95.700000 -1.297737 -1.297942
95.750000 -1.297698 -1.297942
95.800000 -1.297664 -1.297942
95.850000 -1.297638 -1.297942
95.900000 -1.297619 -1.297942
95.950000 -1.297607 -1.297942
96.000000 -1.297604 -1.297942
96.050000 -1.297608 -1.297942
96.100000 -1.297620 -1.297942
96.150000 -1.297640 -1.297942
96.200000 -1.297667 -1.297942
96.250000 -1.297700 -1.297942
96.300000 -1.297738 -1.297942
96.350000 -1.297781 -1.297942
96.400000 -1.297827 -1.297942
96.450000 -1.297875 -1.297942
96.500000 -1.297925 -1.297942
96.550000 -1.297974 -1.297942
96.600000 -1.298022 -1.297942
96.650000 -1.298068 -1.297942
96.700000 -1.298111 -1.297942
96.750000 -1.298149 -1.297942
96.800000 -1.298182 -1.297942
96.850000 -1.298209 -1.297942
96.900000 -1.298230 -1.297942
96.950000 -1.298243 -1.297942
97.000000 -1.298250 -1.297942
97.050000 -1.298249 -1.297942
97.100000 -1.298241 -1.297942
97.150000 -1.298226 -1.297942
97.200000 -1.298204 -1.297942
97.250000 -1.298177 -1.297942
97.300000 -1.298144 -1.297942
97.350000 -1.298107 -1.297942
97.400000 -1.298066 -1.297942
97.450000 -1.298023 -1.297942
97.500000 -1.297978 -1.297942
97.550000 -1.297933 -1.297942
97.600000 -1.297888 -1.297942
97.650000 -1.297845 -1.297942
97.700000 -1.297805 -1.297942
97.750000 -1.297768 -1.297942
97.800000 -1.297736 -1.297942
97.850000 -1.297708 -1.297942
97.900000 -1.297687 -1.297942
97.950000 -1.297672 -1.297942
98.000000 -1.297663 -1.297942
98.050000 -1.297661 -1.297942
98.100000 -1.297665 -1.297942
98.150000 -1.297676 -1.297942
98.200000 -1.297693 -1.297942
98.250000 -1.297716 -1.297942
98.300000 -1.297744 -1.297942
98.350000 -1.297776 -1.297942
98.400000 -1.297812 -1.297942
98.450000 -1.297850 -1.297942
98.500000 -1.297891 -1.297942
98.550000 -1.297932 -1.297942
98.600000 -1.297973 -1.297942
98.650000 -1.298013 -1.297942
98.700000 -1.298051 -1.297942
98.750000 -1.298086 -1.297942
98.800000 -1.298117 -1.297942
98.850000 -1.298144 -1.297942
98.900000 -1.298166 -1.297942
98.950000 -1.298183 -1.297942
99.000000 -1.298193 -1.297942
99.050000 -1.298198 -1.297942
99.100000 -1.298197 -1.297942
99.150000 -1.298189 -1.297942
99.200000 -1.298176 -1.297942
99.250000 -1.298158 -1.297942
99.300000 -1.298134 -1.297942
99.350000 -1.298107 -1.297942
99.400000 -1.298075 -1.297942
99.450000 -1.298041 -1.297942
99.500000 -1.298005 -1.297942
99.550000 -1.297968 -1.297942
99.600000 -1.297930 -1.297942
99.650000 -1.297893 -1.297942
99.700000 -1.297858 -1.297942
99.750000 -1.297824 -1.297942
99.800000 -1.297794 -1.297942
99.850000 -1.297768 -1.297942
99.900000 -1.297746 -1.297942
99.950000 -1.297728 -1.297942
100.000000 -1.297716 -1.297942
100.050000 -1.297710 -1.297942
100.100000 -1.297708 -1.297942
100.150000 -1.297713 -1.297942
100.200000 -1.297722 -1.297942
100.250000 -1.297737 -1.297942
100.300000 -1.297756 -1.297942
100.350000 -1.297780 -1.297942
100.400000 -1.297807 -1.297942
100.450000 -1.297837 -1.297942
100.500000 -1.297869 -1.297942
100.550000 -1.297903 -1.297942
100.600000 -1.297937 -1.297942
100.650000 -1.297971 -1.297942
100.700000 -1.298004 -1.297942
100.750000 -1.298036 -1.297942
100.800000 -1.298065 -1.297942
100.850000 -1.298090 -1.297942
100.900000 -1.298112 -1.297942
100.950000 -1.298130 -1.297942
101.000000 -1.298143 -1.297942
101.050000 -1.298152 -1.297942
101.100000 -1.298155 -1.297942
101.150000 -1.298153 -1.297942
101.200000 -1.298147 -1.297942
101.250000 -1.298135 -1.297942
101.300000 -1.298119 -1.297942
101.350000 -1.298100 -1.297942
101.400000 -1.298076 -1.297942
101.450000 -1.298050 -1.297942
101.500000 -1.298021 -1.297942
101.550000 -1.297991 -1.297942
101.600000 -1.297960 -1.297942
101.650000 -1.297929 -1.297942
101.700000 -1.297898 -1.297942
101.750000 -1.297869 -1.297942
101.800000 -1.297841 -1.297942
101.850000 -1.297817 -1.297942
101.900000 -1.297795 -1.297942
101.950000 -1.297777 -1.297942
102.000000 -1.297763 -1.297942
102.050000 -1.297754 -1.297942
102.100000 -1.297748 -1.297942
102.150000 -1.297748 -1.297942
102.200000 -1.297752 -1.297942
102.250000 -1.297760 -1.297942
102.300000 -1.297773 -1.297942
102.350000 -1.297790 -1.297942
102.400000 -1.297810 -1.297942
102.450000 -1.297832 -1.297942
102.500000 -1.297858 -1.297942
102.550000 -1.297885 -1.297942
102.600000 -1.297913 -1.297942
102.650000 -1.297941 -1.297942
102.700000 -1.297969 -1.297942
102.750000 -1.297997 -1.297942
102.800000 -1.298023 -1.297942
102.850000 -1.298046 -1.297942
102.900000 -1.298067 -1.297942
102.950000 -1.298085 -1.297942
103.000000 -1.298100 -1.297942
103.050000 -1.298110 -1.297942
103.100000 -1.298117 -1.297942
103.150000 -1.298119 -1.297942
103.200000 -1.298117 -1.297942
103.250000 -1.298111 -1.297942
103.300000 -1.298101 -1.297942
103.350000 -1.298088 -1.297942
103.400000 -1.298071 -1.297942
103.450000 -1.298051 -1.297942
103.500000 -1.298029 -1.297942
103.550000 -1.298005 -1.297942
103.600000 -1.297980 -1.297942
103.650000 -1.297954 -1.297942
103.700000 -1.297928 -1.297942
103.750000 -1.297903 -1.297942
103.800000 -1.297879 -1.297942
103.850000 -1.297856 -1.297942
103.900000 -1.297836 -1.297942
103.950000 -1.297818 -1.297942
104.000000 -1.297803 -1.297942
104.050000 -1.297792 -1.297942
104.100000 -1.297785 -1.297942
104.150000 -1.297781 -1.297942
104.200000 -1.297781 -1.297942
104.250000 -1.297785 -1.297942
104.300000 -1.297792 -1.297942
104.350000 -1.297803 -1.297942
104.400000 -1.297817 -1.297942
104.450000 -1.297834 -1.297942
104.500000 -1.297853 -1.297942
104.550000 -1.297874 -1.297942
104.600000 -1.297897 -1.297942
104.650000 -1.297920 -1.297942
104.700000 -1.297944 -1.297942
104.750000 -1.297967 -1.297942
104.800000 -1.297990 -1.297942
104.850000 -1.298011 -1.297942
104.900000 -1.298031 -1.297942
104.950000 -1.298048 -1.297942
105.000000 -1.298062 -1.297942
105.050000 -1.298074 -1.297942
105.100000 -1.298083 -1.297942
105.150000 -1.298088 -1.297942
105.200000 -1.298089 -1.297942
105.250000 -1.298087 -1.297942
105.300000 -1.298082 -1.297942
105.350000 -1.298073 -1.297942
105.400000 -1.298062 -1.297942
105.450000 -1.298048 -1.297942
105.500000 -1.298031 -1.297942
105.550000 -1.298012 -1.297942
105.600000 -1.297992 -1.297942
105.650000 -1.297971 -1.297942
105.700000 -1.297950 -1.297942
105.750000 -1.297928 -1.297942
105.800000 -1.297907 -1.297942
105.850000 -1.297887 -1.297942
105.900000 -1.297869 -1.297942
105.950000 -1.297852 -1.297942
106.000000 -1.297837 -1.297942
106.050000 -1.297826 -1.297942
106.100000 -1.297817 -1.297942
106.150000 -1.297811 -1.297942
106.200000 -1.297808 -1.297942
106.250000 -1.297808 -1.297942
106.300000 -1.297812 -1.297942
106.350000 -1.297818 -1.297942
106.400000 -1.297827 -1.297942
106.450000 -1.297839 -1.297942
106.500000 -1.297854 -1.297942
106.550000 -1.297870 -1.297942
106.600000 -1.297888 -1.297942
106.650000 -1.297906 -1.297942
106.700000 -1.297926 -1.297942
106.750000 -1.297946 -1.297942
106.800000 -1.297965 -1.297942
106.850000 -1.297984 -1.297942
106.900000 -1.298001 -1.297942
106.950000 -1.298017 -1.297942
107.000000 -1.298031 -1.297942
107.050000 -1.298043 -1.297942
107.100000 -1.298053 -1.297942
107.150000 -1.298059 -1.297942
107.200000 -1.298063 -1.297942
107.250000 -1.298064 -1.297942
107.300000 -1.298062 -1.297942
107.350000 -1.298058 -1.297942
107.400000 -1.298050 -1.297942
107.450000 -1.298040 -1.297942
107.500000 -1.298028 -1.297942
107.550000 -1.298014 -1.297942
107.600000 -1.297999 -1.297942
107.650000 -1.297982 -1.297942
107.700000 -1.297964 -1.297942
107.750000 -1.297946 -1.297942
107.800000 -1.297929 -1.297942
107.850000 -1.297911 -1.297942
107.900000 -1.297895 -1.297942
107.950000 -1.297879 -1.297942
108.000000 -1.297866 -1.297942
108.050000 -1.297854 -1.297942
108.100000 -1.297844 -1.297942
108.150000 -1.297837 -1.297942
108.200000 -1.297832 -1.297942
108.250000 -1.297830 -1.297942
108.300000 -1.297831 -1.297942
108.350000 -1.297834 -1.297942
108.400000 -1.297840 -1.297942
108.450000 -1.297848 -1.297942
108.500000 -1.297858 -1.297942
108.550000 -1.297870 -1.297942
108.600000 -1.297884 -1.297942
108.650000 -1.297898 -1.297942
108.700000 -1.297914 -1.297942
108.750000 -1.297930 -1.297942
108.800000 -1.297947 -1.297942
108.850000 -1.297963 -1.297942
108.900000 -1.297978 -1.297942
108.950000 -1.297993 -1.297942
109.000000 -1.298006 -1.297942
109.050000 -1.298017 -1.297942
109.100000 -1.298027 -1.297942
109.150000 -1.298035 -1.297942
109.200000 -1.298040 -1.297942
109.250000 -1.298043 -1.297942
109.300000 -1.298044 -1.297942
109.350000 -1.298042 -1.297942
109.400000 -1.298038 -1.297942
109.450000 -1.298031 -1.297942
109.500000 -1.298023 -1.297942
109.550000 -1.298013 -1.297942
109.600000 -1.298001 -1.297942
109.650000 -1.297988 -1.297942
109.700000 -1.297974 -1.297942
109.750000 -1.297959 -1.297942
109.800000 -1.297944 -1.297942
109.850000 -1.297929 -1.297942
109.900000 -1.297915 -1.297942
109.950000 -1.297901 -1.297942
110.000000 -1.297889 -1.297942
110.050000 -1.297877 -1.297942
110.100000 -1.297868 -1.297942
110.150000 -1.297860 -1.297942
110.200000 -1.297854 -1.297942
110.250000 -1.297851 -1.297942
110.300000 -1.297849 -1.297942
110.350000 -1.297850 -1.297942
110.400000 -1.297853 -1.297942
110.450000 -1.297858 -1.297942
110.500000 -1.297864 -1.297942
110.550000 -1.297873 -1.297942
110.600000 -1.297883 -1.297942
110.650000 -1.297895 -1.297942
110.700000 -1.297907 -1.297942
110.750000 -1.297920 -1.297942
110.800000 -1.297934 -1.297942
110.850000 -1.297947 -1.297942
110.900000 -1.297961 -1.297942
110.950000 -1.297974 -1.297942
111.000000 -1.297985 -1.297942
111.050000 -1.297996 -1.297942
111.100000 -1.298006 -1.297942
111.150000 -1.298014 -1.297942
111.200000 -1.298020 -1.297942
111.250000 -1.298024 -1.297942
111.300000 -1.298026 -1.297942
111.350000 -1.298026 -1.297942
111.400000 -1.298025 -1.297942
111.450000 -1.298021 -1.297942
111.500000 -1.298015 -1.297942
111.550000 -1.298008 -1.297942
111.600000 -1.298000 -1.297942
111.650000 -1.297990 -1.297942
111.700000 -1.297979 -1.297942
111.750000 -1.297967 -1.297942
111.800000 -1.297955 -1.297942
111.850000 -1.297942 -1.297942
111.900000 -1.297930 -1.297942
111.950000 -1.297918 -1.297942
112.000000 -1.297907 -1.297942
112.050000 -1.297897 -1.297942
112.100000 -1.297887 -1.297942
112.150000 -1.297880 -1.297942
112.200000 -1.297873 -1.297942
112.250000 -1.297869 -1.297942
112.300000 -1.297866 -1.297942
112.350000 -1.297865 -1.297942
112.400000 -1.297866 -1.297942
112.450000 -1.297868 -1.297942
112.500000 -1.297872 -1.297942
112.550000 -1.297878 -1.297942
112.600000 -1.297886 -1.297942
112.650000 -1.297894 -1.297942
112.700000 -1.297904 -1.297942
112.750000 -1.297914 -1.297942
112.800000 -1.297925 -1.297942
112.850000 -1.297936 -1.297942
112.900000 -1.297948 -1.297942
112.950000 -1.297959 -1.297942
113.000000 -1.297969 -1.297942
113.050000 -1.297979 -1.297942
113.100000 -1.297988 -1.297942
113.150000 -1.297996 -1.297942
113.200000 -1.298002 -1.297942
113.250000 -1.298007 -1.297942
113.300000 -1.298010 -1.297942
113.350000 -1.298012 -1.297942
113.400000 -1.298012 -1.297942
113.450000 -1.298010 -1.297942
113.500000 -1.298007 -1.297942
113.550000 -1.298002 -1.297942
113.600000 -1.297996 -1.297942
113.650000 -1.297989 -1.297942
113.700000 -1.297981 -1.297942
113.750000 -1.297971 -1.297942
113.800000 -1.297962 -1.297942
113.850000 -1.297951 -1.297942
113.900000 -1.297941 -1.297942
113.950000 -1.297931 -1.297942
114.000000 -1.297921 -1.297942
114.050000 -1.297912 -1.297942
114.100000 -1.297903 -1.297942
114.150000 -1.297896 -1.297942
114.200000 -1.297889 -1.297942
114.250000 -1.297884 -1.297942
114.300000 -1.297881 -1.297942
114.350000 -1.297878 -1.297942
114.400000 -1.297878 -1.297942
114.450000 -1.297879 -1.297942
114.500000 -1.297881 -1.297942
114.550000 -1.297885 -1.297942
114.600000 -1.297890 -1.297942
114.650000 -1.297896 -1.297942
114.700000 -1.297903 -1.297942
114.750000 -1.297911 -1.297942
114.800000 -1.297920 -1.297942
114.850000 -1.297929 -1.297942
114.900000 -1.297938 -1.297942
114.950000 -1.297948 -1.297942
115.000000 -1.297957 -1.297942
115.050000 -1.297966 -1.297942
115.100000 -1.297974 -1.297942
115.150000 -1.297981 -1.297942
115.200000 -1.297987 -1.297942
115.250000 -1.297992 -1.297942
115.300000 -1.297996 -1.297942
115.350000 -1.297999 -1.297942
115.400000 -1.298000 -1.297942
115.450000 -1.298000 -1.297942
115.500000 -1.297999 -1.297942
115.550000 -1.297996 -1.297942
115.600000 -1.297992 -1.297942
115.650000 -1.297987 -1.297942
115.700000 -1.297980 -1.297942
115.750000 -1.297973 -1.297942
115.800000 -1.297966 -1.297942
115.850000 -1.297957 -1.297942
115.900000 -1.297949 -1.297942
115.950000 -1.297940 -1.297942
116.000000 -1.297932 -1.297942
116.050000 -1.297924 -1.297942
116.100000 -1.297916 -1.297942
116.150000 -1.297909 -1.297942
116.200000 -1.297903 -1.297942
116.250000 -1.297898 -1.297942
116.300000 -1.297894 -1.297942
116.350000 -1.297891 -1.297942
116.400000 -1.297889 -1.297942
116.450000 -1.297889 -1.297942
116.500000 -1.297889 -1.297942
116.550000 -1.297891 -1.297942
116.600000 -1.297895 -1.297942
116.650000 -1.297899 -1.297942
116.700000 -1.297904 -1.297942
116.750000 -1.297910 -1.297942
116.800000 -1.297917 -1.297942
116.850000 -1.297924 -1.297942
116.900000 -1.297932 -1.297942
116.950000 -1.297940 -1.297942
117.000000 -1.297948 -1.297942
117.050000 -1.297955 -1.297942
117.100000 -1.297962 -1.297942
117.150000 -1.297969 -1.297942
117.200000 -1.297975 -1.297942
117.250000 -1.297980 -1.297942
117.300000 -1.297984 -1.297942
117.350000 -1.297987 -1.297942
117.400000 -1.297989 -1.297942
117.450000 -1.297990 -1.297942
117.500000 -1.297990 -1.297942
117.550000 -1.297989 -1.297942
117.600000 -1.297986 -1.297942
117.650000 -1.297983 -1.297942
117.700000 -1.297978 -1.297942
117.750000 -1.297973 -1.297942
117.800000 -1.297967 -1.297942
117.850000 -1.297961 -1.297942
117.900000 -1.297954 -1.297942
117.950000 -1.297947 -1.297942
118.000000 -1.297940 -1.297942
118.050000 -1.297933 -1.297942
118.100000 -1.297926 -1.297942
118.150000 -1.297920 -1.297942
118.200000 -1.297914 -1.297942
118.250000 -1.297909 -1.297942
118.300000 -1.297905 -1.297942
118.350000 -1.297901 -1.297942
118.400000 -1.297899 -1.297942
118.450000 -1.297898 -1.297942
118.500000 -1.297898 -1.297942
118.550000 -1.297898 -1.297942
118.600000 -1.297900 -1.297942
118.650000 -1.297903 -1.297942
118.700000 -1.297907 -1.297942
118.750000 -1.297911 -1.297942
118.800000 -1.297916 -1.297942
118.850000 -1.297922 -1.297942
118.900000 -1.297928 -1.297942
118.950000 -1.297934 -1.297942
119.000000 -1.297941 -1.297942
119.050000 -1.297947 -1.297942
119.100000 -1.297954 -1.297942
119.150000 -1.297959 -1.297942
119.200000 -1.297965 -1.297942
119.250000 -1.297970 -1.297942
119.300000 -1.297974 -1.297942
119.350000 -1.297977 -1.297942
119.400000 -1.297980 -1.297942
119.450000 -1.297982 -1.297942
119.500000 -1.297982 -1.297942
119.550000 -1.297982 -1.297942
119.600000 -1.297981 -1.297942
119.650000 -1.297979 -1.297942
119.700000 -1.297976 -1.297942
119.750000 -1.297972 -1.297942
119.800000 -1.297967 -1.297942
119.850000 -1.297963 -1.297942
119.900000 -1.297957 -1.297942
119.950000 -1.297951 -1.297942
120.000000 -1.297945 -1.297942
120.050000 -1.297940 -1.297942
120.100000 -1.297934 -1.297942
120.150000 -1.297928 -1.297942
120.200000 -1.297923 -1.297942
120.250000 -1.297918 -1.297942
120.300000 -1.297914 -1.297942
120.350000 -1.297911 -1.297942
120.400000 -1.297908 -1.297942
120.450000 -1.297906 -1.297942
120.500000 -1.297905 -1.297942
120.550000 -1.297905 -1.297942
120.600000 -1.297906 -1.297942
120.650000 -1.297907 -1.297942
120.700000 -1.297910 -1.297942
120.750000 -1.297913 -1.297942
120.800000 -1.297917 -1.297942
120.850000 -1.297921 -1.297942
120.900000 -1.297926 -1.297942
120.950000 -1.297931 -1.297942
121.000000 -1.297936 -1.297942
121.050000 -1.297942 -1.297942
121.100000 -1.297947 -1.297942
121.150000 -1.297952 -1.297942
121.200000 -1.297957 -1.297942
121.250000 -1.297962 -1.297942
121.300000 -1.297966 -1.297942
121.350000 -1.297969 -1.297942
121.400000 -1.297972 -1.297942
121.450000 -1.297974 -1.297942
121.500000 -1.297975 -1.297942
121.550000 -1.297975 -1.297942
121.600000 -1.297975 -1.297942
121.650000 -1.297974 -1.297942
121.700000 -1.297972 -1.297942
121.750000 -1.297970 -1.297942
121.800000 -1.297966 -1.297942
121.850000 -1.297963 -1.297942
121.900000 -1.297959 -1.297942
121.950000 -1.297954 -1.297942
122.000000 -1.297949 -1.297942
122.050000 -1.297944 -1.297942
122.100000 -1.297939 -1.297942
122.150000 -1.297935 -1.297942
122.200000 -1.297930 -1.297942
122.250000 -1.297926 -1.297942
122.300000 -1.297922 -1.297942
122.350000 -1.297918 -1.297942
122.400000 -1.297916 -1.297942
122.450000 -1.297914 -1.297942
122.500000 -1.297912 -1.297942
122.550000 -1.297911 -1.297942
122.600000 -1.297911 -1.297942
122.650000 -1.297912 -1.297942
122.700000 -1.297913 -1.297942
122.750000 -1.297915 -1.297942
122.800000 -1.297918 -1.297942
122.850000 -1.297921 -1.297942
122.900000 -1.297925 -1.297942
122.950000 -1.297929 -1.297942
123.000000 -1.297933 -1.297942
123.050000 -1.297938 -1.297942
123.100000 -1.297942 -1.297942
123.150000 -1.297947 -1.297942
123.200000 -1.297951 -1.297942
123.250000 -1.297955 -1.297942
123.300000 -1.297959 -1.297942
123.350000 -1.297962 -1.297942
123.400000 -1.297965 -1.297942
123.450000 -1.297967 -1.297942
123.500000 -1.297968 -1.297942
123.550000 -1.297969 -1.297942
123.600000 -1.297970 -1.297942
123.650000 -1.297969 -1.297942
123.700000 -1.297968 -1.297942
123.750000 -1.297967 -1.297942
123.800000 -1.297965 -1.297942
123.850000 -1.297962 -1.297942
123.900000 -1.297959 -1.297942
123.950000 -1.297955 -1.297942
124.000000 -1.297952 -1.297942
124.050000 -1.297948 -1.297942
124.100000 -1.297943 -1.297942
124.150000 -1.297939 -1.297942
124.200000 -1.297935 -1.297942
124.250000 -1.297932 -1.297942
124.300000 -1.297928 -1.297942
124.350000 -1.297925 -1.297942
124.400000 -1.297922 -1.297942
124.450000 -1.297920 -1.297942
124.500000 -1.297918 -1.297942
124.550000 -1.297917 -1.297942
124.600000 -1.297916 -1.297942
124.650000 -1.297917 -1.297942
124.700000 -1.297917 -1.297942
124.750000 -1.297918 -1.297942
124.800000 -1.297920 -1.297942
124.850000 -1.297922 -1.297942
124.900000 -1.297925 -1.297942
124.950000 -1.297928 -1.297942
125.000000 -1.297931 -1.297942
125.050000 -1.297935 -1.297942
125.100000 -1.297939 -1.297942
125.150000 -1.297942 -1.297942
125.200000 -1.297946 -1.297942
125.250000 -1.297950 -1.297942
125.300000 -1.297953 -1.297942
125.350000 -1.297956 -1.297942
125.400000 -1.297959 -1.297942
125.450000 -1.297961 -1.297942
125.500000 -1.297963 -1.297942
125.550000 -1.297964 -1.297942
125.600000 -1.297965 -1.297942
125.650000 -1.297965 -1.297942
125.700000 -1.297965 -1.297942
125.750000 -1.297964 -1.297942
125.800000 -1.297962 -1.297942
125.850000 -1.297961 -1.297942
125.900000 -1.297958 -1.297942
125.950000 -1.297956 -1.297942
126.000000 -1.297953 -1.297942
126.050000 -1.297950 -1.297942
126.100000 -1.297946 -1.297942
126.150000 -1.297943 -1.297942
126.200000 -1.297939 -1.297942
126.250000 -1.297936 -1.297942
126.300000 -1.297933 -1.297942
126.350000 -1.297930 -1.297942
126.400000 -1.297927 -1.297942
126.450000 -1.297925 -1.297942
126.500000 -1.297923 -1.297942
126.550000 -1.297922 -1.297942
126.600000 -1.297921 -1.297942
126.650000 -1.297921 -1.297942
126.700000 -1.297921 -1.297942
126.750000 -1.297921 -1.297942
126.800000 -1.297922 -1.297942
126.850000 -1.297924 -1.297942
126.900000 -1.297926 -1.297942
126.950000 -1.297928 -1.297942
127.000000 -1.297931 -1.297942
127.050000 -1.297934 -1.297942
127.100000 -1.297937 -1.297942
127.150000 -1.297940 -1.297942
127.200000 -1.297943 -1.297942
127.250000 -1.297946 -1.297942
127.300000 -1.297949 -1.297942
127.350000 -1.297951 -1.297942
127.400000 -1.297954 -1.297942
127.450000 -1.297956 -1.297942
127.500000 -1.297958 -1.297942
127.550000 -1.297959 -1.297942
127.600000 -1.297960 -1.297942
127.650000 -1.297961 -1.297942
127.700000 -1.297961 -1.297942
127.750000 -1.297961 -1.297942
127.800000 -1.297960 -1.297942
127.850000 -1.297959 -1.297942
127.900000 -1.297957 -1.297942
127.950000 -1.297955 -1.297942
128.000000 -1.297953 -1.297942
128.050000 -1.297951 -1.297942
128.100000 -1.297948 -1.297942
128.150000 -1.297945 -1.297942
128.200000 -1.297942 -1.297942
128.250000 -1.297940 -1.297942
128.300000 -1.297937 -1.297942
128.350000 -1.297934 -1.297942
128.400000 -1.297932 -1.297942
128.450000 -1.297930 -1.297942
128.500000 -1.297928 -1.297942
128.550000 -1.297926 -1.297942
128.600000 -1.297925 -1.297942
128.650000 -1.297925 -1.297942
128.700000 -1.297924 -1.297942
128.750000 -1.297924 -1.297942
128.800000 -1.297925 -1.297942
128.850000 -1.297926 -1.297942
128.900000 -1.297927 -1.297942
128.950000 -1.297929 -1.297942
129.000000 -1.297931 -1.297942
129.050000 -1.297933 -1.297942
129.100000 -1.297935 -1.297942
129.150000 -1.297938 -1.297942
129.200000 -1.297940 -1.297942
129.250000 -1.297943 -1.297942
129.300000 -1.297945 -1.297942
129.350000 -1.297948 -1.297942
129.400000 -1.297950 -1.297942
129.450000 -1.297952 -1.297942
129.500000 -1.297954 -1.297942
129.550000 -1.297955 -1.297942
129.600000 -1.297957 -1.297942
129.650000 -1.297957 -1.297942
129.700000 -1.297958 -1.297942
129.750000 -1.297958 -1.297942
129.800000 -1.297958 -1.297942
129.850000 -1.297957 -1.297942
129.900000 -1.297956 -1.297942
129.950000 -1.297954 -1.297942
130.000000 -1.297953 -1.297942
130.050000 -1.297951 -1.297942
130.100000 -1.297949 -1.297942
130.150000 -1.297947 -1.297942
130.200000 -1.297944 -1.297942
130.250000 -1.297942 -1.297942
130.300000 -1.297940 -1.297942
130.350000 -1.297937 -1.297942
130.400000 -1.297935 -1.297942
130.450000 -1.297933 -1.297942
130.500000 -1.297932 -1.297942
130.550000 -1.297930 -1.297942
130.600000 -1.297929 -1.297942
130.650000 -1.297928 -1.297942
130.700000 -1.297927 -1.297942
130.750000 -1.297927 -1.297942
130.800000 -1.297927 -1.297942
130.850000 -1.297928 -1.297942
130.900000 -1.297929 -1.297942
130.950000 -1.297930 -1.297942
131.000000 -1.297931 -1.297942
131.050000 -1.297933 -1.297942
131.100000 -1.297935 -1.297942
131.150000 -1.297937 -1.297942
131.200000 -1.297939 -1.297942
131.250000 -1.297941 -1.297942
131.300000 -1.297943 -1.297942
131.350000 -1.297945 -1.297942
131.400000 -1.297947 -1.297942
131.450000 -1.297949 -1.297942
131.500000 -1.297951 -1.297942
131.550000 -1.297952 -1.297942
131.600000 -1.297953 -1.297942
131.650000 -1.297954 -1.297942
131.700000 -1.297955 -1.297942
131.750000 -1.297955 -1.297942
131.800000 -1.297955 -1.297942
131.850000 -1.297955 -1.297942
131.900000 -1.297954 -1.297942
131.950000 -1.297953 -1.297942
132.000000 -1.297952 -1.297942
132.050000 -1.297951 -1.297942
132.100000 -1.297949 -1.297942
132.150000 -1.297948 -1.297942
132.200000 -1.297946 -1.297942
132.250000 -1.297944 -1.297942
132.300000 -1.297942 -1.297942
132.350000 -1.297940 -1.297942
132.400000 -1.297938 -1.297942
132.450000 -1.297936 -1.297942
132.500000 -1.297935 -1.297942
132.550000 -1.297933 -1.297942
132.600000 -1.297932 -1.297942
132.650000 -1.297931 -1.297942
132.700000 -1.297930 -1.297942
132.750000 -1.297930 -1.297942
132.800000 -1.297930 -1.297942
132.850000 -1.297930 -1.297942
132.900000 -1.297930 -1.297942
132.950000 -1.297931 -1.297942
133.000000 -1.297932 -1.297942
133.050000 -1.297933 -1.297942
133.100000 -1.297934 -1.297942
133.150000 -1.297936 -1.297942
133.200000 -1.297938 -1.297942
133.250000 -1.297939 -1.297942
133.300000 -1.297941 -1.297942
133.350000 -1.297943 -1.297942
133.400000 -1.297945 -1.297942
133.450000 -1.297946 -1.297942
133.500000 -1.297948 -1.297942
133.550000 -1.297949 -1.297942
133.600000 -1.297950 -1.297942
133.650000 -1.297951 -1.297942
133.700000 -1.297952 -1.297942
133.750000 -1.297953 -1.297942
133.800000 -1.297953 -1.297942
133.850000 -1.297953 -1.297942
133.900000 -1.297953 -1.297942
133.950000 -1.297952 -1.297942
134.000000 -1.297951 -1.297942
134.050000 -1.297950 -1.297942
134.100000 -1.297949 -1.297942
134.150000 -1.297948 -1.297942
134.200000 -1.297946 -1.297942
134.250000 -1.297945 -1.297942
134.300000 -1.297943 -1.297942
134.350000 -1.297942 -1.297942
134.400000 -1.297940 -1.297942
134.450000 -1.297938 -1.297942
134.500000 -1.297937 -1.297942
134.550000 -1.297936 -1.297942
134.600000 -1.297935 -1.297942
134.650000 -1.297934 -1.297942
134.700000 -1.297933 -1.297942
134.750000 -1.297932 -1.297942
134.800000 -1.297932 -1.297942
134.850000 -1.297932 -1.297942
134.900000 -1.297932 -1.297942
134.950000 -1.297932 -1.297942
135.000000 -1.297933 -1.297942
135.050000 -1.297934 -1.297942
135.100000 -1.297935 -1.297942
135.150000 -1.297936 -1.297942
135.200000 -1.297937 -1.297942
135.250000 -1.297938 -1.297942
135.300000 -1.297940 -1.297942
135.350000 -1.297941 -1.297942
135.400000 -1.297943 -1.297942
135.450000 -1.297944 -1.297942
135.500000 -1.297946 -1.297942
135.550000 -1.297947 -1.297942
135.600000 -1.297948 -1.297942
135.650000 -1.297949 -1.297942
135.700000 -1.297950 -1.297942
135.750000 -1.297950 -1.297942
135.800000 -1.297951 -1.297942
135.850000 -1.297951 -1.297942
135.900000 -1.297951 -1.297942
135.950000 -1.297951 -1.297942
136.000000 -1.297950 -1.297942
136.050000 -1.297950 -1.297942
136.100000 -1.297949 -1.297942
136.150000 -1.297948 -1.297942
136.200000 -1.297947 -1.297942
136.250000 -1.297946 -1.297942
136.300000 -1.297944 -1.297942
136.350000 -1.297943 -1.297942
136.400000 -1.297942 -1.297942
136.450000 -1.297940 -1.297942
136.500000 -1.297939 -1.297942
136.550000 -1.297938 -1.297942
136.600000 -1.297937 -1.297942
136.650000 -1.297936 -1.297942
136.700000 -1.297935 -1.297942
136.750000 -1.297934 -1.297942
136.800000 -1.297934 -1.297942
136.850000 -1.297934 -1.297942
136.900000 -1.297933 -1.297942
136.950000 -1.297934 -1.297942
137.000000 -1.297934 -1.297942
137.050000 -1.297934 -1.297942
137.100000 -1.297935 -1.297942
137.150000 -1.297936 -1.297942
137.200000 -1.297937 -1.297942
137.250000 -1.297938 -1.297942
137.300000 -1.297939 -1.297942
137.350000 -1.297940 -1.297942
137.400000 -1.297942 -1.297942
137.450000 -1.297943 -1.297942
137.500000 -1.297944 -1.297942
137.550000 -1.297945 -1.297942
137.600000 -1.297946 -1.297942
137.650000 -1.297947 -1.297942
137.700000 -1.297948 -1.297942
137.750000 -1.297949 -1.297942
137.800000 -1.297949 -1.297942
137.850000 -1.297949 -1.297942
137.900000 -1.297950 -1.297942
137.950000 -1.297949 -1.297942
138.000000 -1.297949 -1.297942
138.050000 -1.297949 -1.297942
138.100000 -1.297948 -1.297942
138.150000 -1.297948 -1.297942
138.200000 -1.297947 -1.297942
138.250000 -1.297946 -1.297942
138.300000 -1.297945 -1.297942
138.350000 -1.297944 -1.297942
138.400000 -1.297943 -1.297942
138.450000 -1.297941 -1.297942
138.500000 -1.297940 -1.297942
138.550000 -1.297939 -1.297942
138.600000 -1.297938 -1.297942
138.650000 -1.297937 -1.297942
138.700000 -1.297937 -1.297942
138.750000 -1.297936 -1.297942
138.800000 -1.297935 -1.297942
138.850000 -1.297935 -1.297942
138.900000 -1.297935 -1.297942
138.950000 -1.297935 -1.297942
139.000000 -1.297935 -1.297942
139.050000 -1.297935 -1.297942
139.100000 -1.297936 -1.297942
139.150000 -1.297936 -1.297942
139.200000 -1.297937 -1.297942
139.250000 -1.297938 -1.297942
139.300000 -1.297939 -1.297942
139.350000 -1.297940 -1.297942
139.400000 -1.297941 -1.297942
139.450000 -1.297942 -1.297942
139.500000 -1.297943 -1.297942
139.550000 -1.297944 -1.297942
139.600000 -1.297945 -1.297942
139.650000 -1.297946 -1.297942
139.700000 -1.297946 -1.297942
139.750000 -1.297947 -1.297942
139.800000 -1.297947 -1.297942
139.850000 -1.297948 -1.297942
139.900000 -1.297948 -1.297942
139.950000 -1.297948 -1.297942
140.000000 -1.297948 -1.297942
140.050000 -1.297948 -1.297942
140.100000 -1.297948 -1.297942
140.150000 -1.297947 -1.297942
140.200000 -1.297947 -1.297942
140.250000 -1.297946 -1.297942
140.300000 -1.297945 -1.297942
140.350000 -1.297944 -1.297942
140.400000 -1.297943 -1.297942
140.450000 -1.297942 -1.297942
140.500000 -1.297941 -1.297942
140.550000 -1.297941 -1.297942
140.600000 -1.297940 -1.297942
140.650000 -1.297939 -1.297942
140.700000 -1.297938 -1.297942
140.750000 -1.297937 -1.297942
140.800000 -1.297937 -1.297942
140.850000 -1.297937 -1.297942
140.900000 -1.297936 -1.297942
140.950000 -1.297936 -1.297942
141.000000 -1.297936 -1.297942
141.050000 -1.297936 -1.297942
141.100000 -1.297936 -1.297942
141.150000 -1.297937 -1.297942
141.200000 -1.297937 -1.297942
141.250000 -1.297938 -1.297942
141.300000 -1.297939 -1.297942
141.350000 -1.297939 -1.297942
141.400000 -1.297940 -1.297942
141.450000 -1.297941 -1.297942
141.500000 -1.297942 -1.297942
141.550000 -1.297943 -1.297942
141.600000 -1.297944 -1.297942
141.650000 -1.297944 -1.297942
141.700000 -1.297945 -1.297942
141.750000 -1.297946 -1.297942
141.800000 -1.297946 -1.297942
141.850000 -1.297947 -1.297942
141.900000 -1.297947 -1.297942
141.950000 -1.297947 -1.297942
142.000000 -1.297947 -1.297942
142.050000 -1.297947 -1.297942
142.100000 -1.297947 -1.297942
142.150000 -1.297947 -1.297942
142.200000 -1.297946 -1.297942
142.250000 -1.297946 -1.297942
142.300000 -1.297945 -1.297942
142.350000 -1.297944 -1.297942
142.400000 -1.297944 -1.297942
142.450000 -1.297943 -1.297942
142.500000 -1.297942 -1.297942
142.550000 -1.297941 -1.297942
142.600000 -1.297941 -1.297942
142.650000 -1.297940 -1.297942
142.700000 -1.297939 -1.297942
142.750000 -1.297939 -1.297942
142.800000 -1.297938 -1.297942
142.850000 -1.297938 -1.297942
142.900000 -1.297937 -1.297942
142.950000 -1.297937 -1.297942
143.000000 -1.297937 -1.297942
143.050000 -1.297937 -1.297942
143.100000 -1.297937 -1.297942
143.150000 -1.297937 -1.297942
143.200000 -1.297938 -1.297942
143.250000 -1.297938 -1.297942
143.300000 -1.297939 -1.297942
143.350000 -1.297939 -1.297942
143.400000 -1.297940 -1.297942
143.450000 -1.297941 -1.297942
143.500000 -1.297941 -1.297942
143.550000 -1.297942 -1.297942
143.600000 -1.297943 -1.297942
143.650000 -1.297943 -1.297942
143.700000 -1.297944 -1.297942
143.750000 -1.297945 -1.297942
143.800000 -1.297945 -1.297942
143.850000 -1.297945 -1.297942
143.900000 -1.297946 -1.297942
143.950000 -1.297946 -1.297942
144.000000 -1.297946 -1.297942
144.050000 -1.297946 -1.297942
144.100000 -1.297946 -1.297942
144.150000 -1.297946 -1.297942
144.200000 -1.297946 -1.297942
144.250000 -1.297945 -1.297942
144.300000 -1.297945 -1.297942
144.350000 -1.297944 -1.297942
144.400000 -1.297944 -1.297942
144.450000 -1.297943 -1.297942
144.500000 -1.297943 -1.297942
144.550000 -1.297942 -1.297942
144.600000 -1.297941 -1.297942
144.650000 -1.297941 -1.297942
144.700000 -1.297940 -1.297942
144.750000 -1.297940 -1.297942
144.800000 -1.297939 -1.297942
144.850000 -1.297939 -1.297942
144.900000 -1.297938 -1.297942
144.950000 -1.297938 -1.297942
145.000000 -1.297938 -1.297942
145.050000 -1.297938 -1.297942
145.100000 -1.297938 -1.297942
145.150000 -1.297938 -1.297942
145.200000 -1.297938 -1.297942
145.250000 -1.297938 -1.297942
145.300000 -1.297939 -1.297942
145.350000 -1.297939 -1.297942
145.400000 -1.297940 -1.297942
145.450000 -1.297940 -1.297942
145.500000 -1.297941 -1.297942
145.550000 -1.297941 -1.297942
145.600000 -1.297942 -1.297942
145.650000 -1.297943 -1.297942
145.700000 -1.297943 -1.297942
145.750000 -1.297944 -1.297942
145.800000 -1.297944 -1.297942
145.850000 -1.297945 -1.297942
145.900000 -1.297945 -1.297942
145.950000 -1.297945 -1.297942
146.000000 -1.297945 -1.297942
146.050000 -1.297945 -1.297942
146.100000 -1.297946 -1.297942
146.150000 -1.297945 -1.297942
146.200000 -1.297945 -1.297942
146.250000 -1.297945 -1.297942
146.300000 -1.297945 -1.297942
146.350000 -1.297944 -1.297942
146.400000 -1.297944 -1.297942
146.450000 -1.297944 -1.297942
146.500000 -1.297943 -1.297942
146.550000 -1.297943 -1.297942
146.600000 -1.297942 -1.297942
146.650000 -1.297941 -1.297942
146.700000 -1.297941 -1.297942
146.750000 -1.297940 -1.297942
146.800000 -1.297940 -1.297942
146.850000 -1.297940 -1.297942
146.900000 -1.297939 -1.297942
146.950000 -1.297939 -1.297942
147.000000 -1.297939 -1.297942
147.050000 -1.297939 -1.297942
147.100000 -1.297939 -1.297942
147.150000 -1.297939 -1.297942
147.200000 -1.297939 -1.297942
147.250000 -1.297939 -1.297942
147.300000 -1.297939 -1.297942
147.350000 -1.297939 -1.297942
147.400000 -1.297940 -1.297942
147.450000 -1.297940 -1.297942
147.500000 -1.297941 -1.297942
147.550000 -1.297941 -1.297942
147.600000 -1.297942 -1.297942
147.650000 -1.297942 -1.297942
147.700000 -1.297943 -1.297942
147.750000 -1.297943 -1.297942
147.800000 -1.297943 -1.297942
147.850000 -1.297944 -1.297942
147.900000 -1.297944 -1.297942
147.950000 -1.297944 -1.297942
148.000000 -1.297945 -1.297942
148.050000 -1.297945 -1.297942
148.100000 -1.297945 -1.297942
148.150000 -1.297945 -1.297942
148.200000 -1.297945 -1.297942
148.250000 -1.297945 -1.297942
148.300000 -1.297945 -1.297942
148.350000 -1.297944 -1.297942
148.400000 -1.297944 -1.297942
148.450000 -1.297944 -1.297942
148.500000 -1.297943 -1.297942
148.550000 -1.297943 -1.297942
148.600000 -1.297942 -1.297942
148.650000 -1.297942 -1.297942
148.700000 -1.297941 -1.297942
148.750000 -1.297941 -1.297942
148.800000 -1.297941 -1.297942
148.850000 -1.297940 -1.297942
148.900000 -1.297940 -1.297942
148.950000 -1.297940 -1.297942
149.000000 -1.297939 -1.297942
149.050000 -1.297939 -1.297942
149.100000 -1.297939 -1.297942
149.150000 -1.297939 -1.297942
149.200000 -1.297939 -1.297942
149.250000 -1.297939 -1.297942
149.300000 -1.297939 -1.297942
149.350000 -1.297940 -1.297942
149.400000 -1.297940 -1.297942
149.450000 -1.297940 -1.297942
149.500000 -1.297940 -1.297942
149.550000 -1.297941 -1.297942
149.600000 -1.297941 -1.297942
149.650000 -1.297942 -1.297942
149.700000 -1.297942 -1.297942
149.750000 -1.297942 -1.297942
149.800000 -1.297943 -1.297942
149.850000 -1.297943 -1.297942
149.900000 -1.297943 -1.297942
149.950000 -1.297944 -1.297942
150.000000 -1.297944 -1.297942
150.050000 -1.297944 -1.297942
150.100000 -1.297944 -1.297942
150.150000 -1.297944 -1.297942
150.200000 -1.297944 -1.297942
150.250000 -1.297944 -1.297942
150.300000 -1.297944 -1.297942
150.350000 -1.297944 -1.297942
150.400000 -1.297944 -1.297942
150.450000 -1.297944 -1.297942
150.500000 -1.297943 -1.297942
150.550000 -1.297943 -1.297942
150.600000 -1.297943 -1.297942
150.650000 -1.297942 -1.297942
150.700000 -1.297942 -1.297942
150.750000 -1.297941 -1.297942
150.800000 -1.297941 -1.297942
150.850000 -1.297941 -1.297942
150.900000 -1.297940 -1.297942
150.950000 -1.297940 -1.297942
151.000000 -1.297940 -1.297942
151.050000 -1.297940 -1.297942
151.100000 -1.297940 -1.297942
151.150000 -1.297940 -1.297942
151.200000 -1.297940 -1.297942
151.250000 -1.297940 -1.297942
151.300000 -1.297940 -1.297942
151.350000 -1.297940 -1.297942
151.400000 -1.297940 -1.297942
151.450000 -1.297940 -1.297942
151.500000 -1.297940 -1.297942
151.550000 -1.297941 -1.297942
151.600000 -1.297941 -1.297942
151.650000 -1.297941 -1.297942
151.700000 -1.297942 -1.297942
151.750000 -1.297942 -1.297942
151.800000 -1.297942 -1.297942
151.850000 -1.297943 -1.297942
151.900000 -1.297943 -1.297942
151.950000 -1.297943 -1.297942
152.000000 -1.297943 -1.297942
152.050000 -1.297944 -1.297942
152.100000 -1.297944 -1.297942
152.150000 -1.297944 -1.297942
152.200000 -1.297944 -1.297942
152.250000 -1.297944 -1.297942
152.300000 -1.297944 -1.297942
152.350000 -1.297944 -1.297942
152.400000 -1.297944 -1.297942
152.450000 -1.297943 -1.297942
152.500000 -1.297943 -1.297942
152.550000 -1.297943 -1.297942
152.600000 -1.297943 -1.297942
152.650000 -1.297942 -1.297942
152.700000 -1.297942 -1.297942
152.750000 -1.297942 -1.297942
152.800000 -1.297942 -1.297942
152.850000 -1.297941 -1.297942
152.900000 -1.297941 -1.297942
152.950000 -1.297941 -1.297942
153.000000 -1.297940 -1.297942
153.050000 -1.297940 -1.297942
153.100000 -1.297940 -1.297942
153.150000 -1.297940 -1.297942
153.200000 -1.297940 -1.297942
153.250000 -1.297940 -1.297942
153.300000 -1.297940 -1.297942
153.350000 -1.297940 -1.297942
153.400000 -1.297940 -1.297942
153.450000 -1.297940 -1.297942
153.500000 -1.297940 -1.297942
153.550000 -1.297941 -1.297942
153.600000 -1.297941 -1.297942
153.650000 -1.297941 -1.297942
153.700000 -1.297941 -1.297942
153.750000 -1.297942 -1.297942
153.800000 -1.297942 -1.297942
153.850000 -1.297942 -1.297942
153.900000 -1.297943 -1.297942
153.950000 -1.297943 -1.297942
154.000000 -1.297943 -1.297942
154.050000 -1.297943 -1.297942
154.100000 -1.297943 -1.297942
154.150000 -1.297943 -1.297942
154.200000 -1.297944 -1.297942
154.250000 -1.297944 -1.297942
154.300000 -1.297944 -1.297942
154.350000 -1.297944 -1.297942
154.400000 -1.297943 -1.297942
154.450000 -1.297943 -1.297942
154.500000 -1.297943 -1.297942
154.550000 -1.297943 -1.297942
154.600000 -1.297943 -1.297942
154.650000 -1.297943 -1.297942
154.700000 -1.297942 -1.297942
154.750000 -1.297942 -1.297942
154.800000 -1.297942 -1.297942
154.850000 -1.297942 -1.297942
154.900000 -1.297941 -1.297942
154.950000 -1.297941 -1.297942
155.000000 -1.297941 -1.297942
155.050000 -1.297941 -1.297942
155.100000 -1.297941 -1.297942
155.150000 -1.297940 -1.297942
155.200000 -1.297940 -1.297942
155.250000 -1.297940 -1.297942
155.300000 -1.297940 -1.297942
155.350000 -1.297940 -1.297942
155.400000 -1.297940 -1.297942
155.450000 -1.297940 -1.297942
155.500000 -1.297941 -1.297942
155.550000 -1.297941 -1.297942
155.600000 -1.297941 -1.297942
155.650000 -1.297941 -1.297942
155.700000 -1.297941 -1.297942
155.750000 -1.297942 -1.297942
155.800000 -1.297942 -1.297942
155.850000 -1.297942 -1.297942
155.900000 -1.297942 -1.297942
155.950000 -1.297942 -1.297942
156.000000 -1.297943 -1.297942
156.050000 -1.297943 -1.297942
156.100000 -1.297943 -1.297942
156.150000 -1.297943 -1.297942
156.200000 -1.297943 -1.297942
156.250000 -1.297943 -1.297942
156.300000 -1.297943 -1.297942
156.350000 -1.297943 -1.297942
156.400000 -1.297943 -1.297942
156.450000 -1.297943 -1.297942
156.500000 -1.297943 -1.297942
156.550000 -1.297943 -1.297942
156.600000 -1.297943 -1.297942
156.650000 -1.297943 -1.297942
156.700000 -1.297942 -1.297942
156.750000 -1.297942 -1.297942
156.800000 -1.297942 -1.297942
156.850000 -1.297942 -1.297942
156.900000 -1.297942 -1.297942
156.950000 -1.297941 -1.297942
157.000000 -1.297941 -1.297942
157.050000 -1.297941 -1.297942
157.100000 -1.297941 -1.297942
157.150000 -1.297941 -1.297942
157.200000 -1.297941 -1.297942
157.250000 -1.297941 -1.297942
157.300000 -1.297941 -1.297942
157.350000 -1.297941 -1.297942
157.400000 -1.297941 -1.297942
157.450000 -1.297941 -1.297942
157.500000 -1.297941 -1.297942
157.550000 -1.297941 -1.297942
157.600000 -1.297941 -1.297942
157.650000 -1.297941 -1.297942
157.700000 -1.297941 -1.297942
157.750000 -1.297941 -1.297942
157.800000 -1.297942 -1.297942
157.850000 -1.297942 -1.297942
157.900000 -1.297942 -1.297942
157.950000 -1.297942 -1.297942
158.000000 -1.297942 -1.297942
158.050000 -1.297943 -1.297942
158.100000 -1.297943 -1.297942
158.150000 -1.297943 -1.297942
158.200000 -1.297943 -1.297942
158.250000 -1.297943 -1.297942
158.300000 -1.297943 -1.297942
158.350000 -1.297943 -1.297942
158.400000 -1.297943 -1.297942
158.450000 -1.297943 -1.297942
158.500000 -1.297943 -1.297942
158.550000 -1.297943 -1.297942
158.600000 -1.297943 -1.297942
158.650000 -1.297943 -1.297942
158.700000 -1.297942 -1.297942
158.750000 -1.297942 -1.297942
158.800000 -1.297942 -1.297942
158.850000 -1.297942 -1.297942
158.900000 -1.297942 -1.297942
158.950000 -1.297942 -1.297942
159.000000 -1.297941 -1.297942
159.050000 -1.297941 -1.297942
159.100000 -1.297941 -1.297942
159.150000 -1.297941 -1.297942
159.200000 -1.297941 -1.297942
159.250000 -1.297941 -1.297942
159.300000 -1.297941 -1.297942
159.350000 -1.297941 -1.297942
159.400000 -1.297941 -1.297942
159.450000 -1.297941 -1.297942
159.500000 -1.297941 -1.297942
159.550000 -1.297941 -1.297942
159.600000 -1.297941 -1.297942
159.650000 -1.297941 -1.297942
159.700000 -1.297941 -1.297942
159.750000 -1.297941 -1.297942
159.800000 -1.297942 -1.297942
159.850000 -1.297942 -1.297942
159.900000 -1.297942 -1.297942
159.950000 -1.297942 -1.297942
160.000000 -1.297942 -1.297942
160.050000 -1.297942 -1.297942
160.100000 -1.297942 -1.297942
160.150000 -1.297943 -1.297942
160.200000 -1.297943 -1.297942
160.250000 -1.297943 -1.297942
160.300000 -1.297943 -1.297942
160.350000 -1.297943 -1.297942
160.400000 -1.297943 -1.297942
160.450000 -1.297943 -1.297942
160.500000 -1.297943 -1.297942
160.550000 -1.297943 -1.297942
160.600000 -1.297943 -1.297942
160.650000 -1.297943 -1.297942
160.700000 -1.297942 -1.297942
160.750000 -1.297942 -1.297942
160.800000 -1.297942 -1.297942
160.850000 -1.297942 -1.297942
160.900000 -1.297942 -1.297942
160.950000 -1.297942 -1.297942
161.000000 -1.297942 -1.297942
161.050000 -1.297941 -1.297942
161.100000 -1.297941 -1.297942
161.150000 -1.297941 -1.297942
161.200000 -1.297941 -1.297942
161.250000 -1.297941 -1.297942
161.300000 -1.297941 -1.297942
161.350000 -1.297941 -1.297942
161.400000 -1.297941 -1.297942
161.450000 -1.297941 -1.297942
161.500000 -1.297941 -1.297942
161.550000 -1.297941 -1.297942
161.600000 -1.297941 -1.297942
161.650000 -1.297941 -1.297942
161.700000 -1.297941 -1.297942
161.750000 -1.297941 -1.297942
161.800000 -1.297941 -1.297942
161.850000 -1.297942 -1.297942
161.900000 -1.297942 -1.297942
161.950000 -1.297942 -1.297942
162.000000 -1.297942 -1.297942
162.050000 -1.297942 -1.297942
162.100000 -1.297942 -1.297942
162.150000 -1.297942 -1.297942
162.200000 -1.297942 -1.297942
162.250000 -1.297943 -1.297942
162.300000 -1.297943 -1.297942
162.350000 -1.297943 -1.297942
162.400000 -1.297943 -1.297942
162.450000 -1.297943 -1.297942
162.500000 -1.297943 -1.297942
162.550000 -1.297943 -1.297942
162.600000 -1.297943 -1.297942
162.650000 -1.297943 -1.297942
162.700000 -1.297942 -1.297942
162.750000 -1.297942 -1.297942
162.800000 -1.297942 -1.297942
162.850000 -1.297942 -1.297942
162.900000 -1.297942 -1.297942
162.950000 -1.297942 -1.297942
163.000000 -1.297942 -1.297942
163.050000 -1.297942 -1.297942
163.100000 -1.297942 -1.297942
163.150000 -1.297941 -1.297942
163.200000 -1.297941 -1.297942
163.250000 -1.297941 -1.297942
163.300000 -1.297941 -1.297942
163.350000 -1.297941 -1.297942
163.400000 -1.297941 -1.297942
163.450000 -1.297941 -1.297942
163.500000 -1.297941 -1.297942
163.550000 -1.297941 -1.297942
163.600000 -1.297941 -1.297942
163.650000 -1.297941 -1.297942
163.700000 -1.297941 -1.297942
163.750000 -1.297941 -1.297942
163.800000 -1.297941 -1.297942
163.850000 -1.297942 -1.297942
163.900000 -1.297942 -1.297942
163.950000 -1.297942 -1.297942
164.000000 -1.297942 -1.297942
164.050000 -1.297942 -1.297942
164.100000 -1.297942 -1.297942
164.150000 -1.297942 -1.297942
164.200000 -1.297942 -1.297942
164.250000 -1.297942 -1.297942
164.300000 -1.297942 -1.297942
164.350000 -1.297942 -1.297942
164.400000 -1.297943 -1.297942
164.450000 -1.297943 -1.297942
164.500000 -1.297943 -1.297942
164.550000 -1.297943 -1.297942
164.600000 -1.297943 -1.297942
164.650000 -1.297942 -1.297942
164.700000 -1.297942 -1.297942
164.750000 -1.297942 -1.297942
164.800000 -1.297942 -1.297942
164.850000 -1.297942 -1.297942
164.900000 -1.297942 -1.297942
164.950000 -1.297942 -1.297942
165.000000 -1.297942 -1.297942
165.050000 -1.297942 -1.297942
165.100000 -1.297942 -1.297942
165.150000 -1.297942 -1.297942
165.200000 -1.297942 -1.297942
165.250000 -1.297941 -1.297942
165.300000 -1.297941 -1.297942
165.350000 -1.297941 -1.297942
165.400000 -1.297941 -1.297942
165.450000 -1.297941 -1.297942
165.500000 -1.297941 -1.297942
165.550000 -1.297941 -1.297942
165.600000 -1.297941 -1.297942
165.650000 -1.297941 -1.297942
165.700000 -1.297941 -1.297942
165.750000 -1.297941 -1.297942
165.800000 -1.297941 -1.297942
165.850000 -1.297942 -1.297942
165.900000 -1.297942 -1.297942
165.950000 -1.297942 -1.297942
166.000000 -1.297942 -1.297942
166.050000 -1.297942 -1.297942
166.100000 -1.297942 -1.297942
166.150000 -1.297942 -1.297942
166.200000 -1.297942 -1.297942
166.250000 -1.297942 -1.297942
166.300000 -1.297942 -1.297942
166.350000 -1.297942 -1.297942
166.400000 -1.297942 -1.297942
166.450000 -1.297942 -1.297942
166.500000 -1.297942 -1.297942
166.550000 -1.297942 -1.297942
166.600000 -1.297942 -1.297942
166.650000 -1.297942 -1.297942
166.700000 -1.297942 -1.297942
166.750000 -1.297942 -1.297942
166.800000 -1.297942 -1.297942
166.850000 -1.297942 -1.297942
166.900000 -1.297942 -1.297942
166.950000 -1.297942 -1.297942
167.000000 -1.297942 -1.297942
167.050000 -1.297942 -1.297942
167.100000 -1.297942 -1.297942
167.150000 -1.297942 -1.297942
167.200000 -1.297942 -1.297942
167.250000 -1.297942 -1.297942
167.300000 -1.297941 -1.297942
167.350000 -1.297941 -1.297942
167.400000 -1.297941 -1.297942
167.450000 -1.297941 -1.297942
167.500000 -1.297941 -1.297942
167.550000 -1.297941 -1.297942
167.600000 -1.297941 -1.297942
167.650000 -1.297941 -1.297942
167.700000 -1.297941 -1.297942
167.750000 -1.297941 -1.297942
167.800000 -1.297941 -1.297942
167.850000 -1.297942 -1.297942
167.900000 -1.297942 -1.297942
167.950000 -1.297942 -1.297942
168.000000 -1.297942 -1.297942
168.050000 -1.297942 -1.297942
168.100000 -1.297942 -1.297942
168.150000 -1.297942 -1.297942
168.200000 -1.297942 -1.297942
168.250000 -1.297942 -1.297942
168.300000 -1.297942 -1.297942
168.350000 -1.297942 -1.297942
168.400000 -1.297942 -1.297942
168.450000 -1.297942 -1.297942
168.500000 -1.297942 -1.297942
168.550000 -1.297942 -1.297942
168.600000 -1.297942 -1.297942
168.650000 -1.297942 -1.297942
168.700000 -1.297942 -1.297942
168.750000 -1.297942 -1.297942
168.800000 -1.297942 -1.297942
168.850000 -1.297942 -1.297942
168.900000 -1.297942 -1.297942
168.950000 -1.297942 -1.297942
169.000000 -1.297942 -1.297942
169.050000 -1.297942 -1.297942
169.100000 -1.297942 -1.297942
169.150000 -1.297942 -1.297942
169.200000 -1.297942 -1.297942
169.250000 -1.297942 -1.297942
169.300000 -1.297942 -1.297942
169.350000 -1.297942 -1.297942
169.400000 -1.297942 -1.297942
169.450000 -1.297941 -1.297942
169.500000 -1.297941 -1.297942
169.550000 -1.297941 -1.297942
169.600000 -1.297941 -1.297942
169.650000 -1.297941 -1.297942
169.700000 -1.297941 -1.297942
169.750000 -1.297941 -1.297942
169.800000 -1.297941 -1.297942
169.850000 -1.297942 -1.297942
169.900000 -1.297942 -1.297942
169.950000 -1.297942 -1.297942
170.000000 -1.297942 -1.297942
170.050000 -1.297942 -1.297942
170.100000 -1.297942 -1.297942
170.150000 -1.297942 -1.297942
170.200000 -1.297942 -1.297942
170.250000 -1.297942 -1.297942
170.300000 -1.297942 -1.297942
170.350000 -1.297942 -1.297942
170.400000 -1.297942 -1.297942
170.450000 -1.297942 -1.297942
170.500000 -1.297942 -1.297942
170.550000 -1.297942 -1.297942
170.600000 -1.297942 -1.297942
170.650000 -1.297942 -1.297942
170.700000 -1.297942 -1.297942
170.750000 -1.297942 -1.297942
170.800000 -1.297942 -1.297942
170.850000 -1.297942 -1.297942
170.900000 -1.297942 -1.297942
170.950000 -1.297942 -1.297942
171.000000 -1.297942 -1.297942
171.050000 -1.297942 -1.297942
171.100000 -1.297942 -1.297942
171.150000 -1.297942 -1.297942
171.200000 -1.297942 -1.297942
171.250000 -1.297942 -1.297942
171.300000 -1.297942 -1.297942
171.350000 -1.297942 -1.297942
171.400000 -1.297942 -1.297942
171.450000 -1.297942 -1.297942
171.500000 -1.297942 -1.297942
171.550000 -1.297942 -1.297942
171.600000 -1.297941 -1.297942
171.650000 -1.297941 -1.297942
171.700000 -1.297942 -1.297942
171.750000 -1.297942 -1.297942
171.800000 -1.297942 -1.297942
171.850000 -1.297942 -1.297942
171.900000 -1.297942 -1.297942
171.950000 -1.297942 -1.297942
172.000000 -1.297942 -1.297942
172.050000 -1.297942 -1.297942
172.100000 -1.297942 -1.297942
172.150000 -1.297942 -1.297942
172.200000 -1.297942 -1.297942
172.250000 -1.297942 -1.297942
172.300000 -1.297942 -1.297942
172.350000 -1.297942 -1.297942
172.400000 -1.297942 -1.297942
172.450000 -1.297942 -1.297942
172.500000 -1.297942 -1.297942
172.550000 -1.297942 -1.297942
172.600000 -1.297942 -1.297942
172.650000 -1.297942 -1.297942
172.700000 -1.297942 -1.297942
172.750000 -1.297942 -1.297942
172.800000 -1.297942 -1.297942
172.850000 -1.297942 -1.297942
172.900000 -1.297942 -1.297942
172.950000 -1.297942 -1.297942
173.000000 -1.297942 -1.297942
173.050000 -1.297942 -1.297942
173.100000 -1.297942 -1.297942
173.150000 -1.297942 -1.297942
173.200000 -1.297942 -1.297942
173.250000 -1.297942 -1.297942
173.300000 -1.297942 -1.297942
173.350000 -1.297942 -1.297942
173.400000 -1.297942 -1.297942
173.450000 -1.297942 -1.297942
173.500000 -1.297942 -1.297942
173.550000 -1.297942 -1.297942
173.600000 -1.297942 -1.297942
173.650000 -1.297942 -1.297942
173.700000 -1.297942 -1.297942
173.750000 -1.297942 -1.297942
173.800000 -1.297942 -1.297942
173.850000 -1.297942 -1.297942
173.900000 -1.297942 -1.297942
173.950000 -1.297942 -1.297942
174.000000 -1.297942 -1.297942
174.050000 -1.297942 -1.297942
174.100000 -1.297942 -1.297942
174.150000 -1.297942 -1.297942
174.200000 -1.297942 -1.297942
174.250000 -1.297942 -1.297942
174.300000 -1.297942 -1.297942
174.350000 -1.297942 -1.297942
174.400000 -1.297942 -1.297942
174.450000 -1.297942 -1.297942
174.500000 -1.297942 -1.297942
174.550000 -1.297942 -1.297942
174.600000 -1.297942 -1.297942
174.650000 -1.297942 -1.297942
174.700000 -1.297942 -1.297942
174.750000 -1.297942 -1.297942
174.800000 -1.297942 -1.297942
174.850000 -1.297942 -1.297942
174.900000 -1.297942 -1.297942
174.950000 -1.297942 -1.297942
175.000000 -1.297942 -1.297942
175.050000 -1.297942 -1.297942
175.100000 -1.297942 -1.297942
175.150000 -1.297942 -1.297942
175.200000 -1.297942 -1.297942
175.250000 -1.297942 -1.297942
175.300000 -1.297942 -1.297942
175.350000 -1.297942 -1.297942
175.400000 -1.297942 -1.297942
175.450000 -1.297942 -1.297942
175.500000 -1.297942 -1.297942
175.550000 -1.297942 -1.297942
175.600000 -1.297942 -1.297942
175.650000 -1.297942 -1.297942
175.700000 -1.297942 -1.297942
175.750000 -1.297942 -1.297942
175.800000 -1.297942 -1.297942
175.850000 -1.297942 -1.297942
175.900000 -1.297942 -1.297942
175.950000 -1.297942 -1.297942
176.000000 -1.297942 -1.297942
176.050000 -1.297942 -1.297942
176.100000 -1.297942 -1.297942
176.150000 -1.297942 -1.297942
176.200000 -1.297942 -1.297942
176.250000 -1.297942 -1.297942
176.300000 -1.297942 -1.297942
176.350000 -1.297942 -1.297942
176.400000 -1.297942 -1.297942
176.450000 -1.297942 -1.297942
176.500000 -1.297942 -1.297942
176.550000 -1.297942 -1.297942
176.600000 -1.297942 -1.297942
176.650000 -1.297942 -1.297942
176.700000 -1.297942 -1.297942
176.750000 -1.297942 -1.297942
176.800000 -1.297942 -1.297942
176.850000 -1.297942 -1.297942
176.900000 -1.297942 -1.297942
176.950000 -1.297942 -1.297942
177.000000 -1.297942 -1.297942
177.050000 -1.297942 -1.297942
177.100000 -1.297942 -1.297942
177.150000 -1.297942 -1.297942
177.200000 -1.297942 -1.297942
177.250000 -1.297942 -1.297942
177.300000 -1.297942 -1.297942
177.350000 -1.297942 -1.297942
177.400000 -1.297942 -1.297942
177.450000 -1.297942 -1.297942
177.500000 -1.297942 -1.297942
177.550000 -1.297942 -1.297942
177.600000 -1.297942 -1.297942
177.650000 -1.297942 -1.297942
177.700000 -1.297942 -1.297942
177.750000 -1.297942 -1.297942
177.800000 -1.297942 -1.297942
177.850000 -1.297942 -1.297942
177.900000 -1.297942 -1.297942
177.950000 -1.297942 -1.297942
178.000000 -1.297942 -1.297942
178.050000 -1.297942 -1.297942
178.100000 -1.297942 -1.297942
178.150000 -1.297942 -1.297942
178.200000 -1.297942 -1.297942
178.250000 -1.297942 -1.297942
178.300000 -1.297942 -1.297942
178.350000 -1.297942 -1.297942
178.400000 -1.297942 -1.297942
178.450000 -1.297942 -1.297942
178.500000 -1.297942 -1.297942
178.550000 -1.297942 -1.297942
178.600000 -1.297942 -1.297942
178.650000 -1.297942 -1.297942
178.700000 -1.297942 -1.297942
178.750000 -1.297942 -1.297942
178.800000 -1.297942 -1.297942
178.850000 -1.297942 -1.297942
178.900000 -1.297942 -1.297942
178.950000 -1.297942 -1.297942
179.000000 -1.297942 -1.297942
179.050000 -1.297942 -1.297942
179.100000 -1.297942 -1.297942
179.150000 -1.297942 -1.297942
179.200000 -1.297942 -1.297942
179.250000 -1.297942 -1.297942
179.300000 -1.297942 -1.297942
179.350000 -1.297942 -1.297942
179.400000 -1.297942 -1.297942
179.450000 -1.297942 -1.297942
179.500000 -1.297942 -1.297942
179.550000 -1.297942 -1.297942
179.600000 -1.297942 -1.297942
179.650000 -1.297942 -1.297942
179.700000 -1.297942 -1.297942
179.750000 -1.297942 -1.297942
179.800000 -1.297942 -1.297942
179.850000 -1.297942 -1.297942
179.900000 -1.297942 -1.297942
179.950000 -1.297942 -1.297942
180.000000 -1.297942 -1.297942
180.050000 -1.297942 -1.297942
180.100000 -1.297942 -1.297942
180.150000 -1.297942 -1.297942
180.200000 -1.297942 -1.297942
180.250000 -1.297942 -1.297942
180.300000 -1.297942 -1.297942
180.350000 -1.297942 -1.297942
180.400000 -1.297942 -1.297942
180.450000 -1.297942 -1.297942
180.500000 -1.297942 -1.297942
180.550000 -1.297942 -1.297942
180.600000 -1.297942 -1.297942
180.650000 -1.297942 -1.297942
180.700000 -1.297942 -1.297942
180.750000 -1.297942 -1.297942
180.800000 -1.297942 -1.297942
180.850000 -1.297942 -1.297942
180.900000 -1.297942 -1.297942
180.950000 -1.297942 -1.297942
181.000000 -1.297942 -1.297942
181.050000 -1.297942 -1.297942
181.100000 -1.297942 -1.297942
181.150000 -1.297942 -1.297942
181.200000 -1.297942 -1.297942
181.250000 -1.297942 -1.297942
181.300000 -1.297942 -1.297942
181.350000 -1.297942 -1.297942
181.400000 -1.297942 -1.297942
181.450000 -1.297942 -1.297942
181.500000 -1.297942 -1.297942
181.550000 -1.297942 -1.297942
181.600000 -1.297942 -1.297942
181.650000 -1.297942 -1.297942
181.700000 -1.297942 -1.297942
181.750000 -1.297942 -1.297942
181.800000 -1.297942 -1.297942
181.850000 -1.297942 -1.297942
181.900000 -1.297942 -1.297942
181.950000 -1.297942 -1.297942
182.000000 -1.297942 -1.297942
182.050000 -1.297942 -1.297942
182.100000 -1.297942 -1.297942
182.150000 -1.297942 -1.297942
182.200000 -1.297942 -1.297942
182.250000 -1.297942 -1.297942
182.300000 -1.297942 -1.297942
182.350000 -1.297942 -1.297942
182.400000 -1.297942 -1.297942
182.450000 -1.297942 -1.297942
182.500000 -1.297942 -1.297942
182.550000 -1.297942 -1.297942
182.600000 -1.297942 -1.297942
182.650000 -1.297942 -1.297942
182.700000 -1.297942 -1.297942
182.750000 -1.297942 -1.297942
182.800000 -1.297942 -1.297942
182.850000 -1.297942 -1.297942
182.900000 -1.297942 -1.297942
182.950000 -1.297942 -1.297942
183.000000 -1.297942 -1.297942
183.050000 -1.297942 -1.297942
183.100000 -1.297942 -1.297942
183.150000 -1.297942 -1.297942
183.200000 -1.297942 -1.297942
183.250000 -1.297942 -1.297942
183.300000 -1.297942 -1.297942
183.350000 -1.297942 -1.297942
183.400000 -1.297942 -1.297942
183.450000 -1.297942 -1.297942
183.500000 -1.297942 -1.297942
183.550000 -1.297942 -1.297942
183.600000 -1.297942 -1.297942
183.650000 -1.297942 -1.297942
183.700000 -1.297942 -1.297942
183.750000 -1.297942 -1.297942
183.800000 -1.297942 -1.297942
183.850000 -1.297942 -1.297942
183.900000 -1.297942 -1.297942
183.950000 -1.297942 -1.297942
184.000000 -1.297942 -1.297942
184.050000 -1.297942 -1.297942
184.100000 -1.297942 -1.297942
184.150000 -1.297942 -1.297942
184.200000 -1.297942 -1.297942
184.250000 -1.297942 -1.297942
184.300000 -1.297942 -1.297942
184.350000 -1.297942 -1.297942
184.400000 -1.297942 -1.297942
184.450000 -1.297942 -1.297942
184.500000 -1.297942 -1.297942
184.550000 -1.297942 -1.297942
184.600000 -1.297942 -1.297942
184.650000 -1.297942 -1.297942
184.700000 -1.297942 -1.297942
184.750000 -1.297942 -1.297942
184.800000 -1.297942 -1.297942
184.850000 -1.297942 -1.297942
184.900000 -1.297942 -1.297942
184.950000 -1.297942 -1.297942
185.000000 -1.297942 -1.297942
185.050000 -1.297942 -1.297942
185.100000 -1.297942 -1.297942
185.150000 -1.297942 -1.297942
185.200000 -1.297942 -1.297942
185.250000 -1.297942 -1.297942
185.300000 -1.297942 -1.297942
185.350000 -1.297942 -1.297942
185.400000 -1.297942 -1.297942
185.450000 -1.297942 -1.297942
185.500000 -1.297942 -1.297942
185.550000 -1.297942 -1.297942
185.600000 -1.297942 -1.297942
185.650000 -1.297942 -1.297942
185.700000 -1.297942 -1.297942
185.750000 -1.297942 -1.297942
185.800000 -1.297942 -1.297942
185.850000 -1.297942 -1.297942
185.900000 -1.297942 -1.297942
185.950000 -1.297942 -1.297942
186.000000 -1.297942 -1.297942
186.050000 -1.297942 -1.297942
186.100000 -1.297942 -1.297942
186.150000 -1.297942 -1.297942
186.200000 -1.297942 -1.297942
186.250000 -1.297942 -1.297942
186.300000 -1.297942 -1.297942
186.350000 -1.297942 -1.297942
186.400000 -1.297942 -1.297942
186.450000 -1.297942 -1.297942
186.500000 -1.297942 -1.297942
186.550000 -1.297942 -1.297942
186.600000 -1.297942 -1.297942
186.650000 -1.297942 -1.297942
186.700000 -1.297942 -1.297942
186.750000 -1.297942 -1.297942
186.800000 -1.297942 -1.297942
186.850000 -1.297942 -1.297942
186.900000 -1.297942 -1.297942
186.950000 -1.297942 -1.297942
187.000000 -1.297942 -1.297942
