time[ns] Raw_signal[mV]
-11.200000 -0.213295
-11.150000 -0.161907
-11.100000 -0.100241
-11.050000 -0.035150
-11.000000 0.029943
-10.950000 0.067627
-10.900000 0.067627
-10.850000 0.057350
-10.800000 0.043646
-10.750000 -0.011168
-10.700000 -0.103667
-10.650000 -0.179036
-10.600000 -0.220147
-10.550000 -0.261257
-10.500000 -0.298943
-10.450000 -0.302369
-10.400000 -0.274962
-10.350000 -0.213296
-10.300000 -0.131074
-10.250000 -0.052279
-10.200000 0.033369
-10.150000 0.132720
-10.100000 0.228644
-10.050000 0.283459
-10.000000 0.290310
-9.950000 0.273181
-9.900000 0.225219
-9.850000 0.129294
-9.800000 0.002535
-9.750000 -0.110519
-9.700000 -0.189314
-9.650000 -0.237277
-9.600000 -0.274962
-9.550000 -0.271536
-9.500000 -0.216722
-9.450000 -0.120796
-9.400000 -0.035149
-9.350000 0.043647
-9.300000 0.136146
-9.250000 0.232071
-9.200000 0.293737
-9.150000 0.310866
-9.100000 0.280032
-9.050000 0.242348
-9.000000 0.208089
-8.950000 0.166979
-8.900000 0.105312
-8.850000 0.053924
-8.800000 0.036795
-8.750000 0.040220
-8.700000 0.040220
-8.650000 0.033368
-8.600000 0.019665
-8.550000 -0.007742
-8.500000 -0.024871
-8.450000 -0.059130
-8.400000 -0.127648
-8.350000 -0.182463
-8.300000 -0.196166
-8.250000 -0.199592
-8.200000 -0.209869
-8.150000 -0.209869
-8.100000 -0.185888
-8.050000 -0.124222
-8.000000 -0.038575
-7.950000 0.009387
-7.900000 0.036795
-7.850000 0.067628
-7.800000 0.050498
-7.750000 -0.055705
-7.700000 -0.161907
-7.650000 -0.233851
-7.600000 -0.346905
-7.550000 -0.490792
-7.500000 -0.610699
-7.450000 -0.675790
-7.400000 -0.703198
-7.350000 -0.668939
-7.300000 -0.600421
-7.250000 -0.507922
-7.200000 -0.381164
-7.150000 -0.244128
-7.100000 -0.144778
-7.050000 -0.069408
-7.000000 -0.004316
-6.950000 0.033368
-6.900000 0.029943
-6.850000 -0.011168
-6.800000 -0.055704
-6.750000 -0.110519
-6.700000 -0.179037
-6.650000 -0.250981
-6.600000 -0.305794
-6.550000 -0.350331
-6.500000 -0.374312
-6.450000 -0.360608
-6.400000 -0.329775
-6.350000 -0.316072
-6.300000 -0.305795
-6.250000 -0.281813
-6.200000 -0.257832
-6.150000 -0.268109
-6.100000 -0.305794
-6.050000 -0.343479
-6.000000 -0.408571
-5.950000 -0.501070
-5.900000 -0.586718
-5.850000 -0.672365
-5.800000 -0.768289
-5.750000 -0.860789
-5.700000 -0.901899
-5.650000 -0.877918
-5.600000 -0.805975
-5.550000 -0.706623
-5.500000 -0.596995
-5.450000 -0.477089
-5.400000 -0.336627
-5.350000 -0.213296
-5.300000 -0.131074
-5.250000 -0.042001
-5.200000 0.053924
-5.150000 0.122441
-5.100000 0.160127
-5.050000 0.211515
-5.000000 0.262903
-4.950000 0.314291
-4.900000 0.369106
-4.850000 0.423921
-4.800000 0.461605
-4.750000 0.485587
-4.700000 0.489012
-4.650000 0.430772
-4.600000 0.338273
-4.550000 0.228645
-4.500000 0.081331
-4.450000 -0.086538
-4.400000 -0.244128
-4.350000 -0.405145
-4.300000 -0.542180
-4.250000 -0.624402
-4.200000 -0.675791
-4.150000 -0.720327
-4.100000 -0.758012
-4.050000 -0.778567
-4.000000 -0.799122
-3.950000 -0.809401
-3.900000 -0.792271
-3.850000 -0.768290
-3.800000 -0.737457
-3.750000 -0.689494
-3.700000 -0.638106
-3.650000 -0.586717
-3.600000 -0.511347
-3.550000 -0.442830
-3.500000 -0.401720
-3.450000 -0.346905
-3.400000 -0.281813
-3.350000 -0.326350
-3.300000 -0.487366
-3.250000 -0.559311
-3.200000 -0.504496
-3.150000 -0.545607
-3.100000 -0.686068
-3.050000 -0.641531
-3.000000 -0.456534
-2.950000 -0.405146
-2.900000 -0.377738
-2.850000 -0.226999
-2.800000 -0.144778
-2.750000 -0.124223
-2.700000 0.088182
-2.650000 0.269755
-2.600000 0.132719
-2.550000 0.012813
-2.500000 0.091609
-2.450000 -0.004316
-2.400000 -0.250980
-2.350000 -0.264683
-2.300000 -0.220148
-2.250000 -0.401719
-2.200000 -0.473663
-2.150000 -0.268110
-2.100000 -0.192740
-2.050000 -0.346906
-2.000000 -0.381164
-1.950000 -0.250980
-1.900000 -0.100241
-1.850000 0.074479
-1.800000 0.166978
-1.750000 0.088182
-1.700000 0.098461
-1.650000 0.262904
-1.600000 0.280033
-1.550000 0.208089
-1.500000 0.399939
-1.450000 0.667159
-1.400000 0.704843
-1.350000 0.715121
-1.300000 0.807619
-1.250000 0.756231
-1.200000 0.684287
-1.150000 0.780213
-1.100000 0.667158
-1.050000 0.218366
-1.000000 -0.065983
-0.950000 -0.072834
-0.900000 -0.237276
-0.850000 -0.483940
-0.800000 -0.514773
-0.750000 -0.525051
-0.700000 -0.658661
-0.650000 -0.641532
-0.600000 -0.477089
-0.550000 -0.422275
-0.500000 -0.391441
-0.450000 -0.240703
-0.400000 -0.096815
-0.350000 -0.059130
-0.300000 -0.065982
-0.250000 -0.113945
-0.200000 -0.192740
-0.150000 -0.254406
-0.100000 -0.316072
-0.050000 -0.370886
0.000000 -0.364034
0.050000 -0.370886
0.100000 -0.439404
0.150000 -0.405145
0.200000 -0.254406
0.250000 -0.206444
0.300000 -0.250980
0.350000 -0.144778
0.400000 0.064202
0.450000 0.160126
0.500000 0.197812
0.550000 0.286885
0.600000 0.341699
0.650000 0.310866
0.700000 0.324570
0.750000 0.441050
0.800000 0.612344
0.850000 0.896693
0.900000 1.390021
0.950000 2.157421
1.000000 3.274260
1.050000 4.791930
1.100000 6.720703
1.150000 9.105125
1.200000 11.976020
1.250000 15.247741
1.300000 18.776417
1.350000 22.438692
1.400000 26.128372
1.450000 29.800932
1.500000 33.422096
1.550000 36.820574
1.600000 39.876474
1.650000 42.668568
1.700000 45.220851
1.750000 47.399721
1.800000 49.225721
1.850000 50.846171
1.900000 52.271341
1.950000 53.412161
2.000000 54.299471
2.050000 54.943531
2.100000 55.320381
2.150000 55.375201
2.200000 55.073721
2.250000 54.364561
2.300000 53.271701
2.350000 51.846531
2.400000 50.068491
2.450000 47.954721
2.500000 45.549741
2.550000 42.884401
2.600000 40.006651
2.650000 37.032981
2.700000 34.049031
2.750000 31.044521
2.800000 28.070851
2.850000 25.271901
2.900000 22.719611
2.950000 20.403714
3.000000 18.372159
3.050000 16.751714
3.100000 15.525248
3.150000 14.620812
3.200000 14.100070
3.250000 13.990440
3.300000 14.141185
3.350000 14.480351
3.400000 15.093582
3.450000 15.932928
3.500000 16.837357
3.550000 17.762350
3.600000 18.735300
3.650000 19.684279
3.700000 20.537321
3.750000 21.287591
3.800000 21.914530
3.850000 22.373601
3.900000 22.668221
3.950000 22.815539
4.000000 22.791558
4.050000 22.596284
4.100000 22.239987
4.150000 21.715832
4.200000 21.044355
4.250000 20.215291
4.300000 19.225202
4.350000 18.128921
4.400000 17.018927
4.450000 15.826725
4.500000 14.521453
4.550000 13.226471
4.600000 12.023984
4.650000 10.831773
4.700000 9.677248
4.750000 8.700871
4.800000 7.902638
4.850000 7.214034
4.900000 6.659040
4.950000 6.268488
5.000000 6.035527
5.050000 5.967010
5.100000 6.066363
5.150000 6.258212
5.200000 6.535711
5.250000 6.936534
5.300000 7.419590
5.350000 7.902636
5.400000 8.395968
5.450000 8.906425
5.500000 9.386049
5.550000 9.827984
5.600000 10.242519
5.650000 10.581689
5.700000 10.797519
5.750000 10.883165
5.800000 10.883158
5.850000 10.800937
5.900000 10.636497
5.950000 10.386404
6.000000 10.050673
6.050000 9.666976
6.100000 9.252434
6.150000 8.800224
6.200000 8.324024
6.250000 7.851246
6.300000 7.388754
6.350000 6.922833
6.400000 6.460338
6.450000 6.021825
6.500000 5.593588
6.550000 5.168778
6.600000 4.737115
6.650000 4.298601
6.700000 3.887495
6.750000 3.551757
6.800000 3.233150
6.850000 2.893987
6.900000 2.619915
6.950000 2.455473
7.000000 2.338993
7.050000 2.280753
7.100000 2.328715
7.150000 2.469177
7.200000 2.650749
7.250000 2.873432
7.300000 3.144077
7.350000 3.442129
7.400000 3.743608
7.450000 4.014253
7.500000 4.243785
7.550000 4.432209
7.600000 4.576102
7.650000 4.654891
7.700000 4.706284
7.750000 4.737112
7.800000 4.706283
7.850000 4.641191
7.900000 4.576099
7.950000 4.507581
8.000000 4.404804
8.050000 4.302028
8.100000 4.199251
8.150000 4.038235
8.200000 3.794996
8.250000 3.520925
8.300000 3.236576
8.350000 2.921394
8.400000 2.571953
8.450000 2.205383
8.500000 1.849090
8.550000 1.513353
8.600000 1.205023
8.650000 0.941229
8.700000 0.756232
8.750000 0.650029
8.800000 0.584937
8.850000 0.543826
8.900000 0.557530
8.950000 0.622622
9.000000 0.708269
9.050000 0.793917
9.100000 0.903545
9.150000 1.047432
9.200000 1.191319
9.250000 1.345484
9.300000 1.496224
9.350000 1.622982
9.400000 1.722333
9.450000 1.845665
9.500000 1.972423
9.550000 2.071774
9.600000 2.157421
9.650000 2.243068
9.700000 2.321863
9.750000 2.359548
9.800000 2.362974
9.850000 2.315012
9.900000 2.219087
9.950000 2.099181
10.000000 1.958719
10.050000 1.780572
10.100000 1.571593
10.150000 1.359188
10.200000 1.146783
10.250000 0.924100
10.300000 0.728824
10.350000 0.578085
10.400000 0.461605
10.450000 0.358828
10.500000 0.307440
10.550000 0.307440
10.600000 0.304015
10.650000 0.273181
10.700000 0.269755
10.750000 0.283459
10.800000 0.283459
10.850000 0.252625
10.900000 0.228644
10.950000 0.242348
11.000000 0.262904
11.050000 0.283458
11.100000 0.341698
11.150000 0.441049
11.200000 0.543826
11.250000 0.687714
11.300000 0.882989
11.350000 1.067987
11.400000 1.218727
11.450000 1.390021
11.500000 1.568167
11.550000 1.694925
11.600000 1.756591
11.650000 1.756592
11.700000 1.698351
11.750000 1.616130
11.800000 1.527057
11.850000 1.400298
11.900000 1.235856
11.950000 1.071413
12.000000 0.903545
12.050000 0.708269
12.100000 0.530123
12.150000 0.396513
12.200000 0.276607
12.250000 0.153275
12.300000 0.047072
12.350000 -0.031723
12.400000 -0.127648
12.450000 -0.247554
12.500000 -0.340054
12.550000 -0.384590
12.600000 -0.418849
12.650000 -0.477089
12.700000 -0.497644
12.750000 -0.463385
12.800000 -0.446256
12.850000 -0.459960
12.900000 -0.422274
12.950000 -0.312646
13.000000 -0.209869
13.050000 -0.089963
13.100000 0.074479
13.150000 0.211515
13.200000 0.310866
13.250000 0.465030
13.300000 0.650029
13.350000 0.783639
13.400000 0.882989
13.450000 0.975489
13.500000 1.006322
13.550000 0.972063
13.600000 0.937803
13.650000 0.855583
13.700000 0.687714
13.750000 0.506142
13.800000 0.351976
13.850000 0.180682
13.900000 0.016239
13.950000 -0.120797
14.000000 -0.271536
14.050000 -0.449682
14.100000 -0.559310
14.150000 -0.617550
14.200000 -0.696346
14.250000 -0.758012
14.300000 -0.758012
14.350000 -0.761438
14.400000 -0.785419
14.450000 -0.805975
14.500000 -0.826530
14.550000 -0.847085
14.600000 -0.853937
14.650000 -0.877918
14.700000 -0.908752
14.750000 -0.860788
14.800000 -0.754586
14.850000 -0.631254
14.900000 -0.456534
14.950000 -0.206444
15.000000 0.064201
15.050000 0.324569
15.100000 0.612344
15.150000 0.882990
15.200000 1.081692
15.250000 1.235857
15.300000 1.342059
15.350000 1.338633
15.400000 1.225578
15.450000 1.088542
15.500000 0.924100
15.550000 0.691139
15.600000 0.434198
15.650000 0.187534
15.700000 -0.062557
15.750000 -0.298943
15.800000 -0.494219
15.850000 -0.655235
15.900000 -0.775141
15.950000 -0.860788
16.000000 -0.936158
16.050000 -0.994398
16.100000 -1.008102
16.150000 -0.990972
16.200000 -0.963565
16.250000 -0.908751
16.300000 -0.802549
16.350000 -0.682643
16.400000 -0.590143
16.450000 -0.501070
16.500000 -0.394867
16.550000 -0.268110
16.600000 -0.148203
16.650000 -0.055704
16.700000 0.005962
16.750000 0.047073
16.800000 0.081331
16.850000 0.091608
16.900000 0.088183
16.950000 0.108739
17.000000 0.142997
17.050000 0.166978
17.100000 0.208089
17.150000 0.262903
17.200000 0.283459
17.250000 0.256052
17.300000 0.208090
17.350000 0.149849
17.400000 0.067628
17.450000 -0.038575
17.500000 -0.175611
17.550000 -0.346905
17.600000 -0.535329
17.650000 -0.692920
17.700000 -0.812826
17.750000 -0.922454
17.800000 -1.021806
17.850000 -1.090323
17.900000 -1.093749
17.950000 -1.069767
18.000000 -1.042361
18.050000 -1.011528
18.100000 -0.956713
18.150000 -0.874492
18.200000 -0.788845
18.250000 -0.699771
18.300000 -0.586717
18.350000 -0.477089
18.400000 -0.418849
18.450000 -0.377738
18.500000 -0.326349
18.550000 -0.264684
18.600000 -0.213295
18.650000 -0.158481
18.700000 -0.110519
18.750000 -0.079686
18.800000 -0.065982
18.850000 -0.065982
18.900000 -0.093389
18.950000 -0.144778
19.000000 -0.175611
19.050000 -0.189315
19.100000 -0.220147
19.150000 -0.288665
19.200000 -0.336627
19.250000 -0.364035
19.300000 -0.408571
19.350000 -0.477089
19.400000 -0.542181
19.450000 -0.590143
19.500000 -0.620976
19.550000 -0.672365
19.600000 -0.734031
19.650000 -0.781993
19.700000 -0.792271
19.750000 -0.819678
19.800000 -0.898473
19.850000 -0.984120
19.900000 -1.042361
19.950000 -1.100600
20.000000 -1.151989
20.050000 -1.175970
20.100000 -1.182822
20.150000 -1.158841
20.200000 -1.080046
20.250000 -0.970417
20.300000 -0.853937
20.350000 -0.713475
20.400000 -0.531903
20.450000 -0.343479
20.500000 -0.172185
20.550000 -0.031723
20.600000 0.057350
20.650000 0.105312
20.700000 0.146424
20.750000 0.142998
20.800000 0.091609
20.850000 0.043646
20.900000 -0.014593
20.950000 -0.117371
21.000000 -0.220148
21.050000 -0.305794
21.100000 -0.401720
21.150000 -0.521626
21.200000 -0.614124
21.250000 -0.689494
21.300000 -0.771716
21.350000 -0.867641
21.400000 -0.984121
21.450000 -1.104027
21.500000 -1.203378
21.550000 -1.278747
21.600000 -1.357543
21.650000 -1.446615
21.700000 -1.501430
21.750000 -1.508281
21.800000 -1.498004
21.850000 -1.477449
21.900000 -1.446616
21.950000 -1.415783
22.000000 -1.384949
22.050000 -1.313007
22.100000 -1.241063
22.150000 -1.206803
22.200000 -1.172545
22.250000 -1.090323
22.300000 -0.997824
22.350000 -0.929306
22.400000 -0.853937
22.450000 -0.754586
22.500000 -0.634680
22.550000 -0.507922
22.600000 -0.391442
22.650000 -0.278388
22.700000 -0.155055
22.750000 -0.031723
22.800000 0.057350
22.850000 0.108738
22.900000 0.146423
22.950000 0.173830
23.000000 0.177256
23.050000 0.142997
23.100000 0.074479
23.150000 -0.014594
23.200000 -0.107092
23.250000 -0.206444
23.300000 -0.309220
23.350000 -0.408571
23.400000 -0.501070
23.450000 -0.569588
23.500000 -0.624402
23.550000 -0.668939
23.600000 -0.696345
23.650000 -0.689494
23.700000 -0.675790
23.750000 -0.668939
23.800000 -0.641531
23.850000 -0.590143
23.900000 -0.552459
23.950000 -0.549032
24.000000 -0.555884
24.050000 -0.573013
24.100000 -0.607272
24.150000 -0.655236
24.200000 -0.699772
24.250000 -0.754586
24.300000 -0.819678
24.350000 -0.877918
24.400000 -0.912177
24.450000 -0.922455
24.500000 -0.912177
24.550000 -0.857362
24.600000 -0.764864
24.650000 -0.668939
24.700000 -0.576439
24.750000 -0.490793
24.800000 -0.435978
24.850000 -0.411997
24.900000 -0.367460
24.950000 -0.336627
25.000000 -0.350331
25.050000 -0.388015
25.100000 -0.442830
25.150000 -0.525051
25.200000 -0.607273
25.250000 -0.672365
25.300000 -0.761437
25.350000 -0.884770
25.400000 -0.977269
25.450000 -1.021805
25.500000 -1.056064
25.550000 -1.090323
25.600000 -1.093749
25.650000 -1.045787
25.700000 -0.966992
25.750000 -0.874492
25.800000 -0.761438
25.850000 -0.617551
25.900000 -0.459960
25.950000 -0.329775
26.000000 -0.230425
26.050000 -0.175610
26.100000 -0.134500
26.150000 -0.117370
26.200000 -0.141351
26.250000 -0.230424
26.300000 -0.305794
26.350000 -0.346905
26.400000 -0.394867
26.450000 -0.466811
26.500000 -0.525052
26.550000 -0.583292
26.600000 -0.668938
26.650000 -0.768290
26.700000 -0.853936
26.750000 -0.943010
26.800000 -1.052638
26.850000 -1.179397
26.900000 -1.316432
26.950000 -1.446616
27.000000 -1.566522
27.050000 -1.683002
27.100000 -1.765224
27.150000 -1.782353
27.200000 -1.748094
27.250000 -1.689854
27.300000 -1.590503
27.350000 -1.453468
27.400000 -1.319858
27.450000 -1.175970
27.500000 -1.014954
27.550000 -0.867640
27.600000 -0.758012
27.650000 -0.672365
27.700000 -0.583292
27.750000 -0.507922
27.800000 -0.487367
27.850000 -0.497644
27.900000 -0.480515
27.950000 -0.456534
28.000000 -0.459959
28.050000 -0.466812
28.100000 -0.459960
28.150000 -0.466811
28.200000 -0.504496
28.250000 -0.555884
28.300000 -0.617551
28.350000 -0.699772
28.400000 -0.792271
28.450000 -0.888196
28.500000 -0.980695
28.550000 -1.045787
28.600000 -1.062916
28.650000 -1.066342
28.700000 -1.056064
28.750000 -1.001250
28.800000 -0.919029
28.850000 -0.857363
28.900000 -0.805974
28.950000 -0.740882
29.000000 -0.710049
29.050000 -0.727179
29.100000 -0.751160
29.150000 -0.802548
29.200000 -0.895048
29.250000 -0.970417
29.300000 -1.001250
29.350000 -1.042360
29.400000 -1.062916
29.450000 -1.018380
29.500000 -0.932732
29.550000 -0.867640
29.600000 -0.805975
29.650000 -0.734031
29.700000 -0.658661
29.750000 -0.586717
29.800000 -0.525051
29.850000 -0.480515
29.900000 -0.463385
29.950000 -0.477089
30.000000 -0.514774
30.050000 -0.552459
30.100000 -0.583291
30.150000 -0.624403
30.200000 -0.665513
30.250000 -0.689495
30.300000 -0.713475
30.350000 -0.754586
30.400000 -0.781993
30.450000 -0.785419
30.500000 -0.799122
30.550000 -0.840233
30.600000 -0.874492
30.650000 -0.901899
30.700000 -0.946436
30.750000 -1.008102
30.800000 -1.080046
30.850000 -1.155415
30.900000 -1.220507
30.950000 -1.258192
31.000000 -1.265043
31.050000 -1.217081
31.100000 -1.128008
31.150000 -1.042361
31.200000 -0.963565
31.250000 -0.840233
31.300000 -0.699772
31.350000 -0.586718
31.400000 -0.483941
31.450000 -0.388016
31.500000 -0.329776
31.550000 -0.309220
31.600000 -0.309221
31.650000 -0.357183
31.700000 -0.453107
31.750000 -0.549033
31.800000 -0.620977
31.850000 -0.720328
31.900000 -0.829955
31.950000 -0.932732
32.000000 -1.011528
32.050000 -1.097175
32.100000 -1.189674
32.150000 -1.265044
32.200000 -1.306154
32.250000 -1.295877
32.300000 -1.285599
32.350000 -1.278747
32.400000 -1.261617
32.450000 -1.217082
32.500000 -1.134860
32.550000 -1.045786
32.600000 -1.018380
32.650000 -1.025231
32.700000 -1.001250
32.750000 -0.973843
32.800000 -0.990973
32.850000 -1.004676
32.900000 -1.001250
32.950000 -1.004676
33.000000 -1.014954
33.050000 -1.008102
33.100000 -1.021806
33.150000 -1.042360
33.200000 -1.062916
33.250000 -1.107452
33.300000 -1.155415
33.350000 -1.186248
33.400000 -1.234211
33.450000 -1.302729
33.500000 -1.330136
33.550000 -1.330136
33.600000 -1.333561
33.650000 -1.306155
33.700000 -1.223933
33.750000 -1.148563
33.800000 -1.083471
33.850000 -0.980695
33.900000 -0.877918
33.950000 -0.836807
34.000000 -0.836807
34.050000 -0.871067
34.100000 -0.960139
34.150000 -1.086897
34.200000 -1.223933
34.250000 -1.378098
34.300000 -1.525411
34.350000 -1.638466
34.400000 -1.706984
34.450000 -1.744668
34.500000 -1.727539
34.550000 -1.645317
34.600000 -1.518560
34.650000 -1.367820
34.700000 -1.220507
34.750000 -1.117730
34.800000 -1.045787
34.850000 -0.977269
34.900000 -0.949861
34.950000 -1.004676
35.000000 -1.093749
35.050000 -1.155415
35.100000 -1.217081
35.150000 -1.302728
35.200000 -1.357543
35.250000 -1.367820
35.300000 -1.381524
35.350000 -1.367820
35.400000 -1.313006
35.450000 -1.258192
35.500000 -1.254766
35.550000 -1.268469
35.600000 -1.289025
35.650000 -1.330135
35.700000 -1.412357
35.750000 -1.528837
35.800000 -1.655595
35.850000 -1.765224
35.900000 -1.840593
35.950000 -1.888555
36.000000 -1.919389
36.050000 -1.912537
36.100000 -1.871426
36.150000 -1.816612
36.200000 -1.741242
36.250000 -1.638465
36.300000 -1.532264
36.350000 -1.456893
36.400000 -1.395228
36.450000 -1.343839
36.500000 -1.309580
36.550000 -1.309580
36.600000 -1.323284
36.650000 -1.336988
36.700000 -1.371246
36.750000 -1.408931
36.800000 -1.429487
36.850000 -1.429486
36.900000 -1.408931
36.950000 -1.371246
37.000000 -1.330135
37.050000 -1.289025
37.100000 -1.217082
37.150000 -1.100601
37.200000 -0.984121
37.250000 -0.891622
37.300000 -0.788845
37.350000 -0.689494
37.400000 -0.638106
37.450000 -0.631254
37.500000 -0.641531
37.550000 -0.686068
37.600000 -0.758012
37.650000 -0.816252
37.700000 -0.881344
37.750000 -0.977269
37.800000 -1.062916
37.850000 -1.110878
37.900000 -1.134860
37.950000 -1.141712
38.000000 -1.134860
38.050000 -1.134860
38.100000 -1.128008
38.150000 -1.114304
38.200000 -1.114305
38.250000 -1.134859
38.300000 -1.169118
38.350000 -1.237636
38.400000 -1.319858
38.450000 -1.364394
38.500000 -1.391801
38.550000 -1.408931
38.600000 -1.384950
38.650000 -1.309581
38.700000 -1.206803
38.750000 -1.097175
38.800000 -0.994398
38.850000 -0.939584
38.900000 -0.891622
38.950000 -0.816252
39.000000 -0.754586
39.050000 -0.758012
39.100000 -0.785419
39.150000 -0.833381
39.200000 -0.922455
39.250000 -1.018379
39.300000 -1.062917
39.350000 -1.110879
39.400000 -1.193100
39.450000 -1.241062
39.500000 -1.254766
39.550000 -1.323284
39.600000 -1.436339
39.650000 -1.528838
39.700000 -1.600780
39.750000 -1.686428
39.800000 -1.758371
39.850000 -1.809760
39.900000 -1.837167
39.950000 -1.796056
40.000000 -1.686429
40.050000 -1.569947
40.100000 -1.453467
40.150000 -1.302729
40.200000 -1.162266
40.250000 -1.045786
40.300000 -0.936158
40.350000 -0.840233
40.400000 -0.795697
40.450000 -0.788845
40.500000 -0.809400
40.550000 -0.871066
40.600000 -0.960140
40.650000 -1.021806
40.700000 -1.056065
40.750000 -1.086897
40.800000 -1.121157
40.850000 -1.151989
40.900000 -1.169118
40.950000 -1.165693
41.000000 -1.179396
41.050000 -1.193100
41.100000 -1.175970
41.150000 -1.151989
41.200000 -1.148564
41.250000 -1.121156
41.300000 -1.049213
41.350000 -1.004676
41.400000 -1.001250
41.450000 -1.032083
41.500000 -1.083472
41.550000 -1.162267
41.600000 -1.271896
41.650000 -1.412357
41.700000 -1.552818
41.750000 -1.672725
41.800000 -1.775501
41.850000 -1.857723
41.900000 -1.902259
41.950000 -1.898834
42.000000 -1.854297
42.050000 -1.744668
42.100000 -1.593929
42.150000 -1.432912
42.200000 -1.299302
42.250000 -1.182822
42.300000 -1.093750
42.350000 -1.038935
42.400000 -1.008102
42.450000 -0.997824
42.500000 -0.980694
42.550000 -0.963565
42.600000 -0.956713
42.650000 -0.949861
42.700000 -0.919029
42.750000 -0.871066
42.800000 -0.857363
42.850000 -0.860788
42.900000 -0.857363
42.950000 -0.860788
43.000000 -0.901899
43.050000 -0.990972
43.100000 -1.117731
43.150000 -1.241062
43.200000 -1.343839
43.250000 -1.467171
43.300000 -1.607632
43.350000 -1.693280
43.400000 -1.700132
43.450000 -1.713835
43.500000 -1.741243
43.550000 -1.717261
43.600000 -1.648743
43.650000 -1.587077
43.700000 -1.511708
43.750000 -1.422634
43.800000 -1.364395
43.850000 -1.326710
43.900000 -1.268470
43.950000 -1.213655
44.000000 -1.193100
44.050000 -1.169119
44.100000 -1.145137
44.150000 -1.179396
44.200000 -1.241062
44.250000 -1.268470
44.300000 -1.289025
44.350000 -1.347265
44.400000 -1.395227
44.450000 -1.405505
44.500000 -1.422634
44.550000 -1.450042
44.600000 -1.477449
44.650000 -1.501430
44.700000 -1.518560
44.750000 -1.542541
44.800000 -1.590503
44.850000 -1.641891
44.900000 -1.669298
44.950000 -1.693280
45.000000 -1.713835
45.050000 -1.727539
45.100000 -1.724112
45.150000 -1.713835
45.200000 -1.713836
45.250000 -1.720687
45.300000 -1.703558
45.350000 -1.669299
45.400000 -1.662446
45.450000 -1.683002
45.500000 -1.676151
45.550000 -1.652169
45.600000 -1.645318
45.650000 -1.655595
45.700000 -1.652169
45.750000 -1.652169
45.800000 -1.645317
45.850000 -1.635040
45.900000 -1.641892
45.950000 -1.665873
46.000000 -1.648743
46.050000 -1.597355
46.100000 -1.556244
46.150000 -1.501430
46.200000 -1.402079
46.250000 -1.306155
46.300000 -1.223933
46.350000 -1.104026
46.400000 -0.973843
46.450000 -0.898474
46.500000 -0.871067
46.550000 -0.874492
46.600000 -0.929307
46.650000 -1.025231
46.700000 -1.148564
46.750000 -1.289025
46.800000 -1.446615
46.850000 -1.593929
46.900000 -1.706984
46.950000 -1.775501
47.000000 -1.796056
47.050000 -1.765224
47.100000 -1.662446
47.150000 -1.511707
47.200000 -1.357542
47.250000 -1.213656
47.300000 -1.086897
47.350000 -1.008102
47.400000 -0.994398
47.450000 -1.011527
47.500000 -1.052639
47.550000 -1.134859
47.600000 -1.230785
47.650000 -1.289025
47.700000 -1.319858
47.750000 -1.347265
47.800000 -1.367820
47.850000 -1.360969
47.900000 -1.319858
47.950000 -1.234211
48.000000 -1.141712
48.050000 -1.086898
48.100000 -1.035509
48.150000 -0.973843
48.200000 -0.939584
48.250000 -0.943010
48.300000 -0.939584
48.350000 -0.936158
48.400000 -0.960139
48.450000 -0.994399
48.500000 -1.032083
48.550000 -1.083472
48.600000 -1.131434
48.650000 -1.175971
48.700000 -1.241063
48.750000 -1.316432
48.800000 -1.367820
48.850000 -1.405505
48.900000 -1.429486
48.950000 -1.439764
49.000000 -1.446615
49.050000 -1.439764
49.100000 -1.405505
49.150000 -1.357543
49.200000 -1.319857
49.250000 -1.289025
49.300000 -1.275321
49.350000 -1.278747
49.400000 -1.275322
49.450000 -1.278747
49.500000 -1.295877
49.550000 -1.326710
49.600000 -1.367820
49.650000 -1.398653
49.700000 -1.398653
49.750000 -1.388376
49.800000 -1.398653
49.850000 -1.419209
49.900000 -1.419209
49.950000 -1.408931
50.000000 -1.391801
50.050000 -1.378098
50.100000 -1.395228
50.150000 -1.422634
50.200000 -1.422635
50.250000 -1.395228
50.300000 -1.388375
50.350000 -1.412357
50.400000 -1.439764
50.450000 -1.477449
50.500000 -1.515134
50.550000 -1.539115
50.600000 -1.576800
50.650000 -1.638465
50.700000 -1.689854
50.750000 -1.713835
50.800000 -1.730964
50.850000 -1.744668
50.900000 -1.737817
50.950000 -1.727539
51.000000 -1.713836
51.050000 -1.689854
51.100000 -1.645317
51.150000 -1.604207
51.200000 -1.587077
51.250000 -1.576800
51.300000 -1.559671
51.350000 -1.542541
51.400000 -1.535689
51.450000 -1.521986
51.500000 -1.511708
51.550000 -1.515133
51.600000 -1.504856
51.650000 -1.487726
51.700000 -1.484301
51.750000 -1.484301
51.800000 -1.463745
51.850000 -1.439764
51.900000 -1.436338
51.950000 -1.439764
52.000000 -1.443190
52.050000 -1.436338
52.100000 -1.415783
52.150000 -1.419209
52.200000 -1.456893
52.250000 -1.474023
52.300000 -1.432912
52.350000 -1.360969
52.400000 -1.302728
52.450000 -1.223933
52.500000 -1.104027
52.550000 -0.990972
52.600000 -0.919029
52.650000 -0.850511
52.700000 -0.792271
52.750000 -0.771716
52.800000 -0.799122
52.850000 -0.864214
52.900000 -0.960140
52.950000 -1.080046
53.000000 -1.213655
53.050000 -1.357543
53.100000 -1.484300
53.150000 -1.590503
53.200000 -1.689854
53.250000 -1.744668
53.300000 -1.741242
53.350000 -1.713836
53.400000 -1.669299
53.450000 -1.580226
53.500000 -1.477449
53.550000 -1.398654
53.600000 -1.313006
53.650000 -1.220507
53.700000 -1.172544
53.750000 -1.172545
53.800000 -1.186248
53.850000 -1.199952
53.900000 -1.223933
53.950000 -1.247914
54.000000 -1.289025
54.050000 -1.354117
54.100000 -1.419209
54.150000 -1.450042
54.200000 -1.453467
54.250000 -1.467171
54.300000 -1.487726
54.350000 -1.494578
54.400000 -1.474023
54.450000 -1.443190
54.500000 -1.408931
54.550000 -1.360968
54.600000 -1.333561
54.650000 -1.326710
54.700000 -1.306154
54.750000 -1.254766
54.800000 -1.203378
54.850000 -1.179396
54.900000 -1.169118
54.950000 -1.158841
55.000000 -1.151989
55.050000 -1.148563
55.100000 -1.165693
55.150000 -1.203377
55.200000 -1.244488
55.250000 -1.247914
55.300000 -1.234211
55.350000 -1.234211
55.400000 -1.220507
55.450000 -1.182823
55.500000 -1.134860
55.550000 -1.114305
55.600000 -1.110878
55.650000 -1.104027
55.700000 -1.134860
55.750000 -1.203377
55.800000 -1.275321
55.850000 -1.336987
55.900000 -1.422635
55.950000 -1.528837
56.000000 -1.635039
56.050000 -1.727539
56.100000 -1.782353
56.150000 -1.785779
56.200000 -1.785779
56.250000 -1.775502
56.300000 -1.720687
56.350000 -1.645317
56.400000 -1.590503
56.450000 -1.542541
56.500000 -1.474023
56.550000 -1.439764
56.600000 -1.470597
56.650000 -1.501431
56.700000 -1.494578
56.750000 -1.501430
56.800000 -1.549392
56.850000 -1.611059
56.900000 -1.648744
56.950000 -1.659021
57.000000 -1.648743
57.050000 -1.624762
57.100000 -1.569948
57.150000 -1.474023
57.200000 -1.378098
57.250000 -1.299303
57.300000 -1.210229
57.350000 -1.107452
57.400000 -1.052639
57.450000 -1.045787
57.500000 -1.045787
57.550000 -1.080045
57.600000 -1.151989
57.650000 -1.254766
57.700000 -1.381524
57.750000 -1.487726
57.800000 -1.545967
57.850000 -1.587077
57.900000 -1.628188
57.950000 -1.624762
58.000000 -1.556244
58.050000 -1.477449
58.100000 -1.388376
58.150000 -1.265043
58.200000 -1.148564
58.250000 -1.083472
58.300000 -1.035509
58.350000 -1.004676
58.400000 -1.052638
58.450000 -1.148563
58.500000 -1.247914
58.550000 -1.371246
58.600000 -1.487727
58.650000 -1.563096
58.700000 -1.614484
58.750000 -1.635040
58.800000 -1.593929
58.850000 -1.498004
58.900000 -1.381524
58.950000 -1.244488
59.000000 -1.107453
59.050000 -0.987546
59.100000 -0.871066
59.150000 -0.799122
59.200000 -0.809401
59.250000 -0.850511
59.300000 -0.905325
59.350000 -1.028657
59.400000 -1.199952
59.450000 -1.336987
59.500000 -1.456894
59.550000 -1.590503
59.600000 -1.700131
59.650000 -1.748094
59.700000 -1.761797
59.750000 -1.734391
59.800000 -1.652170
59.850000 -1.549392
59.900000 -1.453467
59.950000 -1.343839
60.000000 -1.247914
60.050000 -1.182822
60.100000 -1.141711
60.150000 -1.104026
60.200000 -1.100601
60.250000 -1.145137
60.300000 -1.220507
60.350000 -1.316432
60.400000 -1.422634
60.450000 -1.518559
60.500000 -1.604207
60.550000 -1.665872
60.600000 -1.703557
60.650000 -1.717261
60.700000 -1.717261
60.750000 -1.686428
60.800000 -1.648743
60.850000 -1.614484
60.900000 -1.566522
60.950000 -1.477449
61.000000 -1.391802
61.050000 -1.357542
61.100000 -1.343840
61.150000 -1.316432
61.200000 -1.316431
61.250000 -1.371246
61.300000 -1.443190
61.350000 -1.508282
61.400000 -1.597355
61.450000 -1.724112
61.500000 -1.820037
61.550000 -1.871426
61.600000 -1.929666
61.650000 -1.977629
61.700000 -1.970777
61.750000 -1.926240
61.800000 -1.874852
61.850000 -1.806334
61.900000 -1.706983
61.950000 -1.600781
62.000000 -1.518560
62.050000 -1.439764
62.100000 -1.367821
62.150000 -1.330135
62.200000 -1.326710
62.250000 -1.350691
62.300000 -1.398653
62.350000 -1.460319
62.400000 -1.491152
62.450000 -1.535689
62.500000 -1.614485
62.550000 -1.683002
62.600000 -1.727539
62.650000 -1.789205
62.700000 -1.868001
62.750000 -1.919389
62.800000 -1.977628
62.850000 -2.066702
62.900000 -2.135220
62.950000 -2.162627
63.000000 -2.196886
63.050000 -2.227719
63.100000 -2.210589
63.150000 -2.155775
63.200000 -2.083831
63.250000 -1.991333
63.300000 -1.868001
63.350000 -1.710409
63.400000 -1.556244
63.450000 -1.429486
63.500000 -1.316432
63.550000 -1.213656
63.600000 -1.138285
63.650000 -1.083472
63.700000 -1.021805
63.750000 -0.984120
63.800000 -0.994398
63.850000 -1.018380
63.900000 -1.038935
63.950000 -1.104027
64.000000 -1.182823
64.050000 -1.227359
64.100000 -1.285599
64.150000 -1.360968
64.200000 -1.398654
64.250000 -1.402080
64.300000 -1.419209
64.350000 -1.422635
64.400000 -1.405505
64.450000 -1.378098
64.500000 -1.336988
64.550000 -1.289024
64.600000 -1.271895
64.650000 -1.247914
64.700000 -1.213655
64.750000 -1.213655
64.800000 -1.247914
64.850000 -1.278748
64.900000 -1.313006
64.950000 -1.378098
65.000000 -1.408931
65.050000 -1.405505
65.100000 -1.412357
65.150000 -1.439764
65.200000 -1.426061
65.250000 -1.395227
65.300000 -1.395227
65.350000 -1.405505
65.400000 -1.388376
65.450000 -1.374672
65.500000 -1.381524
65.550000 -1.402079
65.600000 -1.432912
65.650000 -1.456894
65.700000 -1.436338
65.750000 -1.384950
65.800000 -1.336987
65.850000 -1.289025
65.900000 -1.213655
65.950000 -1.124582
66.000000 -1.045786
66.050000 -0.987546
66.100000 -0.949861
66.150000 -0.929307
66.200000 -0.939584
66.250000 -1.004676
66.300000 -1.117730
66.350000 -1.241062
66.400000 -1.357543
66.450000 -1.484301
66.500000 -1.611058
66.550000 -1.730965
66.600000 -1.844019
66.650000 -1.946796
66.700000 -2.015313
66.750000 -2.070128
66.800000 -2.111239
66.850000 -2.131794
66.900000 -2.124942
66.950000 -2.111239
67.000000 -2.104387
67.050000 -2.080405
67.100000 -2.022165
67.150000 -1.943370
67.200000 -1.885129
67.250000 -1.830316
67.300000 -1.751520
67.350000 -1.672725
67.400000 -1.611059
67.450000 -1.528838
67.500000 -1.436339
67.550000 -1.364395
67.600000 -1.278747
67.650000 -1.165693
67.700000 -1.097175
67.750000 -1.086897
67.800000 -1.086898
67.850000 -1.110879
67.900000 -1.193100
67.950000 -1.299303
68.000000 -1.419209
68.050000 -1.563096
68.100000 -1.696706
68.150000 -1.782353
68.200000 -1.837167
68.250000 -1.857723
68.300000 -1.830316
68.350000 -1.775501
68.400000 -1.683003
68.450000 -1.556244
68.500000 -1.432912
68.550000 -1.323284
68.600000 -1.206804
68.650000 -1.093749
68.700000 -1.032083
68.750000 -0.997824
68.800000 -0.953287
68.850000 -0.922454
68.900000 -0.939584
68.950000 -0.956714
69.000000 -0.949862
69.050000 -0.946435
69.100000 -0.929306
69.150000 -0.891622
69.200000 -0.847085
69.250000 -0.809400
69.300000 -0.764864
69.350000 -0.727179
69.400000 -0.716901
69.450000 -0.710050
69.500000 -0.720328
69.550000 -0.775141
69.600000 -0.847085
69.650000 -0.895048
69.700000 -0.960139
69.750000 -1.056064
69.800000 -1.158841
69.850000 -1.265044
69.900000 -1.360969
69.950000 -1.453468
70.000000 -1.542541
70.050000 -1.624762
70.100000 -1.665873
70.150000 -1.683002
70.200000 -1.710409
70.250000 -1.727539
70.300000 -1.717261
70.350000 -1.713835
70.400000 -1.734391
70.450000 -1.727539
70.500000 -1.700131
70.550000 -1.689854
70.600000 -1.706983
70.650000 -1.720687
70.700000 -1.706984
70.750000 -1.665873
70.800000 -1.621336
70.850000 -1.600781
70.900000 -1.563096
70.950000 -1.491152
71.000000 -1.422635
71.050000 -1.378098
71.100000 -1.340413
71.150000 -1.313006
71.200000 -1.299302
71.250000 -1.254766
71.300000 -1.210230
71.350000 -1.203378
71.400000 -1.182822
71.450000 -1.110879
71.500000 -1.073194
71.550000 -1.073194
71.600000 -1.042360
71.650000 -0.997824
71.700000 -1.025231
71.750000 -1.086897
71.800000 -1.131434
71.850000 -1.189674
71.900000 -1.285599
71.950000 -1.391802
72.000000 -1.501431
72.050000 -1.631613
72.100000 -1.765224
72.150000 -1.905685
72.200000 -2.032443
72.250000 -2.090684
72.300000 -2.097535
72.350000 -2.094109
72.400000 -2.059850
72.450000 -1.946795
72.500000 -1.809760
72.550000 -1.689854
72.600000 -1.556244
72.650000 -1.415783
72.700000 -1.309581
72.750000 -1.237637
72.800000 -1.186248
72.850000 -1.165693
72.900000 -1.151989
72.950000 -1.128008
73.000000 -1.104027
73.050000 -1.097175
73.100000 -1.090323
73.150000 -1.073193
73.200000 -1.038935
73.250000 -1.004676
73.300000 -0.980695
73.350000 -0.984121
73.400000 -1.021805
73.450000 -1.062916
73.500000 -1.124582
73.550000 -1.213655
73.600000 -1.313006
73.650000 -1.402079
73.700000 -1.474023
73.750000 -1.518559
73.800000 -1.535689
73.850000 -1.504856
73.900000 -1.398654
73.950000 -1.268470
74.000000 -1.169119
74.050000 -1.066342
74.100000 -0.929307
74.150000 -0.809400
74.200000 -0.751160
74.250000 -0.744308
74.300000 -0.751160
74.350000 -0.788844
74.400000 -0.860788
74.450000 -0.963565
74.500000 -1.076620
74.550000 -1.203378
74.600000 -1.323284
74.650000 -1.405506
74.700000 -1.408931
74.750000 -1.350691
74.800000 -1.295876
74.850000 -1.244488
74.900000 -1.172545
74.950000 -1.073194
75.000000 -0.987546
75.050000 -0.966992
75.100000 -0.994398
75.150000 -1.018380
75.200000 -1.032083
75.250000 -1.093749
75.300000 -1.199951
75.350000 -1.302729
75.400000 -1.402079
75.450000 -1.494579
75.500000 -1.556245
75.550000 -1.593929
75.600000 -1.638465
75.650000 -1.652169
75.700000 -1.614485
75.750000 -1.576800
75.800000 -1.545967
75.850000 -1.467171
75.900000 -1.354117
75.950000 -1.244488
76.000000 -1.138286
76.050000 -1.021805
76.100000 -0.922454
76.150000 -0.860788
76.200000 -0.840233
76.250000 -0.847085
76.300000 -0.877918
76.350000 -0.949862
76.400000 -1.110879
76.450000 -1.295877
76.500000 -1.439764
76.550000 -1.569948
76.600000 -1.717261
76.650000 -1.823464
76.700000 -1.840593
76.750000 -1.816612
76.800000 -1.765224
76.850000 -1.679577
76.900000 -1.542540
76.950000 -1.391802
77.000000 -1.254766
77.050000 -1.148564
77.100000 -1.052639
77.150000 -0.963565
77.200000 -0.881344
77.250000 -0.826530
77.300000 -0.799123
77.350000 -0.781994
77.400000 -0.754586
77.450000 -0.734030
77.500000 -0.716901
77.550000 -0.692920
77.600000 -0.699772
77.650000 -0.740882
77.700000 -0.758011
77.750000 -0.758012
77.800000 -0.799123
77.850000 -0.881344
77.900000 -0.953288
77.950000 -1.021805
78.000000 -1.124582
78.050000 -1.196526
78.100000 -1.234211
78.150000 -1.282173
78.200000 -1.336987
78.250000 -1.347265
78.300000 -1.313007
78.350000 -1.275322
78.400000 -1.230785
78.450000 -1.179396
78.500000 -1.124582
78.550000 -1.076619
78.600000 -1.032083
78.650000 -0.997824
78.700000 -0.973843
78.750000 -0.960140
78.800000 -0.960140
78.850000 -0.946436
78.900000 -0.922455
78.950000 -0.912177
79.000000 -0.922455
79.050000 -0.925880
79.100000 -0.925881
79.150000 -0.929307
79.200000 -0.936158
79.250000 -0.953287
79.300000 -0.966991
79.350000 -0.994399
79.400000 -1.028657
79.450000 -1.076619
79.500000 -1.117731
79.550000 -1.148563
79.600000 -1.186248
79.650000 -1.234210
79.700000 -1.265044
79.750000 -1.278748
79.800000 -1.316432
79.850000 -1.354116
79.900000 -1.357543
79.950000 -1.347265
80.000000 -1.347265
80.050000 -1.319858
80.100000 -1.275321
80.150000 -1.241063
80.200000 -1.203378
80.250000 -1.155415
80.300000 -1.141712
80.350000 -1.141711
80.400000 -1.141711
80.450000 -1.169119
80.500000 -1.227359
80.550000 -1.289025
80.600000 -1.360969
80.650000 -1.429487
80.700000 -1.446616
80.750000 -1.432913
80.800000 -1.439764
80.850000 -1.415783
80.900000 -1.340413
80.950000 -1.275322
81.000000 -1.220507
81.050000 -1.141712
81.100000 -1.049212
81.150000 -0.966991
81.200000 -0.884770
81.250000 -0.812826
81.300000 -0.740882
81.350000 -0.689494
81.400000 -0.686068
81.450000 -0.699771
81.500000 -0.699772
81.550000 -0.723753
81.600000 -0.785419
81.650000 -0.836807
81.700000 -0.867641
81.750000 -0.898473
81.800000 -0.908751
81.850000 -0.908751
81.900000 -0.925881
81.950000 -0.919029
82.000000 -0.867641
82.050000 -0.833382
82.100000 -0.819678
82.150000 -0.775141
82.200000 -0.727179
82.250000 -0.720327
82.300000 -0.734031
82.350000 -0.727178
82.400000 -0.730605
82.450000 -0.751160
82.500000 -0.758012
82.550000 -0.747734
82.600000 -0.723753
82.650000 -0.703197
82.700000 -0.686069
82.750000 -0.686069
82.800000 -0.686068
82.850000 -0.682643
82.900000 -0.696346
82.950000 -0.744308
83.000000 -0.781993
83.050000 -0.802548
83.100000 -0.823104
83.150000 -0.826530
83.200000 -0.788845
83.250000 -0.734030
83.300000 -0.710050
83.350000 -0.689494
83.400000 -0.662087
83.450000 -0.672365
83.500000 -0.720327
83.550000 -0.771715
83.600000 -0.836807
83.650000 -0.915603
83.700000 -0.994398
83.750000 -1.066342
83.800000 -1.131434
83.850000 -1.169118
83.900000 -1.189674
83.950000 -1.186248
84.000000 -1.162266
84.050000 -1.141711
84.100000 -1.117730
84.150000 -1.093749
84.200000 -1.104027
84.250000 -1.155415
84.300000 -1.182822
84.350000 -1.220507
84.400000 -1.309580
84.450000 -1.391801
84.500000 -1.412357
84.550000 -1.415783
84.600000 -1.426060
84.650000 -1.398653
84.700000 -1.350691
84.750000 -1.313006
84.800000 -1.282173
84.850000 -1.261618
84.900000 -1.289025
84.950000 -1.360969
85.000000 -1.446616
85.050000 -1.563096
85.100000 -1.706984
85.150000 -1.837167
85.200000 -1.950222
85.250000 -2.076980
85.300000 -2.169479
85.350000 -2.186608
85.400000 -2.166053
85.450000 -2.135220
85.500000 -2.049573
85.550000 -1.898833
85.600000 -1.741242
85.650000 -1.590503
85.700000 -1.443190
85.750000 -1.309580
85.800000 -1.179396
85.850000 -1.076619
85.900000 -1.004676
85.950000 -0.949862
86.000000 -0.925881
86.050000 -0.970417
86.100000 -1.028657
86.150000 -1.049213
86.200000 -1.086897
86.250000 -1.158841
86.300000 -1.213655
86.350000 -1.237636
86.400000 -1.285599
86.450000 -1.323283
86.500000 -1.316432
86.550000 -1.309580
86.600000 -1.330136
86.650000 -1.343839
86.700000 -1.360969
86.750000 -1.388376
86.800000 -1.384950
86.850000 -1.343839
86.900000 -1.316432
86.950000 -1.289025
87.000000 -1.237637
87.050000 -1.158841
87.100000 -1.062917
87.150000 -0.970417
87.200000 -0.901899
87.250000 -0.840233
87.300000 -0.799123
87.350000 -0.812826
87.400000 -0.874492
87.450000 -0.939584
87.500000 -1.028657
87.550000 -1.141712
87.600000 -1.230785
87.650000 -1.309580
87.700000 -1.419209
87.750000 -1.501430
87.800000 -1.511708
87.850000 -1.491152
87.900000 -1.460319
87.950000 -1.371247
88.000000 -1.247914
88.050000 -1.114305
88.100000 -0.977269
88.150000 -0.853937
88.200000 -0.775141
88.250000 -0.744309
88.300000 -0.754586
88.350000 -0.823104
88.400000 -0.953288
88.450000 -1.114305
88.500000 -1.306154
88.550000 -1.494578
88.600000 -1.638465
88.650000 -1.772075
88.700000 -1.933093
88.750000 -2.059850
88.800000 -2.111239
88.850000 -2.142072
88.900000 -2.179756
88.950000 -2.169478
89.000000 -2.142072
89.050000 -2.135219
89.100000 -2.118090
89.150000 -2.070127
89.200000 -2.035869
89.250000 -2.022165
89.300000 -1.991333
89.350000 -1.939944
89.400000 -1.878278
89.450000 -1.796057
89.500000 -1.700132
89.550000 -1.583652
89.600000 -1.446616
89.650000 -1.299303
89.700000 -1.158841
89.750000 -1.025232
89.800000 -0.898474
89.850000 -0.788845
89.900000 -0.703198
89.950000 -0.641532
90.000000 -0.600421
90.050000 -0.596995
90.100000 -0.617550
90.150000 -0.662087
90.200000 -0.723753
90.250000 -0.819677
90.300000 -0.912177
90.350000 -0.963565
90.400000 -0.987546
90.450000 -0.990972
90.500000 -0.973843
90.550000 -0.956714
90.600000 -0.960140
90.650000 -0.973843
90.700000 -0.990973
90.750000 -1.032083
90.800000 -1.104027
90.850000 -1.179396
90.900000 -1.254766
90.950000 -1.343839
91.000000 -1.426061
91.050000 -1.477449
91.100000 -1.521985
91.150000 -1.559670
91.200000 -1.556244
91.250000 -1.508282
91.300000 -1.453467
91.350000 -1.388375
91.400000 -1.319858
91.450000 -1.254766
91.500000 -1.193100
91.550000 -1.131434
91.600000 -1.093749
91.650000 -1.107453
91.700000 -1.131434
91.750000 -1.151989
91.800000 -1.193100
91.850000 -1.268469
91.900000 -1.350690
91.950000 -1.415783
92.000000 -1.477448
92.050000 -1.518559
92.100000 -1.511707
92.150000 -1.480875
92.200000 -1.443190
92.250000 -1.367820
92.300000 -1.247915
92.350000 -1.128008
92.400000 -1.014953
92.450000 -0.912177
92.500000 -0.823104
92.550000 -0.775142
92.600000 -0.778568
92.650000 -0.833382
92.700000 -0.922455
92.750000 -1.014954
92.800000 -1.086897
92.850000 -1.141712
92.900000 -1.220507
92.950000 -1.295876
93.000000 -1.323284
93.050000 -1.330136
93.100000 -1.350691
93.150000 -1.360968
93.200000 -1.323284
93.250000 -1.265043
93.300000 -1.213655
93.350000 -1.158841
93.400000 -1.080046
93.450000 -0.980695
93.500000 -0.884770
93.550000 -0.802548
93.600000 -0.740883
93.650000 -0.696346
93.700000 -0.651809
93.750000 -0.638106
93.800000 -0.689494
93.850000 -0.785419
93.900000 -0.874492
93.950000 -0.977268
94.000000 -1.097175
94.050000 -1.179396
94.100000 -1.213655
94.150000 -1.247914
94.200000 -1.261618
94.250000 -1.223933
94.300000 -1.158841
94.350000 -1.090323
94.400000 -1.021806
94.450000 -0.987547
94.500000 -0.997824
94.550000 -1.028657
94.600000 -1.083471
94.650000 -1.186248
94.700000 -1.302728
94.750000 -1.422634
94.800000 -1.559670
94.850000 -1.696705
94.900000 -1.785779
94.950000 -1.847445
95.000000 -1.926240
95.050000 -2.001610
95.100000 -2.046146
95.150000 -2.059850
95.200000 -2.070128
95.250000 -2.076979
95.300000 -2.073553
95.350000 -2.039295
95.400000 -1.963926
95.450000 -1.891981
95.500000 -1.816612
95.550000 -1.710410
95.600000 -1.590503
95.650000 -1.456893
95.700000 -1.323284
95.750000 -1.193099
95.800000 -1.073194
95.850000 -0.984121
95.900000 -0.943010
95.950000 -0.936158
96.000000 -0.936158
96.050000 -0.949862
96.100000 -0.984121
96.150000 -1.011528
96.200000 -1.038935
96.250000 -1.073194
96.300000 -1.080046
96.350000 -1.059490
96.400000 -1.062916
96.450000 -1.090323
96.500000 -1.083471
96.550000 -1.052639
96.600000 -1.062916
96.650000 -1.093749
96.700000 -1.107453
96.750000 -1.141711
96.800000 -1.186249
96.850000 -1.186248
96.900000 -1.172545
96.950000 -1.182822
97.000000 -1.193100
97.050000 -1.175970
97.100000 -1.155415
97.150000 -1.148563
97.200000 -1.138285
97.250000 -1.124582
97.300000 -1.124582
97.350000 -1.148563
97.400000 -1.196526
97.450000 -1.275321
97.500000 -1.364394
97.550000 -1.450042
97.600000 -1.521985
97.650000 -1.590503
97.700000 -1.659021
97.750000 -1.706984
97.800000 -1.710409
97.850000 -1.679576
97.900000 -1.641891
97.950000 -1.576799
98.000000 -1.484301
98.050000 -1.419208
98.100000 -1.354117
98.150000 -1.251340
98.200000 -1.162267
98.250000 -1.124582
98.300000 -1.066342
98.350000 -0.984120
98.400000 -0.953288
98.450000 -0.960139
98.500000 -0.956714
98.550000 -0.963565
98.600000 -1.004676
98.650000 -1.042361
98.700000 -1.069768
98.750000 -1.107453
98.800000 -1.141711
98.850000 -1.162267
98.900000 -1.186248
98.950000 -1.217081
99.000000 -1.254766
99.050000 -1.289024
99.100000 -1.302729
99.150000 -1.330135
99.200000 -1.388375
99.250000 -1.439764
99.300000 -1.463745
99.350000 -1.498005
99.400000 -1.532263
99.450000 -1.518560
99.500000 -1.504856
99.550000 -1.501430
99.600000 -1.456893
99.650000 -1.395227
99.700000 -1.360969
99.750000 -1.302729
99.800000 -1.213655
99.850000 -1.162267
99.900000 -1.134860
99.950000 -1.097175
100.000000 -1.062917
100.050000 -1.042360
100.100000 -0.997824
100.150000 -0.970417
100.200000 -0.973843
100.250000 -0.970418
100.300000 -0.970417
100.350000 -1.004676
100.400000 -1.059490
100.450000 -1.100601
100.500000 -1.148563
100.550000 -1.206803
100.600000 -1.251340
100.650000 -1.299303
100.700000 -1.364395
100.750000 -1.402079
100.800000 -1.402079
100.850000 -1.402079
100.900000 -1.391801
100.950000 -1.354117
101.000000 -1.309580
101.050000 -1.265044
101.100000 -1.179397
101.150000 -1.069767
101.200000 -0.977269
101.250000 -0.881344
101.300000 -0.754586
101.350000 -0.627828
101.400000 -0.535329
101.450000 -0.463385
101.500000 -0.411997
101.550000 -0.401720
101.600000 -0.453107
101.650000 -0.545607
101.700000 -0.679217
101.750000 -0.809401
101.800000 -0.953288
101.850000 -1.107452
101.900000 -1.251340
101.950000 -1.360968
102.000000 -1.460319
102.050000 -1.518559
102.100000 -1.528837
102.150000 -1.501430
102.200000 -1.436338
102.250000 -1.364395
102.300000 -1.313006
102.350000 -1.271895
102.400000 -1.230785
102.450000 -1.251340
102.500000 -1.323284
102.550000 -1.371246
102.600000 -1.408931
102.650000 -1.504856
102.700000 -1.593929
102.750000 -1.628188
102.800000 -1.686428
102.850000 -1.761797
102.900000 -1.748095
102.950000 -1.672724
103.000000 -1.617910
103.050000 -1.563096
103.100000 -1.474022
103.150000 -1.388376
103.200000 -1.299303
103.250000 -1.206803
103.300000 -1.151989
103.350000 -1.124582
103.400000 -1.110879
103.450000 -1.145137
103.500000 -1.234211
103.550000 -1.323284
103.600000 -1.419209
103.650000 -1.556244
103.700000 -1.683002
103.750000 -1.761797
103.800000 -1.806334
103.850000 -1.820038
103.900000 -1.778927
103.950000 -1.686428
104.000000 -1.559670
104.050000 -1.388376
104.100000 -1.165692
104.150000 -0.946435
104.200000 -0.758012
104.250000 -0.610698
104.300000 -0.514774
104.350000 -0.487367
104.400000 -0.504496
104.450000 -0.566162
104.500000 -0.692920
104.550000 -0.843660
104.600000 -0.980695
104.650000 -1.100601
104.700000 -1.196526
104.750000 -1.254766
104.800000 -1.285599
104.850000 -1.278747
104.900000 -1.223933
104.950000 -1.162266
105.000000 -1.110879
105.050000 -1.025232
105.100000 -0.929306
105.150000 -0.888196
105.200000 -0.877918
105.250000 -0.877918
105.300000 -0.912176
105.350000 -0.966991
105.400000 -1.014954
105.450000 -1.076619
105.500000 -1.155415
105.550000 -1.213655
105.600000 -1.271896
105.650000 -1.347265
105.700000 -1.402079
105.750000 -1.426061
105.800000 -1.453468
105.850000 -1.480875
105.900000 -1.484301
105.950000 -1.494578
106.000000 -1.504856
106.050000 -1.498004
106.100000 -1.470597
106.150000 -1.432912
106.200000 -1.391802
106.250000 -1.381524
106.300000 -1.378098
106.350000 -1.371247
106.400000 -1.402079
106.450000 -1.467172
106.500000 -1.515134
106.550000 -1.569948
106.600000 -1.665873
106.650000 -1.737817
106.700000 -1.734390
106.750000 -1.706983
106.800000 -1.669299
106.850000 -1.566521
106.900000 -1.426060
106.950000 -1.313006
107.000000 -1.199951
107.050000 -1.035509
107.100000 -0.888196
107.150000 -0.826530
107.200000 -0.795696
107.250000 -0.775141
107.300000 -0.819678
107.350000 -0.908751
107.400000 -0.990973
107.450000 -1.093749
107.500000 -1.210230
107.550000 -1.261617
107.600000 -1.254766
107.650000 -1.268470
107.700000 -1.251340
107.750000 -1.148563
107.800000 -1.021806
107.850000 -0.912177
107.900000 -0.785419
107.950000 -0.651809
108.000000 -0.549033
108.050000 -0.480515
108.100000 -0.435979
108.150000 -0.425700
108.200000 -0.422274
108.250000 -0.446256
108.300000 -0.514773
108.350000 -0.596995
108.400000 -0.672364
108.450000 -0.758011
108.500000 -0.840233
108.550000 -0.912177
108.600000 -0.987547
108.650000 -1.062916
108.700000 -1.114304
108.750000 -1.165692
108.800000 -1.230785
108.850000 -1.258192
108.900000 -1.244488
108.950000 -1.265044
109.000000 -1.319858
109.050000 -1.360968
109.100000 -1.398653
109.150000 -1.463746
109.200000 -1.501430
109.250000 -1.480874
109.300000 -1.450041
109.350000 -1.426061
109.400000 -1.371246
109.450000 -1.306154
109.500000 -1.241062
109.550000 -1.141712
109.600000 -1.008102
109.650000 -0.905325
109.700000 -0.812826
109.750000 -0.706623
109.800000 -0.638106
109.850000 -0.631254
109.900000 -0.638106
109.950000 -0.662087
110.000000 -0.737457
110.050000 -0.833381
110.100000 -0.905325
110.150000 -0.966991
110.200000 -1.049213
110.250000 -1.117731
110.300000 -1.172544
110.350000 -1.213656
110.400000 -1.241062
110.450000 -1.251341
110.500000 -1.261617
110.550000 -1.258191
110.600000 -1.244488
110.650000 -1.247915
110.700000 -1.237636
110.750000 -1.210230
110.800000 -1.196526
110.850000 -1.199952
110.900000 -1.186249
110.950000 -1.158841
111.000000 -1.145137
111.050000 -1.104026
111.100000 -1.038935
111.150000 -0.990973
111.200000 -0.960140
111.250000 -0.905325
111.300000 -0.864214
111.350000 -0.850510
111.400000 -0.840234
111.450000 -0.816252
111.500000 -0.829956
111.550000 -0.877918
111.600000 -0.932732
111.650000 -0.984121
111.700000 -1.049213
111.750000 -1.110878
111.800000 -1.169119
111.850000 -1.230784
111.900000 -1.258192
111.950000 -1.258191
112.000000 -1.271896
112.050000 -1.289025
112.100000 -1.268470
112.150000 -1.247914
112.200000 -1.261618
112.250000 -1.275322
112.300000 -1.265044
112.350000 -1.254765
112.400000 -1.278747
112.450000 -1.323284
112.500000 -1.354117
112.550000 -1.354117
112.600000 -1.336988
112.650000 -1.340413
112.700000 -1.364394
112.750000 -1.381524
112.800000 -1.395227
112.850000 -1.432912
112.900000 -1.480874
112.950000 -1.518560
113.000000 -1.559670
113.050000 -1.621336
113.100000 -1.669299
113.150000 -1.683002
113.200000 -1.679577
113.250000 -1.641892
113.300000 -1.563096
113.350000 -1.467171
113.400000 -1.350691
113.450000 -1.213656
113.500000 -1.093749
113.550000 -1.004676
113.600000 -0.908751
113.650000 -0.829956
113.700000 -0.785419
113.750000 -0.758012
113.800000 -0.764864
113.850000 -0.819678
113.900000 -0.891621
113.950000 -0.946436
114.000000 -1.001250
114.050000 -1.076619
114.100000 -1.124582
114.150000 -1.141711
114.200000 -1.165692
114.250000 -1.206804
114.300000 -1.251340
114.350000 -1.275321
114.400000 -1.295877
114.450000 -1.319858
114.500000 -1.333562
114.550000 -1.347265
114.600000 -1.381524
114.650000 -1.426061
114.700000 -1.470597
114.750000 -1.511707
114.800000 -1.559671
114.850000 -1.607633
114.900000 -1.652169
114.950000 -1.696706
115.000000 -1.724113
115.050000 -1.720687
115.100000 -1.679577
115.150000 -1.604207
115.200000 -1.501430
115.250000 -1.388376
115.300000 -1.241063
115.350000 -1.073194
115.400000 -0.922455
115.450000 -0.812827
115.500000 -0.730605
115.550000 -0.679216
115.600000 -0.686068
115.650000 -0.734031
115.700000 -0.802548
115.750000 -0.895047
115.800000 -1.014953
115.850000 -1.134860
115.900000 -1.227359
115.950000 -1.258191
116.000000 -1.234211
116.050000 -1.172545
116.100000 -1.066342
116.150000 -0.901900
116.200000 -0.727179
116.250000 -0.610699
116.300000 -0.531903
116.350000 -0.456533
116.400000 -0.446256
116.450000 -0.501070
116.500000 -0.573014
116.550000 -0.658661
116.600000 -0.812826
116.650000 -0.987546
116.700000 -1.114305
116.750000 -1.227359
116.800000 -1.340413
116.850000 -1.412357
116.900000 -1.436338
116.950000 -1.436338
117.000000 -1.405505
117.050000 -1.378098
117.100000 -1.388376
117.150000 -1.408931
117.200000 -1.426061
117.250000 -1.467171
117.300000 -1.504856
117.350000 -1.515134
117.400000 -1.511708
117.450000 -1.487726
117.500000 -1.422634
117.550000 -1.350691
117.600000 -1.289025
117.650000 -1.206804
117.700000 -1.110879
117.750000 -1.056065
117.800000 -1.025232
117.850000 -1.001250
117.900000 -1.011528
117.950000 -1.073193
118.000000 -1.145137
118.050000 -1.203377
118.100000 -1.278747
118.150000 -1.343839
118.200000 -1.371247
118.250000 -1.354117
118.300000 -1.326709
118.350000 -1.292451
118.400000 -1.210230
118.450000 -1.076620
118.500000 -0.966991
118.550000 -0.905325
118.600000 -0.860788
118.650000 -0.809400
118.700000 -0.788845
118.750000 -0.788845
118.800000 -0.802549
118.850000 -0.843660
118.900000 -0.901899
118.950000 -0.925880
119.000000 -0.925880
119.050000 -0.960139
119.100000 -1.028657
119.150000 -1.066342
119.200000 -1.083472
119.250000 -1.097175
119.300000 -1.114304
119.350000 -1.121156
119.400000 -1.141711
119.450000 -1.155415
119.500000 -1.158841
119.550000 -1.151989
119.600000 -1.148564
119.650000 -1.155415
119.700000 -1.145138
119.750000 -1.114304
119.800000 -1.097175
119.850000 -1.114304
119.900000 -1.151989
119.950000 -1.199952
120.000000 -1.261618
120.050000 -1.350691
120.100000 -1.432913
120.150000 -1.491152
120.200000 -1.528837
120.250000 -1.532263
120.300000 -1.494578
120.350000 -1.443190
120.400000 -1.388375
120.450000 -1.326710
120.500000 -1.265044
120.550000 -1.213655
120.600000 -1.186249
120.650000 -1.203378
120.700000 -1.254766
120.750000 -1.333562
120.800000 -1.474023
120.850000 -1.635040
120.900000 -1.758372
120.950000 -1.868000
121.000000 -1.974203
121.050000 -2.008462
121.100000 -1.950221
121.150000 -1.871426
121.200000 -1.772075
121.250000 -1.611058
121.300000 -1.436338
121.350000 -1.278747
121.400000 -1.131434
121.450000 -1.025231
121.500000 -0.980694
121.550000 -0.970417
121.600000 -1.004676
121.650000 -1.121156
121.700000 -1.251340
121.750000 -1.336987
121.800000 -1.388376
121.850000 -1.439764
121.900000 -1.477449
121.950000 -1.446616
122.000000 -1.357543
122.050000 -1.244489
122.100000 -1.134859
122.150000 -1.028657
122.200000 -0.939584
122.250000 -0.884769
122.300000 -0.877918
122.350000 -0.912176
122.400000 -0.984121
122.450000 -1.076620
122.500000 -1.165692
122.550000 -1.220507
122.600000 -1.217081
122.650000 -1.172544
122.700000 -1.117730
122.750000 -1.042360
122.800000 -0.912177
122.850000 -0.771716
122.900000 -0.689494
122.950000 -0.644957
123.000000 -0.631254
123.050000 -0.679217
123.100000 -0.785419
123.150000 -0.905325
123.200000 -1.038935
123.250000 -1.199952
123.300000 -1.336987
123.350000 -1.426060
123.400000 -1.470597
123.450000 -1.446616
123.500000 -1.347265
123.550000 -1.213656
123.600000 -1.049212
123.650000 -0.853937
123.700000 -0.644957
123.750000 -0.480515
123.800000 -0.381164
123.850000 -0.329776
123.900000 -0.322924
123.950000 -0.374313
124.000000 -0.477089
124.050000 -0.610698
124.100000 -0.754586
124.150000 -0.898473
124.200000 -1.032083
124.250000 -1.138285
124.300000 -1.203377
124.350000 -1.230785
124.400000 -1.234210
124.450000 -1.193100
124.500000 -1.110879
124.550000 -1.011528
124.600000 -0.919028
124.650000 -0.805975
124.700000 -0.713476
124.750000 -0.689495
124.800000 -0.713476
124.850000 -0.744308
124.900000 -0.812826
124.950000 -0.912177
125.000000 -0.987547
125.050000 -1.045787
125.100000 -1.107453
125.150000 -1.145138
125.200000 -1.131434
125.250000 -1.080046
125.300000 -0.997824
125.350000 -0.881344
125.400000 -0.768289
125.450000 -0.696346
125.500000 -0.658661
125.550000 -0.655235
125.600000 -0.686068
125.650000 -0.754586
125.700000 -0.847085
125.750000 -0.953288
125.800000 -1.052638
125.850000 -1.124582
125.900000 -1.172545
125.950000 -1.210230
126.000000 -1.217081
126.050000 -1.182822
126.100000 -1.145137
126.150000 -1.121156
126.200000 -1.114305
126.250000 -1.117731
126.300000 -1.141711
126.350000 -1.196525
126.400000 -1.275321
126.450000 -1.347265
126.500000 -1.381524
126.550000 -1.405505
126.600000 -1.432912
126.650000 -1.415783
126.700000 -1.343839
126.750000 -1.258192
126.800000 -1.193100
126.850000 -1.151990
126.900000 -1.114304
126.950000 -1.090324
127.000000 -1.114304
127.050000 -1.182822
127.100000 -1.254766
127.150000 -1.319858
127.200000 -1.391802
127.250000 -1.460319
127.300000 -1.477449
127.350000 -1.446616
127.400000 -1.384950
127.450000 -1.285599
127.500000 -1.141712
127.550000 -0.997824
127.600000 -0.867641
127.650000 -0.754586
127.700000 -0.679216
127.750000 -0.655235
127.800000 -0.675790
127.850000 -0.740882
127.900000 -0.857363
127.950000 -0.997824
128.000000 -1.148563
128.050000 -1.313006
128.100000 -1.474023
128.150000 -1.583651
128.200000 -1.645317
128.250000 -1.676150
128.300000 -1.683002
128.350000 -1.655595
128.400000 -1.593930
128.450000 -1.494578
128.500000 -1.371246
128.550000 -1.258192
128.600000 -1.162267
128.650000 -1.073193
128.700000 -0.994399
128.750000 -0.946436
128.800000 -0.898473
128.850000 -0.840233
128.900000 -0.819678
128.950000 -0.819678
129.000000 -0.799123
129.050000 -0.775141
129.100000 -0.778567
129.150000 -0.802549
129.200000 -0.847085
129.250000 -0.898474
129.300000 -0.943010
129.350000 -1.025231
129.400000 -1.138286
129.450000 -1.210230
129.500000 -1.237637
129.550000 -1.278747
129.600000 -1.313006
129.650000 -1.282173
129.700000 -1.227359
129.750000 -1.172544
129.800000 -1.080045
129.850000 -0.963565
129.900000 -0.888196
129.950000 -0.850510
130.000000 -0.812826
130.050000 -0.788845
130.100000 -0.785419
130.150000 -0.805975
130.200000 -0.836808
130.250000 -0.860789
130.300000 -0.881344
130.350000 -0.925880
130.400000 -0.970417
130.450000 -0.987546
130.500000 -0.990973
130.550000 -1.001250
130.600000 -0.997825
130.650000 -1.008102
130.700000 -1.042361
130.750000 -1.086897
130.800000 -1.117730
130.850000 -1.172545
130.900000 -1.271895
130.950000 -1.388376
131.000000 -1.467171
131.050000 -1.528837
131.100000 -1.593929
131.150000 -1.631614
131.200000 -1.614485
131.250000 -1.576799
131.300000 -1.528837
131.350000 -1.429486
131.400000 -1.299302
131.450000 -1.162266
131.500000 -1.018380
131.550000 -0.847085
131.600000 -0.703198
131.650000 -0.610698
131.700000 -0.549032
131.750000 -0.504496
131.800000 -0.477089
131.850000 -0.483941
131.900000 -0.528477
131.950000 -0.593569
132.000000 -0.668938
132.050000 -0.747734
132.100000 -0.816252
132.150000 -0.867640
132.200000 -0.898474
132.250000 -0.912177
132.300000 -0.922454
132.350000 -0.943010
132.400000 -0.966991
132.450000 -0.977269
132.500000 -0.984121
132.550000 -1.025231
132.600000 -1.110879
132.650000 -1.193100
132.700000 -1.237637
132.750000 -1.292451
132.800000 -1.415782
132.850000 -1.528837
132.900000 -1.563096
132.950000 -1.566522
133.000000 -1.573374
133.050000 -1.552818
133.100000 -1.484301
133.150000 -1.405505
133.200000 -1.326710
133.250000 -1.241063
133.300000 -1.155415
133.350000 -1.093750
133.400000 -1.093750
133.450000 -1.131434
133.500000 -1.138286
133.550000 -1.134860
133.600000 -1.175971
133.650000 -1.234210
133.700000 -1.254766
133.750000 -1.265044
133.800000 -1.285599
133.850000 -1.292451
133.900000 -1.289024
133.950000 -1.309580
134.000000 -1.319858
134.050000 -1.309580
134.100000 -1.299302
134.150000 -1.309580
134.200000 -1.323283
134.250000 -1.316432
134.300000 -1.282173
134.350000 -1.237636
134.400000 -1.203378
134.450000 -1.162267
134.500000 -1.107453
134.550000 -1.062916
134.600000 -1.052639
134.650000 -1.049212
134.700000 -1.056064
134.750000 -1.100601
134.800000 -1.148564
134.850000 -1.186248
134.900000 -1.234211
134.950000 -1.289025
135.000000 -1.326709
135.050000 -1.374672
135.100000 -1.439764
135.150000 -1.484301
135.200000 -1.494578
135.250000 -1.501430
135.300000 -1.501430
135.350000 -1.498004
135.400000 -1.498004
135.450000 -1.470597
135.500000 -1.395228
135.550000 -1.323283
135.600000 -1.258191
135.650000 -1.145138
135.700000 -0.994399
135.750000 -0.874492
135.800000 -0.792271
135.850000 -0.706624
135.900000 -0.655235
135.950000 -0.644958
136.000000 -0.641532
136.050000 -0.662087
136.100000 -0.723753
136.150000 -0.788845
136.200000 -0.836807
136.250000 -0.881344
136.300000 -0.915603
136.350000 -0.932732
136.400000 -0.943010
136.450000 -0.956713
136.500000 -0.973843
136.550000 -0.987547
136.600000 -1.021805
136.650000 -1.066342
136.700000 -1.131434
136.750000 -1.199952
136.800000 -1.271896
136.850000 -1.347265
136.900000 -1.429486
136.950000 -1.491152
137.000000 -1.511708
137.050000 -1.515133
137.100000 -1.515134
137.150000 -1.494578
137.200000 -1.453467
137.250000 -1.405505
137.300000 -1.364395
137.350000 -1.343839
137.400000 -1.347265
137.450000 -1.357543
137.500000 -1.395227
137.550000 -1.456894
137.600000 -1.535689
137.650000 -1.597355
137.700000 -1.638466
137.750000 -1.669299
137.800000 -1.696705
137.850000 -1.703557
137.900000 -1.665873
137.950000 -1.576799
138.000000 -1.477449
138.050000 -1.398654
138.100000 -1.316432
138.150000 -1.199952
138.200000 -1.076620
138.250000 -0.977269
138.300000 -0.881344
138.350000 -0.809400
138.400000 -0.781993
138.450000 -0.788845
138.500000 -0.823104
138.550000 -0.888196
138.600000 -0.984120
138.650000 -1.107453
138.700000 -1.237636
138.750000 -1.357543
138.800000 -1.467171
138.850000 -1.556244
138.900000 -1.614484
138.950000 -1.621337
139.000000 -1.569947
139.050000 -1.470598
139.100000 -1.326710
139.150000 -1.134860
139.200000 -0.936158
139.250000 -0.771715
139.300000 -0.655235
139.350000 -0.566162
139.400000 -0.521625
139.450000 -0.542180
139.500000 -0.634680
139.550000 -0.788845
139.600000 -0.973843
139.650000 -1.145137
139.700000 -1.319858
139.750000 -1.480875
139.800000 -1.600781
139.850000 -1.686428
139.900000 -1.730965
139.950000 -1.713835
140.000000 -1.645317
140.050000 -1.563096
140.100000 -1.460319
140.150000 -1.330136
140.200000 -1.213656
140.250000 -1.121156
140.300000 -1.038934
140.350000 -0.980695
140.400000 -0.956713
140.450000 -0.936159
140.500000 -0.936158
140.550000 -0.973843
140.600000 -1.021805
140.650000 -1.045787
140.700000 -1.052639
140.750000 -1.062916
140.800000 -1.066342
140.850000 -1.062916
140.900000 -1.052638
140.950000 -1.032083
141.000000 -0.994398
141.050000 -0.960140
141.100000 -0.946436
141.150000 -0.946436
141.200000 -0.949862
141.250000 -0.984121
141.300000 -1.045787
141.350000 -1.114304
141.400000 -1.172545
141.450000 -1.217082
141.500000 -1.251341
141.550000 -1.268469
141.600000 -1.247914
141.650000 -1.210230
141.700000 -1.182822
141.750000 -1.134860
141.800000 -1.042361
141.850000 -0.953288
141.900000 -0.898474
141.950000 -0.850511
142.000000 -0.792271
142.050000 -0.758012
142.100000 -0.740882
142.150000 -0.720327
142.200000 -0.713475
142.250000 -0.744308
142.300000 -0.795697
142.350000 -0.857363
142.400000 -0.919029
142.450000 -0.949861
142.500000 -0.960139
142.550000 -0.987546
142.600000 -1.038935
142.650000 -1.083471
142.700000 -1.104027
142.750000 -1.104027
142.800000 -1.093749
142.850000 -1.104027
142.900000 -1.134859
142.950000 -1.151990
143.000000 -1.179396
143.050000 -1.258192
143.100000 -1.350691
143.150000 -1.419209
143.200000 -1.491152
143.250000 -1.569948
143.300000 -1.617910
143.350000 -1.635040
143.400000 -1.662447
143.450000 -1.652169
143.500000 -1.573374
143.550000 -1.491153
143.600000 -1.429486
143.650000 -1.336987
143.700000 -1.220507
143.750000 -1.131433
143.800000 -1.069768
143.850000 -1.001250
143.900000 -0.946436
143.950000 -0.922455
144.000000 -0.908751
144.050000 -0.922455
144.100000 -0.970417
144.150000 -1.021805
144.200000 -1.076619
144.250000 -1.182822
144.300000 -1.323284
144.350000 -1.450041
144.400000 -1.556245
144.450000 -1.635040
144.500000 -1.662447
144.550000 -1.672725
144.600000 -1.679576
144.650000 -1.648744
144.700000 -1.552818
144.750000 -1.443190
144.800000 -1.350691
144.850000 -1.227359
144.900000 -1.076620
144.950000 -0.970417
145.000000 -0.925881
145.050000 -0.881344
145.100000 -0.853937
145.150000 -0.881344
145.200000 -0.953288
145.250000 -1.059490
145.300000 -1.196526
145.350000 -1.350691
145.400000 -1.484301
145.450000 -1.580226
145.500000 -1.641892
145.550000 -1.683002
145.600000 -1.700132
145.650000 -1.676151
145.700000 -1.614485
145.750000 -1.563096
145.800000 -1.542541
145.850000 -1.504856
145.900000 -1.436338
145.950000 -1.395228
146.000000 -1.408931
146.050000 -1.429486
146.100000 -1.432912
146.150000 -1.432912
146.200000 -1.429486
146.250000 -1.391801
146.300000 -1.319858
146.350000 -1.234211
146.400000 -1.117730
146.450000 -0.980695
146.500000 -0.874492
146.550000 -0.805974
146.600000 -0.734030
146.650000 -0.679216
146.700000 -0.644958
146.750000 -0.631254
146.800000 -0.644958
146.850000 -0.703198
146.900000 -0.764864
146.950000 -0.816252
147.000000 -0.867640
147.050000 -0.915603
147.100000 -0.919028
147.150000 -0.908751
147.200000 -0.915603
147.250000 -0.915603
147.300000 -0.919029
147.350000 -0.970417
147.400000 -1.042360
147.450000 -1.100601
147.500000 -1.172545
147.550000 -1.251340
147.600000 -1.302728
147.650000 -1.343839
147.700000 -1.391802
147.750000 -1.408931
147.800000 -1.367821
147.850000 -1.316432
147.900000 -1.258192
147.950000 -1.169118
148.000000 -1.086897
148.050000 -1.049212
148.100000 -1.056064
148.150000 -1.093749
148.200000 -1.158841
148.250000 -1.247914
148.300000 -1.350691
148.350000 -1.463745
148.400000 -1.566522
148.450000 -1.631614
148.500000 -1.672725
148.550000 -1.683002
148.600000 -1.638466
148.650000 -1.535689
148.700000 -1.405505
148.750000 -1.244488
148.800000 -1.049212
148.850000 -0.853937
148.900000 -0.689494
148.950000 -0.542181
149.000000 -0.435978
149.050000 -0.381163
149.100000 -0.360609
149.150000 -0.374312
149.200000 -0.449681
149.250000 -0.576440
149.300000 -0.679217
149.350000 -0.740882
149.400000 -0.823103
149.450000 -0.936158
149.500000 -1.014954
149.550000 -1.038935
149.600000 -1.038935
149.650000 -1.018380
149.700000 -0.963566
149.750000 -0.898473
149.800000 -0.843659
149.850000 -0.809401
149.900000 -0.816252
149.950000 -0.871066
150.000000 -0.949861
150.050000 -1.045787
150.100000 -1.189674
150.150000 -1.371246
150.200000 -1.542541
150.250000 -1.676150
150.300000 -1.775501
150.350000 -1.823464
150.400000 -1.809760
150.450000 -1.751520
150.500000 -1.669299
150.550000 -1.552819
150.600000 -1.405505
150.650000 -1.285599
150.700000 -1.203378
150.750000 -1.114305
150.800000 -1.038934
150.850000 -1.011528
150.900000 -1.025232
150.950000 -1.042361
151.000000 -1.093749
151.050000 -1.158841
151.100000 -1.186249
151.150000 -1.196526
151.200000 -1.254765
151.250000 -1.330136
151.300000 -1.367821
151.350000 -1.395227
151.400000 -1.470597
151.450000 -1.556244
151.500000 -1.597355
151.550000 -1.641891
151.600000 -1.720687
151.650000 -1.772075
151.700000 -1.785779
151.750000 -1.802909
151.800000 -1.823464
151.850000 -1.806334
151.900000 -1.772075
151.950000 -1.737817
152.000000 -1.672725
152.050000 -1.580226
152.100000 -1.480874
152.150000 -1.391801
152.200000 -1.313006
152.250000 -1.251340
152.300000 -1.179397
152.350000 -1.117730
152.400000 -1.121156
152.450000 -1.162267
152.500000 -1.210230
152.550000 -1.295877
152.600000 -1.415783
152.650000 -1.487726
152.700000 -1.528837
152.750000 -1.583652
152.800000 -1.583651
152.850000 -1.484301
152.900000 -1.378098
152.950000 -1.258192
153.000000 -1.066342
153.050000 -0.843659
153.100000 -0.672365
153.150000 -0.531903
153.200000 -0.408571
153.250000 -0.346905
153.300000 -0.346905
153.350000 -0.411997
153.400000 -0.559310
153.450000 -0.730604
153.500000 -0.905325
153.550000 -1.124582
153.600000 -1.354117
153.650000 -1.498004
153.700000 -1.576799
153.750000 -1.645318
153.800000 -1.683002
153.850000 -1.676151
153.900000 -1.652169
153.950000 -1.600781
154.000000 -1.511708
154.050000 -1.432912
154.100000 -1.388376
154.150000 -1.343839
154.200000 -1.292451
154.250000 -1.254766
154.300000 -1.223933
154.350000 -1.206804
154.400000 -1.220507
154.450000 -1.227359
154.500000 -1.220507
154.550000 -1.210230
154.600000 -1.175971
154.650000 -1.110879
154.700000 -1.069768
154.750000 -1.073193
154.800000 -1.062916
154.850000 -1.069768
154.900000 -1.110879
154.950000 -1.131434
155.000000 -1.141711
155.050000 -1.210230
155.100000 -1.289025
155.150000 -1.313006
155.200000 -1.319858
155.250000 -1.354117
155.300000 -1.360969
155.350000 -1.333561
155.400000 -1.316432
155.450000 -1.275321
155.500000 -1.169118
155.550000 -1.042360
155.600000 -0.929306
155.650000 -0.819678
155.700000 -0.737456
155.750000 -0.703197
155.800000 -0.703197
155.850000 -0.751160
155.900000 -0.860788
155.950000 -1.011528
156.000000 -1.179396
156.050000 -1.374672
156.100000 -1.583652
156.150000 -1.775501
156.200000 -1.943370
156.250000 -2.090683
156.300000 -2.179756
156.350000 -2.203737
156.400000 -2.193460
156.450000 -2.135219
156.500000 -2.035869
156.550000 -1.902260
156.600000 -1.765223
156.650000 -1.635039
156.700000 -1.532263
156.750000 -1.456894
156.800000 -1.395227
156.850000 -1.371246
156.900000 -1.402079
156.950000 -1.446616
157.000000 -1.480875
157.050000 -1.518560
157.100000 -1.573374
157.150000 -1.621336
157.200000 -1.641892
157.250000 -1.631614
157.300000 -1.604207
157.350000 -1.552818
157.400000 -1.484301
157.450000 -1.415783
157.500000 -1.354117
157.550000 -1.295877
157.600000 -1.254766
157.650000 -1.237636
157.700000 -1.247914
157.750000 -1.258192
157.800000 -1.268470
157.850000 -1.306154
157.900000 -1.350691
157.950000 -1.378098
158.000000 -1.398653
158.050000 -1.412357
158.100000 -1.408931
158.150000 -1.405505
158.200000 -1.398653
158.250000 -1.388376
158.300000 -1.402079
158.350000 -1.439764
158.400000 -1.474023
158.450000 -1.532263
158.500000 -1.614484
158.550000 -1.662446
158.600000 -1.683002
158.650000 -1.710410
158.700000 -1.706983
158.750000 -1.614485
158.800000 -1.484300
158.850000 -1.357543
158.900000 -1.206803
158.950000 -1.038935
159.000000 -0.895048
159.050000 -0.799123
159.100000 -0.768289
159.150000 -0.795697
159.200000 -0.881344
159.250000 -1.018380
159.300000 -1.203378
159.350000 -1.391802
159.400000 -1.573373
159.450000 -1.758372
159.500000 -1.895407
159.550000 -1.957073
159.600000 -1.981055
159.650000 -1.981055
159.700000 -1.905685
159.750000 -1.768650
159.800000 -1.638465
159.850000 -1.525411
159.900000 -1.402079
159.950000 -1.278747
160.000000 -1.179397
160.050000 -1.104027
160.100000 -1.066342
160.150000 -1.062916
160.200000 -1.059490
160.250000 -1.052639
160.300000 -1.076619
160.350000 -1.100601
160.400000 -1.086897
160.450000 -1.086898
160.500000 -1.121157
160.550000 -1.134860
160.600000 -1.117730
160.650000 -1.128008
160.700000 -1.169119
160.750000 -1.210230
160.800000 -1.261617
160.850000 -1.333561
160.900000 -1.391802
160.950000 -1.429487
161.000000 -1.470597
161.050000 -1.504856
161.100000 -1.487726
161.150000 -1.429487
161.200000 -1.374672
161.250000 -1.347265
161.300000 -1.316432
161.350000 -1.265043
161.400000 -1.203378
161.450000 -1.155416
161.500000 -1.114304
161.550000 -1.083471
161.600000 -1.086897
161.650000 -1.110878
161.700000 -1.134860
161.750000 -1.182822
161.800000 -1.265044
161.850000 -1.336988
161.900000 -1.398653
161.950000 -1.474022
162.000000 -1.545967
162.050000 -1.597355
162.100000 -1.635040
162.150000 -1.659021
162.200000 -1.655595
162.250000 -1.624762
162.300000 -1.573374
162.350000 -1.504856
162.400000 -1.402080
162.450000 -1.261617
162.500000 -1.124582
162.550000 -1.021805
162.600000 -0.922455
162.650000 -0.805974
162.700000 -0.720328
162.750000 -0.668939
162.800000 -0.644958
162.850000 -0.631254
162.900000 -0.634680
162.950000 -0.651809
163.000000 -0.699772
163.050000 -0.778567
163.100000 -0.843660
163.150000 -0.912177
163.200000 -0.987547
163.250000 -1.066342
163.300000 -1.138286
163.350000 -1.196525
163.400000 -1.210229
163.450000 -1.189674
163.500000 -1.172544
163.550000 -1.141712
163.600000 -1.069767
163.650000 -0.987547
163.700000 -0.929306
163.750000 -0.864215
163.800000 -0.792271
163.850000 -0.761438
163.900000 -0.785419
163.950000 -0.809400
164.000000 -0.836808
164.050000 -0.901899
164.100000 -1.001250
164.150000 -1.114305
164.200000 -1.196525
164.250000 -1.251340
164.300000 -1.299303
164.350000 -1.343839
164.400000 -1.340413
164.450000 -1.299302
164.500000 -1.282173
164.550000 -1.268469
164.600000 -1.227359
164.650000 -1.182823
164.700000 -1.151989
164.750000 -1.114304
164.800000 -1.080045
164.850000 -1.062916
164.900000 -1.045787
164.950000 -1.025231
165.000000 -1.014953
165.050000 -1.011528
165.100000 -1.001250
165.150000 -0.987546
165.200000 -0.984121
165.250000 -0.994398
165.300000 -1.004676
165.350000 -1.014954
165.400000 -1.021805
165.450000 -1.008102
165.500000 -0.987547
165.550000 -0.994398
165.600000 -1.032084
165.650000 -1.066342
165.700000 -1.086898
165.750000 -1.110879
165.800000 -1.162267
165.850000 -1.220507
165.900000 -1.278747
165.950000 -1.350691
166.000000 -1.415783
166.050000 -1.456894
166.100000 -1.491152
166.150000 -1.532263
166.200000 -1.552819
166.250000 -1.535689
166.300000 -1.498004
166.350000 -1.453468
166.400000 -1.388375
166.450000 -1.319858
166.500000 -1.244488
166.550000 -1.145138
166.600000 -1.042361
166.650000 -0.956713
166.700000 -0.877918
166.750000 -0.816252
166.800000 -0.788845
166.850000 -0.799123
166.900000 -0.840233
166.950000 -0.891621
167.000000 -0.963565
167.050000 -1.049212
167.100000 -1.117730
167.150000 -1.206804
167.200000 -1.336988
167.250000 -1.432912
167.300000 -1.450041
167.350000 -1.443190
167.400000 -1.436338
167.450000 -1.378098
167.500000 -1.268470
167.550000 -1.155415
167.600000 -1.038935
167.650000 -0.925880
167.700000 -0.829955
167.750000 -0.768290
167.800000 -0.723753
167.850000 -0.689494
167.900000 -0.713475
167.950000 -0.775141
168.000000 -0.829955
168.050000 -0.891621
168.100000 -0.970418
168.150000 -1.038935
168.200000 -1.066342
168.250000 -1.066342
168.300000 -1.049212
168.350000 -0.997824
168.400000 -0.919029
168.450000 -0.836808
168.500000 -0.761438
168.550000 -0.692920
168.600000 -0.634680
168.650000 -0.627828
168.700000 -0.665513
168.750000 -0.716901
168.800000 -0.819678
168.850000 -0.994398
168.900000 -1.169119
168.950000 -1.289025
169.000000 -1.395228
169.050000 -1.525411
169.100000 -1.614485
169.150000 -1.662447
169.200000 -1.696706
169.250000 -1.676151
169.300000 -1.583651
169.350000 -1.474023
169.400000 -1.374672
169.450000 -1.258192
169.500000 -1.128008
169.550000 -1.032083
169.600000 -0.973843
169.650000 -0.936158
169.700000 -0.932733
169.750000 -0.963566
169.800000 -1.001250
169.850000 -1.049213
169.900000 -1.097175
169.950000 -1.155415
170.000000 -1.223933
170.050000 -1.289025
170.100000 -1.313006
170.150000 -1.330136
170.200000 -1.340414
170.250000 -1.313006
170.300000 -1.275321
170.350000 -1.251340
170.400000 -1.227359
170.450000 -1.223933
170.500000 -1.268469
170.550000 -1.309580
170.600000 -1.347265
170.650000 -1.429486
170.700000 -1.528837
170.750000 -1.576800
170.800000 -1.624762
170.850000 -1.693280
170.900000 -1.693280
170.950000 -1.631614
171.000000 -1.583651
171.050000 -1.525411
171.100000 -1.412357
171.150000 -1.292451
171.200000 -1.206803
171.250000 -1.134859
171.300000 -1.069768
171.350000 -1.035509
171.400000 -1.038934
171.450000 -1.069767
171.500000 -1.145137
171.550000 -1.227359
171.600000 -1.275321
171.650000 -1.292451
171.700000 -1.316432
171.750000 -1.316432
171.800000 -1.241062
171.850000 -1.134860
171.900000 -1.042361
171.950000 -0.943010
172.000000 -0.823104
172.050000 -0.720327
172.100000 -0.651810
172.150000 -0.593570
172.200000 -0.590143
172.250000 -0.651809
172.300000 -0.720327
172.350000 -0.785419
172.400000 -0.853937
172.450000 -0.888196
172.500000 -0.860789
172.550000 -0.819678
172.600000 -0.764863
172.650000 -0.672365
172.700000 -0.562736
172.750000 -0.459959
172.800000 -0.350331
172.850000 -0.247554
172.900000 -0.179036
172.950000 -0.124222
173.000000 -0.096815
173.050000 -0.141351
173.100000 -0.199592
173.150000 -0.213295
173.200000 -0.209869
173.250000 -0.226999
173.300000 -0.233851
173.350000 -0.226999
173.400000 -0.230425
173.450000 -0.264684
173.500000 -0.333202
173.550000 -0.418848
173.600000 -0.521625
173.650000 -0.638106
173.700000 -0.781993
173.750000 -0.925880
173.800000 -1.066342
173.850000 -1.186248
173.900000 -1.261618
173.950000 -1.282173
174.000000 -1.292451
174.050000 -1.275322
174.100000 -1.213655
174.150000 -1.124582
174.200000 -1.035509
174.250000 -0.922454
174.300000 -0.809400
174.350000 -0.730605
174.400000 -0.658662
174.450000 -0.593570
174.500000 -0.583292
174.550000 -0.600421
174.600000 -0.579866
174.650000 -0.573013
174.700000 -0.634680
174.750000 -0.692920
174.800000 -0.723753
174.850000 -0.781993
174.900000 -0.864214
174.950000 -0.925880
175.000000 -0.997824
175.050000 -1.083471
175.100000 -1.141712
175.150000 -1.169119
175.200000 -1.227359
175.250000 -1.299302
175.300000 -1.343839
175.350000 -1.367820
175.400000 -1.388375
175.450000 -1.378098
175.500000 -1.333562
175.550000 -1.275321
175.600000 -1.227359
175.650000 -1.169118
175.700000 -1.066342
175.750000 -0.939584
175.800000 -0.850511
175.850000 -0.819678
175.900000 -0.785419
175.950000 -0.727179
176.000000 -0.720327
176.050000 -0.754586
176.100000 -0.785419
176.150000 -0.816252
176.200000 -0.874492
176.250000 -0.912177
176.300000 -0.908751
176.350000 -0.895047
176.400000 -0.888196
176.450000 -0.874492
176.500000 -0.860788
176.550000 -0.853937
176.600000 -0.871066
176.650000 -0.905325
176.700000 -0.915603
176.750000 -0.939584
176.800000 -0.990972
176.850000 -1.032083
176.900000 -1.038935
176.950000 -1.025231
177.000000 -0.987547
177.050000 -0.925881
177.100000 -0.871066
177.150000 -0.836808
177.200000 -0.802548
177.250000 -0.764864
177.300000 -0.751161
177.350000 -0.761438
177.400000 -0.795696
177.450000 -0.860788
177.500000 -0.932733
177.550000 -1.004676
177.600000 -1.090323
177.650000 -1.169119
177.700000 -1.210229
177.750000 -1.237637
177.800000 -1.275322
177.850000 -1.295877
177.900000 -1.289025
177.950000 -1.275321
178.000000 -1.258192
178.050000 -1.230785
178.100000 -1.175971
178.150000 -1.080046
178.200000 -0.977269
178.250000 -0.915603
178.300000 -0.836808
178.350000 -0.710050
178.400000 -0.638105
178.450000 -0.631254
178.500000 -0.576439
178.550000 -0.497644
178.600000 -0.501070
178.650000 -0.545607
178.700000 -0.559311
178.750000 -0.586717
178.800000 -0.658661
178.850000 -0.713475
178.900000 -0.740882
178.950000 -0.768289
179.000000 -0.826529
179.050000 -0.891621
179.100000 -0.960139
179.150000 -1.028657
179.200000 -1.114304
179.250000 -1.217081
179.300000 -1.309580
179.350000 -1.381524
179.400000 -1.450041
179.450000 -1.487726
179.500000 -1.467172
179.550000 -1.408931
179.600000 -1.333561
179.650000 -1.210230
179.700000 -1.076619
179.750000 -0.977269
179.800000 -0.895047
179.850000 -0.809400
179.900000 -0.771716
179.950000 -0.792271
180.000000 -0.850511
180.050000 -0.946436
180.100000 -1.059490
180.150000 -1.131434
180.200000 -1.206803
180.250000 -1.313006
180.300000 -1.371246
180.350000 -1.364394
180.400000 -1.360969
180.450000 -1.336987
180.500000 -1.261618
180.550000 -1.210229
180.600000 -1.203377
180.650000 -1.189674
180.700000 -1.151989
180.750000 -1.162267
180.800000 -1.210229
180.850000 -1.258192
180.900000 -1.313006
180.950000 -1.371246
181.000000 -1.426060
181.050000 -1.480875
181.100000 -1.532263
181.150000 -1.566522
181.200000 -1.600781
181.250000 -1.628188
181.300000 -1.624762
181.350000 -1.576799
181.400000 -1.498004
181.450000 -1.395227
181.500000 -1.271895
181.550000 -1.158841
181.600000 -1.066342
181.650000 -0.966991
181.700000 -0.864214
181.750000 -0.795697
181.800000 -0.761438
181.850000 -0.754586
181.900000 -0.768289
181.950000 -0.823104
182.000000 -0.939584
182.050000 -1.080045
182.100000 -1.193100
182.150000 -1.316431
182.200000 -1.460319
182.250000 -1.556244
182.300000 -1.593929
182.350000 -1.624762
182.400000 -1.635039
182.450000 -1.580226
182.500000 -1.501430
182.550000 -1.426061
182.600000 -1.336988
182.650000 -1.241063
182.700000 -1.175971
182.750000 -1.131434
182.800000 -1.097175
182.850000 -1.114304
182.900000 -1.172545
182.950000 -1.258192
183.000000 -1.354117
183.050000 -1.443190
183.100000 -1.501430
183.150000 -1.539115
183.200000 -1.569948
183.250000 -1.552819
183.300000 -1.487726
183.350000 -1.415782
183.400000 -1.333561
183.450000 -1.237637
183.500000 -1.182822
183.550000 -1.158841
183.600000 -1.107452
183.650000 -1.066342
183.700000 -1.090323
183.750000 -1.141711
183.800000 -1.151990
183.850000 -1.145138
183.900000 -1.141711
183.950000 -1.121157
184.000000 -1.059490
184.050000 -0.987546
184.100000 -0.905325
184.150000 -0.836807
184.200000 -0.781993
184.250000 -0.727179
184.300000 -0.696346
184.350000 -0.723753
184.400000 -0.785419
184.450000 -0.857362
184.500000 -0.956714
184.550000 -1.076620
184.600000 -1.158841
184.650000 -1.217081
184.700000 -1.292450
184.750000 -1.357542
184.800000 -1.384950
184.850000 -1.398654
184.900000 -1.408931
184.950000 -1.384950
185.000000 -1.381524
185.050000 -1.402079
185.100000 -1.419209
185.150000 -1.426060
185.200000 -1.456893
185.250000 -1.484300
185.300000 -1.501430
185.350000 -1.498004
185.400000 -1.460320
185.450000 -1.398653
185.500000 -1.367820
185.550000 -1.330136
185.600000 -1.254766
185.650000 -1.179396
185.700000 -1.141712
185.750000 -1.100601
185.800000 -1.080046
185.850000 -1.117730
185.900000 -1.175971
185.950000 -1.223932
186.000000 -1.278747
186.050000 -1.347265
186.100000 -1.405505
186.150000 -1.450041
186.200000 -1.491152
186.250000 -1.487727
186.300000 -1.450042
186.350000 -1.429486
186.400000 -1.419209
186.450000 -1.364394
186.500000 -1.292451
186.550000 -1.251340
186.600000 -1.241063
186.650000 -1.220507
186.700000 -1.193100
186.750000 -1.189674
186.800000 -1.199952
186.850000 -1.217081
186.900000 -1.199952
186.950000 -1.175970
187.000000 -1.162267
187.050000 -1.151990
187.100000 -1.128008
187.150000 -1.124582
187.200000 -1.121156
187.250000 -1.100601
187.300000 -1.076619
187.350000 -1.045786
187.400000 -1.001250
187.450000 -0.949861
187.500000 -0.888196
187.550000 -0.833382
187.600000 -0.799123
187.650000 -0.775142
187.700000 -0.737457
187.750000 -0.713476
187.800000 -0.723753
187.850000 -0.744308
187.900000 -0.761438
187.950000 -0.809400
188.000000 -0.884770
188.050000 -0.953288
188.100000 -0.994398
188.150000 -1.025231
188.200000 -1.038935
188.250000 -1.042361
188.300000 -1.042361
188.350000 -1.028657
188.400000 -1.004676
188.450000 -0.987547
188.500000 -0.994398
188.550000 -1.018380
188.600000 -1.018380
188.650000 -1.018379
188.700000 -1.059490
188.750000 -1.117730
188.800000 -1.158841
