time[ns] Raw_signal[mV]
-11.150000 -0.055773
-11.100000 -0.066051
-11.050000 -0.083180
-11.000000 -0.072903
-10.950000 -0.035219
-10.900000 0.009318
-10.850000 0.060706
-10.800000 0.125798
-10.750000 0.187465
-10.700000 0.238853
-10.650000 0.276537
-10.600000 0.300518
-10.550000 0.297092
-10.500000 0.290242
-10.450000 0.283389
-10.400000 0.252557
-10.350000 0.184039
-10.300000 0.105243
-10.250000 0.026447
-10.200000 -0.038644
-10.150000 -0.096884
-10.100000 -0.148272
-10.050000 -0.179106
-10.000000 -0.196236
-9.950000 -0.182532
-9.900000 -0.120866
-9.850000 -0.042070
-9.800000 0.026448
-9.750000 0.101817
-9.700000 0.194316
-9.650000 0.286816
-9.600000 0.348482
-9.550000 0.399870
-9.500000 0.440980
-9.450000 0.454684
-9.400000 0.444406
-9.350000 0.399870
-9.300000 0.307371
-9.250000 0.170336
-9.200000 0.023022
-9.150000 -0.117440
-9.100000 -0.261327
-9.050000 -0.398363
-9.000000 -0.504565
-8.950000 -0.576509
-8.900000 -0.648453
-8.850000 -0.696415
-8.800000 -0.658730
-8.750000 -0.573083
-8.700000 -0.484010
-8.650000 -0.370956
-8.600000 -0.220216
-8.550000 -0.079755
-8.500000 0.040152
-8.450000 0.139502
-8.400000 0.211446
-8.350000 0.232001
-8.300000 0.214871
-8.250000 0.142928
-8.200000 0.026448
-8.150000 -0.069477
-8.100000 -0.161976
-8.050000 -0.281882
-8.000000 -0.381233
-7.950000 -0.418918
-7.900000 -0.429195
-7.850000 -0.425770
-7.800000 -0.370955
-7.750000 -0.302437
-7.700000 -0.244197
-7.650000 -0.155124
-7.600000 -0.059199
-7.550000 -0.018088
-7.500000 0.012744
-7.450000 0.088113
-7.400000 0.146354
-7.350000 0.166909
-7.300000 0.187464
-7.250000 0.214871
-7.200000 0.228575
-7.150000 0.228575
-7.100000 0.197742
-7.050000 0.149780
-7.000000 0.108669
-6.950000 0.081262
-6.900000 0.040151
-6.850000 0.002466
-6.800000 -0.011237
-6.750000 -0.024940
-6.700000 -0.042070
-6.650000 -0.042070
-6.600000 -0.048922
-6.550000 -0.083181
-6.500000 -0.110588
-6.450000 -0.083181
-6.400000 -0.062625
-6.350000 -0.076329
-6.300000 -0.076329
-6.250000 -0.035218
-6.200000 -0.024941
-6.150000 -0.045496
-6.100000 -0.069477
-6.050000 -0.100311
-6.000000 -0.127717
-5.950000 -0.141421
-5.900000 -0.161976
-5.850000 -0.216790
-5.800000 -0.275031
-5.750000 -0.299012
-5.700000 -0.295586
-5.650000 -0.281882
-5.600000 -0.254475
-5.550000 -0.185957
-5.500000 -0.059200
-5.450000 0.070984
-5.400000 0.163483
-5.350000 0.269686
-5.300000 0.393017
-5.250000 0.464961
-5.200000 0.468388
-5.150000 0.458110
-5.100000 0.427277
-5.050000 0.324500
-5.000000 0.170336
-4.950000 0.012744
-4.900000 -0.107162
-4.850000 -0.203087
-4.800000 -0.285309
-4.750000 -0.350400
-4.700000 -0.364104
-4.650000 -0.343548
-4.600000 -0.329845
-4.550000 -0.319567
-4.500000 -0.285309
-4.450000 -0.257901
-4.400000 -0.251050
-4.350000 -0.223642
-4.300000 -0.189384
-4.250000 -0.172253
-4.200000 -0.179106
-4.150000 -0.185958
-4.100000 -0.172254
-4.050000 -0.124291
-4.000000 -0.059200
-3.950000 -0.007811
-3.900000 0.047003
-3.850000 0.098392
-3.800000 0.125798
-3.750000 0.132650
-3.700000 0.115521
-3.650000 0.036725
-3.600000 -0.107162
-3.550000 -0.244198
-3.500000 -0.357252
-3.450000 -0.487435
-3.400000 -0.590213
-3.350000 -0.634749
-3.300000 -0.682711
-3.250000 -0.778636
-3.200000 -0.740951
-3.150000 -0.535398
-3.100000 -0.391511
-3.050000 -0.353826
-3.000000 -0.155125
-2.950000 0.180612
-2.900000 0.334778
-2.850000 0.386166
-2.800000 0.512924
-2.750000 0.564313
-2.700000 0.533480
-2.650000 0.639682
-2.600000 0.715051
-2.550000 0.516351
-2.500000 0.358760
-2.450000 0.375889
-2.400000 0.197742
-2.350000 -0.090033
-2.300000 -0.114013
-2.250000 -0.100310
-2.200000 -0.319567
-2.150000 -0.408640
-2.100000 -0.199661
-2.050000 -0.120866
-2.000000 -0.261327
-1.950000 -0.278456
-1.900000 -0.155124
-1.850000 -0.024941
-1.800000 0.122372
-1.750000 0.190890
-1.700000 0.094966
-1.650000 0.081263
-1.600000 0.180613
-1.550000 0.108670
-1.500000 -0.042070
-1.450000 0.043577
-1.400000 0.177187
-1.350000 0.105243
-1.300000 0.036725
-1.250000 0.053854
-1.200000 -0.031793
-1.150000 -0.031792
-1.100000 0.184039
-1.050000 0.218298
-1.000000 0.002466
-0.950000 0.023021
-0.900000 0.286815
-0.850000 0.375889
-0.800000 0.396443
-0.750000 0.625979
-0.700000 0.804125
-0.650000 0.780143
-0.600000 0.838383
-0.550000 0.989123
-0.500000 0.948012
-0.450000 0.817828
-0.400000 0.790421
-0.350000 0.759588
-0.300000 0.615700
-0.250000 0.451258
-0.200000 0.297093
-0.150000 0.122373
-0.100000 -0.038644
-0.050000 -0.175680
0.000000 -0.275031
0.050000 -0.316141
0.100000 -0.367529
0.150000 -0.460028
0.200000 -0.442899
0.250000 -0.305863
0.300000 -0.281883
0.350000 -0.364103
0.400000 -0.281882
0.450000 -0.079755
0.500000 0.005892
0.550000 0.019596
0.600000 0.108669
0.650000 0.170335
0.700000 0.136077
0.750000 0.184039
0.800000 0.386166
0.850000 0.725329
0.900000 1.314582
0.950000 2.297813
1.000000 3.716131
1.050000 5.679166
1.100000 8.361638
1.150000 11.845772
1.200000 16.111006
1.250000 21.147056
1.300000 26.912830
1.350000 33.305543
1.400000 40.102506
1.450000 47.053643
1.500000 54.076711
1.550000 61.116924
1.600000 67.982399
1.650000 74.440209
1.700000 80.521159
1.750000 86.197869
1.800000 91.278459
1.850000 95.677299
1.900000 99.500589
1.950000 102.772319
2.000000 105.375999
2.050000 107.284209
2.100000 108.524389
2.150000 109.099939
2.200000 108.976599
2.250000 108.096149
2.300000 106.417459
2.350000 104.019339
2.400000 100.973719
2.450000 97.328579
2.500000 93.155849
2.550000 88.585709
2.600000 83.642149
2.650000 78.390259
2.700000 73.052719
2.750000 67.783699
2.800000 62.545519
2.850000 57.427239
2.900000 52.716639
2.950000 48.482239
3.000000 44.652099
3.050000 41.332409
3.100000 38.656789
3.150000 36.580689
3.200000 35.080159
3.250000 34.216829
3.300000 33.942759
3.350000 34.103779
3.400000 34.655349
3.450000 35.573489
3.500000 36.745129
3.550000 38.050399
3.600000 39.393349
3.650000 40.715749
3.700000 41.986749
3.750000 43.144699
3.800000 44.107379
3.850000 44.826809
3.900000 45.292739
3.950000 45.470879
4.000000 45.350969
4.050000 44.950139
4.100000 44.237559
4.150000 43.202939
4.200000 41.887399
4.250000 40.321769
4.300000 38.471789
4.350000 36.392269
4.400000 34.182569
4.450000 31.890649
4.500000 29.523359
4.550000 27.142369
4.600000 24.829889
4.650000 22.627039
4.700000 20.564663
4.750000 18.714678
4.800000 17.125065
4.850000 15.836930
4.900000 14.857126
4.950000 14.151392
5.000000 13.692323
5.050000 13.503901
5.100000 13.596396
5.150000 13.891029
5.200000 14.336392
5.250000 14.898237
5.300000 15.549160
5.350000 16.258319
5.400000 17.029136
5.450000 17.793112
5.500000 18.491991
5.550000 19.160040
5.600000 19.790406
5.650000 20.317990
5.700000 20.694838
5.750000 20.920952
5.800000 20.992895
5.850000 20.869566
5.900000 20.564658
5.950000 20.074753
6.000000 19.393007
6.050000 18.526256
6.100000 17.505340
6.150000 16.367944
6.200000 15.165456
6.250000 13.949265
6.300000 12.753629
6.350000 11.623085
6.400000 10.585041
6.450000 9.642921
6.500000 8.824133
6.550000 8.173214
6.600000 7.683312
6.650000 7.306464
6.700000 7.015264
6.750000 6.796006
6.800000 6.621286
6.850000 6.470547
6.900000 6.364344
6.950000 6.312956
7.000000 6.302678
7.050000 6.343789
7.100000 6.449991
7.150000 6.638416
7.200000 6.905635
7.250000 7.268779
7.300000 7.707294
7.350000 8.183492
7.400000 8.656265
7.450000 9.087927
7.500000 9.464775
7.550000 9.759401
7.600000 9.916992
7.650000 9.920418
7.700000 9.773105
7.750000 9.475053
7.800000 9.050242
7.850000 8.553488
7.900000 8.005345
7.950000 7.436648
8.000000 6.898783
8.050000 6.422585
8.100000 5.994348
8.150000 5.617501
8.200000 5.305744
8.250000 5.031674
8.300000 4.778158
8.350000 4.552049
8.400000 4.315662
8.450000 4.055295
8.500000 3.781223
8.550000 3.517429
8.600000 3.219377
8.650000 2.883640
8.700000 2.558180
8.750000 2.290961
8.800000 2.054574
8.850000 1.838744
8.900000 1.694856
8.950000 1.660597
9.000000 1.705134
9.050000 1.801058
9.100000 1.975779
9.150000 2.242998
9.200000 2.561607
9.250000 2.900770
9.300000 3.257062
9.350000 3.579095
9.400000 3.846315
9.450000 4.075850
9.500000 4.284829
9.550000 4.438994
9.600000 4.531493
9.650000 4.576030
9.700000 4.552048
9.750000 4.459549
9.800000 4.264274
9.850000 3.976499
9.900000 3.620207
9.950000 3.198822
10.000000 2.722623
10.050000 2.222444
10.100000 1.718837
10.150000 1.218657
10.200000 0.790421
10.250000 0.485517
10.300000 0.262834
10.350000 0.094965
10.400000 0.023022
10.450000 0.060707
10.500000 0.160058
10.550000 0.276538
10.600000 0.389592
10.650000 0.451258
10.700000 0.451258
10.750000 0.413573
10.800000 0.345056
10.850000 0.235427
10.900000 0.101818
10.950000 -0.004386
11.000000 -0.048922
11.050000 -0.042070
11.100000 0.026448
11.150000 0.194316
11.200000 0.454684
11.250000 0.752736
11.300000 1.057640
11.350000 1.362545
11.400000 1.650320
11.450000 1.873002
11.500000 2.023741
11.550000 2.116240
11.600000 2.133370
11.650000 2.061427
11.700000 1.893558
11.750000 1.677726
11.800000 1.472173
11.850000 1.256342
11.900000 0.985697
11.950000 0.708199
12.000000 0.502646
12.050000 0.327926
12.100000 0.108669
12.150000 -0.093459
12.200000 -0.233921
12.250000 -0.367530
12.300000 -0.511417
12.350000 -0.607342
12.400000 -0.682712
12.450000 -0.775211
12.500000 -0.840303
12.550000 -0.871135
12.600000 -0.895117
12.650000 -0.895117
12.700000 -0.847155
12.750000 -0.771785
12.800000 -0.679286
12.850000 -0.586787
12.900000 -0.511417
12.950000 -0.429196
13.000000 -0.326420
13.050000 -0.247623
13.100000 -0.203087
13.150000 -0.161977
13.200000 -0.148273
13.250000 -0.172254
13.300000 -0.168828
13.350000 -0.144847
13.400000 -0.137995
13.450000 -0.096884
13.500000 -0.000959
13.550000 0.060707
13.600000 0.088114
13.650000 0.160057
13.700000 0.238852
13.750000 0.266260
13.800000 0.273112
13.850000 0.266260
13.900000 0.160057
13.950000 -0.007811
14.000000 -0.172255
14.050000 -0.415492
14.100000 -0.744378
14.150000 -1.049282
14.200000 -1.309650
14.250000 -1.580295
14.300000 -1.789275
14.350000 -1.905754
14.400000 -1.998254
14.450000 -2.059920
14.500000 -2.015382
14.550000 -1.898903
14.600000 -1.782423
14.650000 -1.652238
14.700000 -1.498073
14.750000 -1.347334
14.800000 -1.220576
14.850000 -1.117800
14.900000 -1.049282
14.950000 -1.015023
15.000000 -0.980764
15.050000 -0.922524
15.100000 -0.857432
15.150000 -0.771784
15.200000 -0.672434
15.250000 -0.549102
15.300000 -0.412067
15.350000 -0.299012
15.400000 -0.230494
15.450000 -0.189383
15.500000 -0.192809
15.550000 -0.251049
15.600000 -0.329845
15.650000 -0.422344
15.700000 -0.552528
15.750000 -0.699841
15.800000 -0.812895
15.850000 -0.888265
15.900000 -0.919098
15.950000 -0.874561
16.000000 -0.802618
16.050000 -0.737526
16.100000 -0.641601
16.150000 -0.538824
16.200000 -0.484010
16.250000 -0.463454
16.300000 -0.470306
16.350000 -0.555954
16.400000 -0.706693
16.450000 -0.871135
16.500000 -1.035578
16.550000 -1.206873
16.600000 -1.354186
16.650000 -1.460389
16.700000 -1.535758
16.750000 -1.563165
16.800000 -1.528906
16.850000 -1.450111
16.900000 -1.340482
16.950000 -1.203447
17.000000 -1.073263
17.050000 -0.967060
17.100000 -0.874561
17.150000 -0.802617
17.200000 -0.744378
17.250000 -0.696415
17.300000 -0.675860
17.350000 -0.679286
17.400000 -0.669008
17.450000 -0.631324
17.500000 -0.624472
17.550000 -0.658731
17.600000 -0.699841
17.650000 -0.747804
17.700000 -0.809470
17.750000 -0.922524
17.800000 -1.076689
17.850000 -1.247983
17.900000 -1.439833
17.950000 -1.665942
18.000000 -1.861218
18.050000 -1.984550
18.100000 -2.073623
18.150000 -2.155845
18.200000 -2.166122
18.250000 -2.101030
18.300000 -2.011957
18.350000 -1.888625
18.400000 -1.731034
18.450000 -1.570017
18.500000 -1.405574
18.550000 -1.230854
18.600000 -1.086967
18.650000 -0.960209
18.700000 -0.836877
18.750000 -0.768359
18.800000 -0.764933
18.850000 -0.758081
18.900000 -0.758081
18.950000 -0.802618
19.000000 -0.864284
19.050000 -0.919098
19.100000 -0.997893
19.150000 -1.107522
19.200000 -1.172614
19.250000 -1.210298
19.300000 -1.247984
19.350000 -1.278817
19.400000 -1.295946
19.450000 -1.319927
19.500000 -1.354186
19.550000 -1.381593
19.600000 -1.429556
19.650000 -1.504926
19.700000 -1.573443
19.750000 -1.624831
19.800000 -1.659090
19.850000 -1.662516
19.900000 -1.607702
19.950000 -1.535758
20.000000 -1.463814
20.050000 -1.371315
20.100000 -1.261687
20.150000 -1.186318
20.200000 -1.138355
20.250000 -1.097244
20.300000 -1.093818
20.350000 -1.158911
20.400000 -1.237706
20.450000 -1.309650
20.500000 -1.405575
20.550000 -1.494648
20.600000 -1.498074
20.650000 -1.432982
20.700000 -1.337056
20.750000 -1.186317
20.800000 -0.997894
20.850000 -0.819748
20.900000 -0.624472
20.950000 -0.439473
21.000000 -0.329845
21.050000 -0.292160
21.100000 -0.285309
21.150000 -0.340123
21.200000 -0.490862
21.250000 -0.669008
21.300000 -0.833451
21.350000 -1.015023
21.400000 -1.244557
21.450000 -1.446685
21.500000 -1.563165
21.550000 -1.614554
21.600000 -1.624831
21.650000 -1.580294
21.700000 -1.491222
21.750000 -1.361038
21.800000 -1.186318
21.850000 -1.001320
21.900000 -0.833451
21.950000 -0.689564
22.000000 -0.549102
22.050000 -0.436047
22.100000 -0.370956
22.150000 -0.364104
22.200000 -0.377807
22.250000 -0.388085
22.300000 -0.418918
22.350000 -0.507992
22.400000 -0.603916
22.450000 -0.655304
22.500000 -0.686138
22.550000 -0.730674
22.600000 -0.727248
22.650000 -0.655304
22.700000 -0.579935
22.750000 -0.528546
22.800000 -0.456603
22.850000 -0.401789
22.900000 -0.401789
22.950000 -0.425770
23.000000 -0.460029
23.050000 -0.538824
23.100000 -0.651879
23.150000 -0.775211
23.200000 -0.901969
23.250000 -1.028727
23.300000 -1.124651
23.350000 -1.186318
23.400000 -1.254835
23.450000 -1.302798
23.500000 -1.292520
23.550000 -1.241132
23.600000 -1.186318
23.650000 -1.138355
23.700000 -1.059560
23.750000 -0.977338
23.800000 -0.925950
23.850000 -0.884839
23.900000 -0.857432
23.950000 -0.874562
24.000000 -0.922524
24.050000 -0.946505
24.100000 -0.953357
24.150000 -0.973912
24.200000 -1.001320
24.250000 -1.021875
24.300000 -1.021875
24.350000 -1.001319
24.400000 -0.991042
24.450000 -0.980764
24.500000 -0.953357
24.550000 -0.946505
24.600000 -0.970487
24.650000 -1.001319
24.700000 -1.062986
24.750000 -1.182891
24.800000 -1.316501
24.850000 -1.450110
24.900000 -1.617980
24.950000 -1.775571
25.000000 -1.885199
25.050000 -1.984550
25.100000 -2.046216
25.150000 -2.042790
25.200000 -2.022234
25.250000 -1.987976
25.300000 -1.888625
25.350000 -1.775571
25.400000 -1.703626
25.450000 -1.645386
25.500000 -1.576869
25.550000 -1.566591
25.600000 -1.607702
25.650000 -1.635109
25.700000 -1.676220
25.750000 -1.748163
25.800000 -1.792699
25.850000 -1.792700
25.900000 -1.772144
25.950000 -1.713904
26.000000 -1.652238
26.050000 -1.617979
26.100000 -1.556314
26.150000 -1.443259
26.200000 -1.371316
26.250000 -1.347335
26.300000 -1.323353
26.350000 -1.323353
26.400000 -1.364464
26.450000 -1.405574
26.500000 -1.460389
26.550000 -1.580295
26.600000 -1.696775
26.650000 -1.751589
26.700000 -1.802977
26.750000 -1.892051
26.800000 -1.929736
26.850000 -1.922884
26.900000 -1.946865
26.950000 -2.001679
27.000000 -2.025660
27.050000 -2.018809
27.100000 -2.032512
27.150000 -2.046216
27.200000 -2.046216
27.250000 -2.029086
27.300000 -2.008531
27.350000 -1.974272
27.400000 -1.919458
27.450000 -1.847514
27.500000 -1.761866
27.550000 -1.696775
27.600000 -1.641960
27.650000 -1.566591
27.700000 -1.491221
27.750000 -1.463815
27.800000 -1.470666
27.850000 -1.480944
27.900000 -1.498073
27.950000 -1.508351
28.000000 -1.504925
28.050000 -1.511777
28.100000 -1.528906
28.150000 -1.539184
28.200000 -1.525480
28.250000 -1.515203
28.300000 -1.508350
28.350000 -1.501499
28.400000 -1.484370
28.450000 -1.467240
28.500000 -1.439833
28.550000 -1.381593
28.600000 -1.319926
28.650000 -1.258261
28.700000 -1.182892
28.750000 -1.114373
28.800000 -1.059560
28.850000 -1.008171
28.900000 -0.956783
28.950000 -0.949930
29.000000 -1.011597
29.050000 -1.090392
29.100000 -1.165762
29.150000 -1.254835
29.200000 -1.361038
29.250000 -1.467240
29.300000 -1.563165
29.350000 -1.645386
29.400000 -1.696774
29.450000 -1.710478
29.500000 -1.700201
29.550000 -1.669367
29.600000 -1.621405
29.650000 -1.580295
29.700000 -1.539184
29.750000 -1.487795
29.800000 -1.467241
29.850000 -1.501500
29.900000 -1.570017
29.950000 -1.662516
30.000000 -1.775571
30.050000 -1.874921
30.100000 -1.957142
30.150000 -2.042790
30.200000 -2.125011
30.250000 -2.162696
30.300000 -2.172974
30.350000 -2.186677
30.400000 -2.200381
30.450000 -2.190103
30.500000 -2.179825
30.550000 -2.220936
30.600000 -2.292879
30.650000 -2.361398
30.700000 -2.436767
30.750000 -2.529266
30.800000 -2.611488
30.850000 -2.649172
30.900000 -2.618339
30.950000 -2.522414
31.000000 -2.385379
31.050000 -2.227788
31.100000 -2.029086
31.150000 -1.802978
31.200000 -1.576869
31.250000 -1.367890
31.300000 -1.189743
31.350000 -1.080115
31.400000 -1.042430
31.450000 -1.042430
31.500000 -1.093818
31.550000 -1.230854
31.600000 -1.405574
31.650000 -1.570017
31.700000 -1.734460
31.750000 -1.912606
31.800000 -2.056493
31.850000 -2.162696
31.900000 -2.251769
31.950000 -2.299732
32.000000 -2.310009
32.050000 -2.323713
32.100000 -2.330565
32.150000 -2.299731
32.200000 -2.268898
32.250000 -2.289453
32.300000 -2.320287
32.350000 -2.347694
32.400000 -2.388805
32.450000 -2.416212
32.500000 -2.405934
32.550000 -2.368249
32.600000 -2.323712
32.650000 -2.262047
32.700000 -2.176399
32.750000 -2.090752
32.800000 -2.011956
32.850000 -1.970846
32.900000 -1.963994
32.950000 -1.963994
33.000000 -1.977698
33.050000 -2.022234
33.100000 -2.070197
33.150000 -2.094178
33.200000 -2.118159
33.250000 -2.166122
33.300000 -2.179825
33.350000 -2.159270
33.400000 -2.159270
33.450000 -2.179826
33.500000 -2.179825
33.550000 -2.176399
33.600000 -2.193529
33.650000 -2.200380
33.700000 -2.159270
33.750000 -2.094178
33.800000 -2.046216
33.850000 -1.994827
33.900000 -1.919457
33.950000 -1.840662
34.000000 -1.802978
34.050000 -1.813255
34.100000 -1.868070
34.150000 -1.974272
34.200000 -2.118159
34.250000 -2.248343
34.300000 -2.364823
34.350000 -2.501859
34.400000 -2.645746
34.450000 -2.721116
34.500000 -2.690283
34.550000 -2.614913
34.600000 -2.505285
34.650000 -2.344269
34.700000 -2.169547
34.750000 -2.029086
34.800000 -1.909180
34.850000 -1.816681
34.900000 -1.806403
34.950000 -1.881773
35.000000 -1.977698
35.050000 -2.083900
35.100000 -2.227788
35.150000 -2.371676
35.200000 -2.481304
35.250000 -2.566951
35.300000 -2.604636
35.350000 -2.553247
35.400000 -2.447045
35.450000 -2.337416
35.500000 -2.200381
35.550000 -2.042790
35.600000 -1.912606
35.650000 -1.833810
35.700000 -1.758441
35.750000 -1.703627
35.800000 -1.713904
35.850000 -1.785848
35.900000 -1.878347
35.950000 -1.981124
36.000000 -2.073623
36.050000 -2.152418
36.100000 -2.224362
36.150000 -2.327139
36.200000 -2.433342
36.250000 -2.501859
36.300000 -2.536118
36.350000 -2.560099
36.400000 -2.584081
36.450000 -2.580655
36.500000 -2.570376
36.550000 -2.580654
36.600000 -2.580655
36.650000 -2.539544
36.700000 -2.474451
36.750000 -2.409360
36.800000 -2.340842
36.850000 -2.272324
36.900000 -2.210658
36.950000 -2.159270
37.000000 -2.114733
37.050000 -2.083901
37.100000 -2.066771
37.150000 -2.046215
37.200000 -2.042789
37.250000 -2.049641
37.300000 -2.059919
37.350000 -2.111308
37.400000 -2.196955
37.450000 -2.282602
37.500000 -2.344268
37.550000 -2.419638
37.600000 -2.515563
37.650000 -2.580655
37.700000 -2.611487
37.750000 -2.614913
37.800000 -2.577229
37.850000 -2.484729
37.900000 -2.361397
37.950000 -2.234640
38.000000 -2.118159
38.050000 -2.029086
38.100000 -1.970846
38.150000 -1.946865
38.200000 -1.950291
38.250000 -1.991401
38.300000 -2.066771
38.350000 -2.166122
38.400000 -2.292880
38.450000 -2.416212
38.500000 -2.495007
38.550000 -2.532692
38.600000 -2.539543
38.650000 -2.508711
38.700000 -2.426490
38.750000 -2.323713
38.800000 -2.217510
38.850000 -2.125011
38.900000 -2.046215
38.950000 -1.981124
39.000000 -1.916031
39.050000 -1.871495
39.100000 -1.864643
39.150000 -1.881773
39.200000 -1.909180
39.250000 -1.957143
39.300000 -2.005105
39.350000 -2.029086
39.400000 -2.042790
39.450000 -2.070197
39.500000 -2.077049
39.550000 -2.070197
39.600000 -2.080474
39.650000 -2.114733
39.700000 -2.121586
39.750000 -2.118159
39.800000 -2.148993
39.850000 -2.193529
39.900000 -2.214084
39.950000 -2.234640
40.000000 -2.279176
40.050000 -2.330565
40.100000 -2.357972
40.150000 -2.371676
40.200000 -2.385379
40.250000 -2.399083
40.300000 -2.371676
40.350000 -2.303158
40.400000 -2.248344
40.450000 -2.224362
40.500000 -2.172973
40.550000 -2.101030
40.600000 -2.056494
40.650000 -2.022234
40.700000 -1.970846
40.750000 -1.926310
40.800000 -1.909180
40.850000 -1.864644
40.900000 -1.785848
40.950000 -1.734459
41.000000 -1.727608
41.050000 -1.713904
41.100000 -1.683071
41.150000 -1.686497
41.200000 -1.741311
41.250000 -1.809829
41.300000 -1.874922
41.350000 -1.977698
41.400000 -2.104456
41.450000 -2.210659
41.500000 -2.286028
41.550000 -2.333990
41.600000 -2.337417
41.650000 -2.296305
41.700000 -2.244917
41.750000 -2.190103
41.800000 -2.135288
41.850000 -2.077049
41.900000 -2.029087
41.950000 -1.991401
42.000000 -1.974272
42.050000 -1.970846
42.100000 -1.946865
42.150000 -1.933162
42.200000 -1.940013
42.250000 -1.929735
42.300000 -1.912606
42.350000 -1.919458
42.400000 -1.929735
42.450000 -1.916032
42.500000 -1.922884
42.550000 -1.991401
42.600000 -2.066771
42.650000 -2.121585
42.700000 -2.207232
42.750000 -2.310009
42.800000 -2.388805
42.850000 -2.450471
42.900000 -2.508711
42.950000 -2.529266
43.000000 -2.505285
43.050000 -2.464174
43.100000 -2.402508
43.150000 -2.306583
43.200000 -2.172974
43.250000 -2.029086
43.300000 -1.878347
43.350000 -1.731034
43.400000 -1.580295
43.450000 -1.429555
43.500000 -1.313076
43.550000 -1.271964
43.600000 -1.271965
43.650000 -1.278817
43.700000 -1.333631
43.750000 -1.491222
43.800000 -1.696775
43.850000 -1.881773
43.900000 -2.063345
43.950000 -2.227788
44.000000 -2.340843
44.050000 -2.409360
44.100000 -2.429915
44.150000 -2.375101
44.200000 -2.262047
44.250000 -2.114733
44.300000 -1.950291
44.350000 -1.796126
44.400000 -1.689923
44.450000 -1.611128
44.500000 -1.546036
44.550000 -1.511777
44.600000 -1.552888
44.650000 -1.641961
44.700000 -1.758441
44.750000 -1.898903
44.800000 -2.077049
44.850000 -2.241491
44.900000 -2.357972
44.950000 -2.474452
45.000000 -2.614914
45.050000 -2.707413
45.100000 -2.703986
45.150000 -2.686857
45.200000 -2.686857
45.250000 -2.635469
45.300000 -2.508711
45.350000 -2.375101
45.400000 -2.231213
45.450000 -2.063345
45.500000 -1.912606
45.550000 -1.813255
45.600000 -1.717330
45.650000 -1.607702
45.700000 -1.532332
45.750000 -1.522055
45.800000 -1.552887
45.850000 -1.600850
45.900000 -1.641961
45.950000 -1.676219
46.000000 -1.741311
46.050000 -1.844088
46.100000 -1.929735
46.150000 -1.981124
46.200000 -2.039364
46.250000 -2.114733
46.300000 -2.166122
46.350000 -2.162696
46.400000 -2.159271
46.450000 -2.186678
46.500000 -2.217510
46.550000 -2.227788
46.600000 -2.231214
46.650000 -2.231213
46.700000 -2.224362
46.750000 -2.227788
46.800000 -2.251769
46.850000 -2.279176
46.900000 -2.299731
46.950000 -2.323712
47.000000 -2.378527
47.050000 -2.464174
47.100000 -2.560099
47.150000 -2.638895
47.200000 -2.703986
47.250000 -2.762227
47.300000 -2.813615
47.350000 -2.841023
47.400000 -2.837596
47.450000 -2.810189
47.500000 -2.751949
47.550000 -2.649172
47.600000 -2.529266
47.650000 -2.412786
47.700000 -2.292880
47.750000 -2.162696
47.800000 -2.053067
47.850000 -1.977698
47.900000 -1.922884
47.950000 -1.878347
48.000000 -1.861218
48.050000 -1.861217
48.100000 -1.878347
48.150000 -1.916032
48.200000 -1.970846
48.250000 -2.035938
48.300000 -2.125011
48.350000 -2.214084
48.400000 -2.292879
48.450000 -2.368249
48.500000 -2.433341
48.550000 -2.477878
48.600000 -2.477878
48.650000 -2.423064
48.700000 -2.313435
48.750000 -2.190103
48.800000 -2.077049
48.850000 -1.963995
48.900000 -1.857792
48.950000 -1.772145
49.000000 -1.717331
49.050000 -1.717331
49.100000 -1.761866
49.150000 -1.820107
49.200000 -1.885199
49.250000 -1.981124
49.300000 -2.090752
49.350000 -2.186678
49.400000 -2.262047
49.450000 -2.289454
49.500000 -2.258621
49.550000 -2.214084
49.600000 -2.176399
49.650000 -2.104455
49.700000 -2.011957
49.750000 -1.943439
49.800000 -1.878347
49.850000 -1.806403
49.900000 -1.772145
49.950000 -1.768719
50.000000 -1.755015
50.050000 -1.768719
50.100000 -1.833810
50.150000 -1.905755
50.200000 -1.981124
50.250000 -2.073623
50.300000 -2.179825
50.350000 -2.268899
50.400000 -2.344268
50.450000 -2.399083
50.500000 -2.405934
50.550000 -2.402509
50.600000 -2.399082
50.650000 -2.354546
50.700000 -2.275750
50.750000 -2.186677
50.800000 -2.087326
50.850000 -1.977698
50.900000 -1.916032
50.950000 -1.885199
51.000000 -1.861217
51.050000 -1.885199
51.100000 -1.953716
51.150000 -2.035938
51.200000 -2.138715
51.250000 -2.282602
51.300000 -2.416212
51.350000 -2.532692
51.400000 -2.645746
51.450000 -2.700560
51.500000 -2.662876
51.550000 -2.601210
51.600000 -2.532692
51.650000 -2.405934
51.700000 -2.244917
51.750000 -2.094178
51.800000 -1.940013
51.850000 -1.802978
51.900000 -1.720756
51.950000 -1.683071
52.000000 -1.700200
52.050000 -1.775571
52.100000 -1.892050
52.150000 -2.022234
52.200000 -2.190103
52.250000 -2.357971
52.300000 -2.481303
52.350000 -2.577228
52.400000 -2.656025
52.450000 -2.666302
52.500000 -2.618339
52.550000 -2.553247
52.600000 -2.467601
52.650000 -2.357972
52.700000 -2.275750
52.750000 -2.207233
52.800000 -2.097604
52.850000 -1.998253
52.900000 -1.940013
52.950000 -1.878348
53.000000 -1.806403
53.050000 -1.765293
53.100000 -1.724182
53.150000 -1.645387
53.200000 -1.556313
53.250000 -1.477518
53.300000 -1.419278
53.350000 -1.412426
53.400000 -1.443259
53.450000 -1.487795
53.500000 -1.573443
53.550000 -1.734459
53.600000 -1.919458
53.650000 -2.087326
53.700000 -2.265472
53.750000 -2.436767
53.800000 -2.566951
53.850000 -2.656024
53.900000 -2.703987
53.950000 -2.714264
54.000000 -2.703987
54.050000 -2.669728
54.100000 -2.587506
54.150000 -2.495007
54.200000 -2.419638
54.250000 -2.340842
54.300000 -2.248343
54.350000 -2.190103
54.400000 -2.128437
54.450000 -2.032512
54.500000 -1.933161
54.550000 -1.885199
54.600000 -1.840662
54.650000 -1.765293
54.700000 -1.703626
54.750000 -1.686497
54.800000 -1.707053
54.850000 -1.717330
54.900000 -1.744737
54.950000 -1.830385
55.000000 -1.963994
55.050000 -2.090752
55.100000 -2.224362
55.150000 -2.405934
55.200000 -2.604636
55.250000 -2.755374
55.300000 -2.885559
55.350000 -3.019168
55.400000 -3.128797
55.450000 -3.166482
55.500000 -3.149352
55.550000 -3.104815
55.600000 -3.022595
55.650000 -2.899263
55.700000 -2.741671
55.750000 -2.542970
55.800000 -2.316861
55.850000 -2.090753
55.900000 -1.868069
55.950000 -1.662516
56.000000 -1.522055
56.050000 -1.450110
56.100000 -1.398723
56.150000 -1.378167
56.200000 -1.391870
56.250000 -1.419278
56.300000 -1.460389
56.350000 -1.528906
56.400000 -1.628257
56.450000 -1.744737
56.500000 -1.854366
56.550000 -1.963994
56.600000 -2.077049
56.650000 -2.196955
56.700000 -2.296305
56.750000 -2.395656
56.800000 -2.553247
56.850000 -2.707412
56.900000 -2.796486
56.950000 -2.861577
57.000000 -2.940373
57.050000 -2.954077
57.100000 -2.888985
57.150000 -2.820467
57.200000 -2.745097
57.250000 -2.621765
57.300000 -2.512136
57.350000 -2.447045
57.400000 -2.357971
57.450000 -2.248343
57.500000 -2.176400
57.550000 -2.162696
57.600000 -2.179826
57.650000 -2.217510
57.700000 -2.238066
57.750000 -2.238066
57.800000 -2.244917
57.850000 -2.234640
57.900000 -2.186677
57.950000 -2.111308
58.000000 -2.046215
58.050000 -1.984550
58.100000 -1.950290
58.150000 -1.943439
58.200000 -1.919458
58.250000 -1.892050
58.300000 -1.912607
58.350000 -1.950291
58.400000 -1.967420
58.450000 -1.984550
58.500000 -2.018809
58.550000 -2.042790
58.600000 -2.053068
58.650000 -2.080475
58.700000 -2.094178
58.750000 -2.101030
58.800000 -2.145567
58.850000 -2.186677
58.900000 -2.186677
58.950000 -2.193529
59.000000 -2.224362
59.050000 -2.207232
59.100000 -2.138715
59.150000 -2.083900
59.200000 -2.039364
59.250000 -1.970846
59.300000 -1.871496
59.350000 -1.765293
59.400000 -1.655664
59.450000 -1.580295
59.500000 -1.532332
59.550000 -1.494647
59.600000 -1.498073
59.650000 -1.563165
59.700000 -1.648813
59.750000 -1.741311
59.800000 -1.895476
59.850000 -2.083900
59.900000 -2.265472
59.950000 -2.443618
60.000000 -2.608062
60.050000 -2.731393
60.100000 -2.789634
60.150000 -2.793060
60.200000 -2.700560
60.250000 -2.546395
60.300000 -2.368249
60.350000 -2.169548
60.400000 -1.967421
60.450000 -1.799552
60.500000 -1.683071
60.550000 -1.624831
60.600000 -1.617979
60.650000 -1.624831
60.700000 -1.648812
60.750000 -1.707052
60.800000 -1.775570
60.850000 -1.782423
60.900000 -1.751589
60.950000 -1.713905
61.000000 -1.624832
61.050000 -1.477518
61.100000 -1.330204
61.150000 -1.206873
61.200000 -1.090392
61.250000 -0.997894
61.300000 -0.949932
61.350000 -0.936228
61.400000 -0.960209
61.450000 -1.042430
61.500000 -1.158910
61.550000 -1.292520
61.600000 -1.467241
61.650000 -1.645386
61.700000 -1.789274
61.750000 -1.916032
61.800000 -2.042790
61.850000 -2.125011
61.900000 -2.169548
61.950000 -2.190103
62.000000 -2.196954
62.050000 -2.172973
62.100000 -2.107881
62.150000 -2.005105
62.200000 -1.878347
62.250000 -1.751589
62.300000 -1.638535
62.350000 -1.542610
62.400000 -1.480944
62.450000 -1.443259
62.500000 -1.432981
62.550000 -1.487795
62.600000 -1.587146
62.650000 -1.669368
62.700000 -1.731034
62.750000 -1.813255
62.800000 -1.912606
62.850000 -1.984549
62.900000 -2.035938
62.950000 -2.056494
63.000000 -2.046215
63.050000 -2.032512
63.100000 -2.001680
63.150000 -1.916032
63.200000 -1.802977
63.250000 -1.720756
63.300000 -1.672794
63.350000 -1.645386
63.400000 -1.641961
63.450000 -1.665942
63.500000 -1.720756
63.550000 -1.802978
63.600000 -1.885198
63.650000 -1.953717
63.700000 -2.008531
63.750000 -2.053067
63.800000 -2.063345
63.850000 -2.066771
63.900000 -2.046216
63.950000 -1.970846
64.000000 -1.888624
64.050000 -1.830385
64.100000 -1.775571
64.150000 -1.717331
64.200000 -1.689924
64.250000 -1.693349
64.300000 -1.703626
64.350000 -1.741311
64.400000 -1.816681
64.450000 -1.892051
64.500000 -1.933162
64.550000 -1.960569
64.600000 -2.015383
64.650000 -2.059919
64.700000 -2.056494
64.750000 -2.035938
64.800000 -2.063345
64.850000 -2.107882
64.900000 -2.118160
64.950000 -2.118159
65.000000 -2.159270
65.050000 -2.196955
65.100000 -2.190103
65.150000 -2.186677
65.200000 -2.210658
65.250000 -2.220936
65.300000 -2.217510
65.350000 -2.234639
65.400000 -2.265473
65.450000 -2.272324
65.500000 -2.268899
65.550000 -2.244918
65.600000 -2.220937
65.650000 -2.210658
65.700000 -2.179826
65.750000 -2.111308
65.800000 -2.049642
65.850000 -2.001679
65.900000 -1.929736
65.950000 -1.850940
66.000000 -1.789274
66.050000 -1.761867
66.100000 -1.744738
66.150000 -1.748163
66.200000 -1.778996
66.250000 -1.840662
66.300000 -1.919458
66.350000 -2.008531
66.400000 -2.101030
66.450000 -2.193529
66.500000 -2.268899
66.550000 -2.313435
66.600000 -2.337417
66.650000 -2.347694
66.700000 -2.357972
66.750000 -2.347694
66.800000 -2.303157
66.850000 -2.244918
66.900000 -2.186677
66.950000 -2.097604
67.000000 -1.967421
67.050000 -1.826959
67.100000 -1.696775
67.150000 -1.573443
67.200000 -1.460388
67.250000 -1.378167
67.300000 -1.316501
67.350000 -1.265113
67.400000 -1.234280
67.450000 -1.237706
67.500000 -1.247983
67.550000 -1.265113
67.600000 -1.309649
67.650000 -1.385019
67.700000 -1.477518
67.750000 -1.552887
67.800000 -1.621405
67.850000 -1.707053
67.900000 -1.816681
67.950000 -1.909181
68.000000 -1.994827
68.050000 -2.104455
68.100000 -2.214085
68.150000 -2.286028
68.200000 -2.351119
68.250000 -2.433341
68.300000 -2.477878
68.350000 -2.471026
68.400000 -2.450470
68.450000 -2.423063
68.500000 -2.385378
68.550000 -2.351120
68.600000 -2.320287
68.650000 -2.310009
68.700000 -2.330565
68.750000 -2.354546
68.800000 -2.368249
68.850000 -2.419637
68.900000 -2.498433
68.950000 -2.536118
69.000000 -2.546396
69.050000 -2.539544
69.100000 -2.464174
69.150000 -2.320287
69.200000 -2.179825
69.250000 -2.029086
69.300000 -1.826959
69.350000 -1.635109
69.400000 -1.494648
69.450000 -1.374741
69.500000 -1.285668
69.550000 -1.275390
69.600000 -1.306223
69.650000 -1.371316
69.700000 -1.484370
69.750000 -1.611128
69.800000 -1.717330
69.850000 -1.850940
69.900000 -1.994828
69.950000 -2.090752
70.000000 -2.179825
70.050000 -2.306583
70.100000 -2.429916
70.150000 -2.549821
70.200000 -2.683431
70.250000 -2.786208
70.300000 -2.858151
70.350000 -2.950650
70.400000 -3.012317
70.450000 -2.998613
70.500000 -2.933521
70.550000 -2.851299
70.600000 -2.734819
70.650000 -2.587506
70.700000 -2.423064
70.750000 -2.227788
70.800000 -2.032512
70.850000 -1.898903
70.900000 -1.823533
70.950000 -1.792700
71.000000 -1.802977
71.050000 -1.844088
71.100000 -1.912606
71.150000 -2.032512
71.200000 -2.162696
71.250000 -2.258621
71.300000 -2.364824
71.350000 -2.491582
71.400000 -2.566951
71.450000 -2.601210
71.500000 -2.656024
71.550000 -2.703987
71.600000 -2.693709
71.650000 -2.652598
71.700000 -2.611488
71.750000 -2.549822
71.800000 -2.498433
71.850000 -2.443619
71.900000 -2.361397
71.950000 -2.289454
72.000000 -2.265472
72.050000 -2.231214
72.100000 -2.166122
72.150000 -2.148992
72.200000 -2.186677
72.250000 -2.220936
72.300000 -2.251769
72.350000 -2.299731
72.400000 -2.375101
72.450000 -2.464174
72.500000 -2.542969
72.550000 -2.587506
72.600000 -2.611487
72.650000 -2.625191
72.700000 -2.608062
72.750000 -2.542970
72.800000 -2.467600
72.850000 -2.375101
72.900000 -2.265472
72.950000 -2.145567
73.000000 -2.035938
73.050000 -1.946865
73.100000 -1.909180
73.150000 -1.933161
73.200000 -1.974272
73.250000 -2.032512
73.300000 -2.104456
73.350000 -2.162696
73.400000 -2.196955
73.450000 -2.220936
73.500000 -2.220936
73.550000 -2.186677
73.600000 -2.138714
73.650000 -2.073623
73.700000 -1.977697
73.750000 -1.885199
73.800000 -1.806403
73.850000 -1.737886
73.900000 -1.679645
73.950000 -1.659090
74.000000 -1.693349
74.050000 -1.765293
74.100000 -1.833810
74.150000 -1.881773
74.200000 -1.940013
74.250000 -2.015382
74.300000 -2.087326
74.350000 -2.145566
74.400000 -2.193529
74.450000 -2.220936
74.500000 -2.238066
74.550000 -2.251769
74.600000 -2.265473
74.650000 -2.289454
74.700000 -2.327139
74.750000 -2.340843
74.800000 -2.310009
74.850000 -2.275750
74.900000 -2.248343
74.950000 -2.203807
75.000000 -2.135289
75.050000 -2.083900
75.100000 -2.042789
75.150000 -1.991402
75.200000 -1.957143
75.250000 -1.953717
75.300000 -1.940013
75.350000 -1.926310
75.400000 -1.946865
75.450000 -1.987976
75.500000 -2.018809
75.550000 -2.046216
75.600000 -2.083900
75.650000 -2.114734
75.700000 -2.145566
75.750000 -2.159270
75.800000 -2.138715
75.850000 -2.101030
75.900000 -2.039364
75.950000 -1.929735
76.000000 -1.809830
76.050000 -1.724182
76.100000 -1.624831
76.150000 -1.487796
76.200000 -1.364464
76.250000 -1.282242
76.300000 -1.213724
76.350000 -1.169188
76.400000 -1.162336
76.450000 -1.193169
76.500000 -1.265113
76.550000 -1.378168
76.600000 -1.498073
76.650000 -1.590572
76.700000 -1.676219
76.750000 -1.761867
76.800000 -1.830384
76.850000 -1.874921
76.900000 -1.888625
76.950000 -1.895477
77.000000 -1.919458
77.050000 -1.922884
77.100000 -1.888625
77.150000 -1.871495
77.200000 -1.871495
77.250000 -1.837237
77.300000 -1.789274
77.350000 -1.782422
77.400000 -1.802977
77.450000 -1.809829
77.500000 -1.830385
77.550000 -1.874921
77.600000 -1.940013
77.650000 -2.015383
77.700000 -2.077049
77.750000 -2.111308
77.800000 -2.148992
77.850000 -2.172973
77.900000 -2.121585
77.950000 -2.025660
78.000000 -1.922883
78.050000 -1.785848
78.100000 -1.611128
78.150000 -1.429556
78.200000 -1.254835
78.250000 -1.080115
78.300000 -0.929376
78.350000 -0.802618
78.400000 -0.692989
78.450000 -0.631324
78.500000 -0.627898
78.550000 -0.665582
78.600000 -0.744378
78.650000 -0.867710
78.700000 -1.001319
78.750000 -1.148633
78.800000 -1.319927
78.850000 -1.487796
78.900000 -1.638535
78.950000 -1.789273
79.000000 -1.916032
79.050000 -2.005105
79.100000 -2.073623
79.150000 -2.118160
79.200000 -2.138715
79.250000 -2.152419
79.300000 -2.162696
79.350000 -2.152418
79.400000 -2.166122
79.450000 -2.224362
79.500000 -2.272325
79.550000 -2.258621
79.600000 -2.241492
79.650000 -2.241491
79.700000 -2.210659
79.750000 -2.138715
79.800000 -2.056493
79.850000 -1.950291
79.900000 -1.816681
79.950000 -1.679645
80.000000 -1.566591
80.050000 -1.480944
80.100000 -1.432981
80.150000 -1.429555
80.200000 -1.463815
80.250000 -1.539184
80.300000 -1.614554
80.350000 -1.683071
80.400000 -1.778996
80.450000 -1.864644
80.500000 -1.885199
80.550000 -1.864643
80.600000 -1.857792
80.650000 -1.820107
80.700000 -1.724182
80.750000 -1.631683
80.800000 -1.552888
80.850000 -1.450111
80.900000 -1.350760
80.950000 -1.316501
81.000000 -1.313075
81.050000 -1.309650
81.100000 -1.340482
81.150000 -1.443259
81.200000 -1.566591
81.250000 -1.686497
81.300000 -1.792700
81.350000 -1.892050
81.400000 -1.987975
81.450000 -2.059919
81.500000 -2.094178
81.550000 -2.107881
81.600000 -2.104455
81.650000 -2.056493
81.700000 -1.987976
81.750000 -1.926309
81.800000 -1.844088
81.850000 -1.751589
81.900000 -1.700200
81.950000 -1.662516
82.000000 -1.600850
82.050000 -1.563165
82.100000 -1.556313
82.150000 -1.539184
82.200000 -1.518629
82.250000 -1.522054
82.300000 -1.504925
82.350000 -1.480944
82.400000 -1.484370
82.450000 -1.470666
82.500000 -1.415852
82.550000 -1.402148
82.600000 -1.436407
82.650000 -1.453536
82.700000 -1.460388
82.750000 -1.515203
82.800000 -1.576869
82.850000 -1.611127
82.900000 -1.638535
82.950000 -1.641961
83.000000 -1.631683
83.050000 -1.617979
83.100000 -1.573443
83.150000 -1.504925
83.200000 -1.443259
83.250000 -1.402149
83.300000 -1.364463
83.350000 -1.333630
83.400000 -1.319927
83.450000 -1.316501
83.500000 -1.361037
83.550000 -1.467241
83.600000 -1.570017
83.650000 -1.652238
83.700000 -1.744738
83.750000 -1.837236
83.800000 -1.892051
83.850000 -1.936587
83.900000 -2.001679
83.950000 -2.077048
84.000000 -2.128437
84.050000 -2.179826
84.100000 -2.255195
84.150000 -2.323712
84.200000 -2.347694
84.250000 -2.354546
84.300000 -2.351120
84.350000 -2.306583
84.400000 -2.196954
84.450000 -2.066771
84.500000 -1.916032
84.550000 -1.727608
84.600000 -1.515203
84.650000 -1.330205
84.700000 -1.176040
84.750000 -1.052707
84.800000 -0.987615
84.850000 -0.991042
84.900000 -1.035578
84.950000 -1.110947
85.000000 -1.230854
85.050000 -1.374741
85.100000 -1.501499
85.150000 -1.617980
85.200000 -1.744738
85.250000 -1.850940
85.300000 -1.929735
85.350000 -2.001680
85.400000 -2.039364
85.450000 -2.032512
85.500000 -2.011957
85.550000 -2.011957
85.600000 -1.981124
85.650000 -1.916032
85.700000 -1.878347
85.750000 -1.864644
85.800000 -1.844088
85.850000 -1.840663
85.900000 -1.847514
85.950000 -1.830385
86.000000 -1.789274
86.050000 -1.765292
86.100000 -1.755015
86.150000 -1.734460
86.200000 -1.710478
86.250000 -1.686497
86.300000 -1.669368
86.350000 -1.662516
86.400000 -1.655664
86.450000 -1.652238
86.500000 -1.665942
86.550000 -1.672794
86.600000 -1.683072
86.650000 -1.710479
86.700000 -1.748163
86.750000 -1.775571
86.800000 -1.809829
86.850000 -1.861217
86.900000 -1.902328
86.950000 -1.940013
87.000000 -1.977698
87.050000 -1.981124
87.100000 -1.960568
87.150000 -1.940013
87.200000 -1.919457
87.250000 -1.864644
87.300000 -1.789274
87.350000 -1.713904
87.400000 -1.645386
87.450000 -1.573442
87.500000 -1.504925
87.550000 -1.460389
87.600000 -1.460389
87.650000 -1.515203
87.700000 -1.635108
87.750000 -1.778996
87.800000 -1.922883
87.850000 -2.080475
87.900000 -2.224362
87.950000 -2.313435
88.000000 -2.340842
88.050000 -2.327139
88.100000 -2.275751
88.150000 -2.166122
88.200000 -2.011957
88.250000 -1.840662
88.300000 -1.648813
88.350000 -1.460388
88.400000 -1.295946
88.450000 -1.134929
88.500000 -0.984190
88.550000 -0.895117
88.600000 -0.881413
88.650000 -0.891691
88.700000 -0.922524
88.750000 -1.001320
88.800000 -1.093818
88.850000 -1.186317
88.900000 -1.306223
88.950000 -1.456963
89.000000 -1.590572
89.050000 -1.710479
89.100000 -1.847514
89.150000 -1.963994
89.200000 -2.015383
89.250000 -2.025660
89.300000 -2.032512
89.350000 -2.035938
89.400000 -2.008531
89.450000 -1.963995
89.500000 -1.922884
89.550000 -1.888624
89.600000 -1.850940
89.650000 -1.820107
89.700000 -1.782423
89.750000 -1.755015
89.800000 -1.744738
89.850000 -1.724182
89.900000 -1.676219
89.950000 -1.645387
90.000000 -1.631683
90.050000 -1.607702
90.100000 -1.556313
90.150000 -1.525481
90.200000 -1.501500
90.250000 -1.453537
90.300000 -1.412426
90.350000 -1.409000
90.400000 -1.429556
90.450000 -1.477518
90.500000 -1.566591
90.550000 -1.676220
90.600000 -1.796126
90.650000 -1.953717
90.700000 -2.111308
90.750000 -2.238065
90.800000 -2.344268
90.850000 -2.416212
90.900000 -2.423064
90.950000 -2.392231
91.000000 -2.354546
91.050000 -2.265473
91.100000 -2.107881
91.150000 -1.950291
91.200000 -1.840662
91.250000 -1.737885
91.300000 -1.652238
91.350000 -1.638535
91.400000 -1.724182
91.450000 -1.868069
91.500000 -2.011957
91.550000 -2.145567
91.600000 -2.289454
91.650000 -2.447045
91.700000 -2.566951
91.750000 -2.621765
91.800000 -2.618339
91.850000 -2.563525
91.900000 -2.453897
91.950000 -2.306583
92.000000 -2.118159
92.050000 -1.898903
92.100000 -1.683071
92.150000 -1.501499
92.200000 -1.354186
92.250000 -1.241131
92.300000 -1.169188
92.350000 -1.117800
92.400000 -1.097245
92.450000 -1.138355
92.500000 -1.203447
92.550000 -1.254836
92.600000 -1.340482
92.650000 -1.463814
92.700000 -1.528906
92.750000 -1.559739
92.800000 -1.628257
92.850000 -1.686497
92.900000 -1.693349
92.950000 -1.713904
93.000000 -1.755015
93.050000 -1.734459
93.100000 -1.669367
93.150000 -1.611128
93.200000 -1.549462
93.250000 -1.456962
93.300000 -1.357612
93.350000 -1.237705
93.400000 -1.107522
93.450000 -1.018449
93.500000 -0.984190
93.550000 -0.973912
93.600000 -1.011597
93.650000 -1.114373
93.700000 -1.251410
93.750000 -1.395296
93.800000 -1.559739
93.850000 -1.727608
93.900000 -1.857792
93.950000 -1.960568
94.000000 -2.042789
94.050000 -2.073623
94.100000 -2.087326
94.150000 -2.101030
94.200000 -2.087327
94.250000 -2.039364
94.300000 -1.994828
94.350000 -1.977698
94.400000 -1.967421
94.450000 -1.981124
94.500000 -2.018809
94.550000 -2.032512
94.600000 -2.025660
94.650000 -2.008531
94.700000 -1.984550
94.750000 -1.940013
94.800000 -1.895477
94.850000 -1.847514
94.900000 -1.792700
94.950000 -1.748164
95.000000 -1.737885
95.050000 -1.734460
95.100000 -1.720756
95.150000 -1.707052
95.200000 -1.703627
95.250000 -1.683071
95.300000 -1.624832
95.350000 -1.535758
95.400000 -1.460388
95.450000 -1.381593
95.500000 -1.285668
95.550000 -1.196595
95.600000 -1.165762
95.650000 -1.182891
95.700000 -1.244557
95.750000 -1.357612
95.800000 -1.525480
95.850000 -1.724182
95.900000 -1.926309
95.950000 -2.125011
96.000000 -2.292880
96.050000 -2.429915
96.100000 -2.529266
96.150000 -2.594358
96.200000 -2.614914
96.250000 -2.590932
96.300000 -2.522414
96.350000 -2.423063
96.400000 -2.340842
96.450000 -2.279176
96.500000 -2.217510
96.550000 -2.162696
96.600000 -2.148993
96.650000 -2.176400
96.700000 -2.227788
96.750000 -2.282602
96.800000 -2.361397
96.850000 -2.450470
96.900000 -2.515562
96.950000 -2.549822
97.000000 -2.563525
97.050000 -2.556673
97.100000 -2.515563
97.150000 -2.436768
97.200000 -2.323713
97.250000 -2.190103
97.300000 -2.046216
97.350000 -1.926310
97.400000 -1.837236
97.450000 -1.772144
97.500000 -1.724182
97.550000 -1.720756
97.600000 -1.785848
97.650000 -1.864644
97.700000 -1.926310
97.750000 -2.005105
97.800000 -2.097604
97.850000 -2.159270
97.900000 -2.186678
97.950000 -2.186677
98.000000 -2.145567
98.050000 -2.059920
98.100000 -1.950291
98.150000 -1.799551
98.200000 -1.635109
98.250000 -1.501500
98.300000 -1.405574
98.350000 -1.330204
98.400000 -1.295946
98.450000 -1.319927
98.500000 -1.385019
98.550000 -1.480943
98.600000 -1.597424
98.650000 -1.720756
98.700000 -1.826959
98.750000 -1.898902
98.800000 -1.984550
98.850000 -2.066771
98.900000 -2.077049
98.950000 -2.035938
99.000000 -1.998253
99.050000 -1.929736
99.100000 -1.816682
99.150000 -1.734459
99.200000 -1.693349
99.250000 -1.631683
99.300000 -1.563165
99.350000 -1.528907
99.400000 -1.525480
99.450000 -1.542610
99.500000 -1.583720
99.550000 -1.624831
99.600000 -1.659090
99.650000 -1.703626
99.700000 -1.734460
99.750000 -1.724182
99.800000 -1.713905
99.850000 -1.703627
99.900000 -1.676220
99.950000 -1.645386
100.000000 -1.635109
100.050000 -1.641960
100.100000 -1.652238
100.150000 -1.686498
100.200000 -1.755015
100.250000 -1.854365
100.300000 -1.970846
100.350000 -2.111308
100.400000 -2.251769
100.450000 -2.361398
100.500000 -2.440193
100.550000 -2.498434
100.600000 -2.532692
100.650000 -2.508711
100.700000 -2.460748
100.750000 -2.402508
100.800000 -2.320287
100.850000 -2.224362
100.900000 -2.131863
100.950000 -2.046216
101.000000 -1.957143
101.050000 -1.916032
101.100000 -1.912606
101.150000 -1.909180
101.200000 -1.888625
101.250000 -1.878347
101.300000 -1.881773
101.350000 -1.895477
101.400000 -1.902328
101.450000 -1.902328
101.500000 -1.909180
101.550000 -1.926309
101.600000 -1.933161
101.650000 -1.943439
101.700000 -1.963995
101.750000 -2.001679
101.800000 -2.063345
101.850000 -2.166122
101.900000 -2.279176
101.950000 -2.375101
102.000000 -2.464174
102.050000 -2.549821
102.100000 -2.587506
102.150000 -2.570376
102.200000 -2.495007
102.250000 -2.364823
102.300000 -2.169548
102.350000 -1.933161
102.400000 -1.672793
102.450000 -1.419278
102.500000 -1.182891
102.550000 -0.984190
102.600000 -0.857432
102.650000 -0.802618
102.700000 -0.836877
102.750000 -0.963635
102.800000 -1.169188
102.850000 -1.415852
102.900000 -1.665942
102.950000 -1.878347
103.000000 -2.042790
103.050000 -2.166122
103.100000 -2.224362
103.150000 -2.183252
103.200000 -2.053067
103.250000 -1.878348
103.300000 -1.665942
103.350000 -1.429556
103.400000 -1.210299
103.450000 -1.028727
103.500000 -0.888265
103.550000 -0.830024
103.600000 -0.854006
103.650000 -0.929375
103.700000 -1.042430
103.750000 -1.203447
103.800000 -1.374741
103.850000 -1.511777
103.900000 -1.611128
103.950000 -1.662516
104.000000 -1.648813
104.050000 -1.580295
104.100000 -1.474092
104.150000 -1.337056
104.200000 -1.206873
104.250000 -1.117800
104.300000 -1.097244
104.350000 -1.145207
104.400000 -1.265113
104.450000 -1.439833
104.500000 -1.638534
104.550000 -1.833811
104.600000 -2.011957
104.650000 -2.152418
104.700000 -2.210658
104.750000 -2.172974
104.800000 -2.070197
104.850000 -1.916031
104.900000 -1.724182
104.950000 -1.518629
105.000000 -1.299372
105.050000 -1.107522
105.100000 -1.004745
105.150000 -0.994468
105.200000 -1.032152
105.250000 -1.121226
105.300000 -1.275390
105.350000 -1.446685
105.400000 -1.587147
105.450000 -1.713905
105.500000 -1.806404
105.550000 -1.826959
105.600000 -1.799552
105.650000 -1.765293
105.700000 -1.693349
105.750000 -1.590572
105.800000 -1.501499
105.850000 -1.460388
105.900000 -1.439833
105.950000 -1.426130
106.000000 -1.460388
106.050000 -1.525481
106.100000 -1.600850
106.150000 -1.679646
106.200000 -1.741311
106.250000 -1.761867
106.300000 -1.765292
106.350000 -1.765293
106.400000 -1.731034
106.450000 -1.662516
106.500000 -1.583721
106.550000 -1.501499
106.600000 -1.412426
106.650000 -1.309649
106.700000 -1.220576
106.750000 -1.155484
106.800000 -1.107522
106.850000 -1.083541
106.900000 -1.093818
106.950000 -1.124651
107.000000 -1.165761
107.050000 -1.247983
107.100000 -1.364464
107.150000 -1.443259
107.200000 -1.518628
107.250000 -1.655664
107.300000 -1.813255
107.350000 -1.933161
107.400000 -2.046215
107.450000 -2.152418
107.500000 -2.214084
107.550000 -2.265473
107.600000 -2.327138
107.650000 -2.340842
107.700000 -2.292880
107.750000 -2.234640
107.800000 -2.169548
107.850000 -2.059919
107.900000 -1.950291
107.950000 -1.868069
108.000000 -1.789274
108.050000 -1.686497
108.100000 -1.580295
108.150000 -1.518629
108.200000 -1.501499
108.250000 -1.480944
108.300000 -1.432981
108.350000 -1.388445
108.400000 -1.361038
108.450000 -1.323353
108.500000 -1.275391
108.550000 -1.258261
108.600000 -1.251409
108.650000 -1.244558
108.700000 -1.234279
108.750000 -1.234280
108.800000 -1.251409
108.850000 -1.289094
108.900000 -1.319927
108.950000 -1.340483
109.000000 -1.367889
109.050000 -1.388444
109.100000 -1.388445
109.150000 -1.357611
109.200000 -1.299371
109.250000 -1.230854
109.300000 -1.172614
109.350000 -1.121225
109.400000 -1.080115
109.450000 -1.045856
109.500000 -1.039004
109.550000 -1.056134
109.600000 -1.083541
109.650000 -1.121226
109.700000 -1.189743
109.750000 -1.292519
109.800000 -1.395297
109.850000 -1.484369
109.900000 -1.563166
109.950000 -1.614554
110.000000 -1.659090
110.050000 -1.710479
110.100000 -1.720756
110.150000 -1.689923
110.200000 -1.665942
110.250000 -1.628257
110.300000 -1.535758
110.350000 -1.450111
110.400000 -1.426130
110.450000 -1.432981
110.500000 -1.450110
110.550000 -1.511777
110.600000 -1.614554
110.650000 -1.755015
110.700000 -1.926309
110.750000 -2.094178
110.800000 -2.255195
110.850000 -2.419638
110.900000 -2.532692
110.950000 -2.560099
111.000000 -2.566951
111.050000 -2.563525
111.100000 -2.508710
111.150000 -2.402508
111.200000 -2.299731
111.250000 -2.196955
111.300000 -2.066771
111.350000 -1.940013
111.400000 -1.850940
111.450000 -1.785848
111.500000 -1.710478
111.550000 -1.631683
111.600000 -1.587146
111.650000 -1.549462
111.700000 -1.498074
111.750000 -1.456963
111.800000 -1.446685
111.850000 -1.439833
111.900000 -1.439833
111.950000 -1.474092
112.000000 -1.532332
112.050000 -1.583721
112.100000 -1.652238
112.150000 -1.744737
112.200000 -1.816681
112.250000 -1.840663
112.300000 -1.847514
112.350000 -1.874921
112.400000 -1.912606
112.450000 -1.922883
112.500000 -1.895476
112.550000 -1.857792
112.600000 -1.837236
112.650000 -1.809829
112.700000 -1.775570
112.750000 -1.744737
112.800000 -1.713905
112.850000 -1.662516
112.900000 -1.600849
112.950000 -1.542609
113.000000 -1.494648
113.050000 -1.439833
113.100000 -1.391871
113.150000 -1.378167
113.200000 -1.388444
113.250000 -1.409000
113.300000 -1.436407
113.350000 -1.453536
113.400000 -1.463814
113.450000 -1.467240
113.500000 -1.436408
113.550000 -1.350760
113.600000 -1.251409
113.650000 -1.182891
113.700000 -1.114373
113.750000 -1.028726
113.800000 -0.987615
113.850000 -0.987616
113.900000 -1.001319
113.950000 -1.039004
114.000000 -1.124652
114.050000 -1.224002
114.100000 -1.323353
114.150000 -1.432982
114.200000 -1.511777
114.250000 -1.539184
114.300000 -1.528906
114.350000 -1.484369
114.400000 -1.405574
114.450000 -1.292520
114.500000 -1.134929
114.550000 -0.987616
114.600000 -0.874561
114.650000 -0.775211
114.700000 -0.679285
114.750000 -0.631323
114.800000 -0.648453
114.850000 -0.720396
114.900000 -0.833450
114.950000 -0.977338
115.000000 -1.155484
115.050000 -1.385019
115.100000 -1.621406
115.150000 -1.809829
115.200000 -1.967420
115.250000 -2.107882
115.300000 -2.196954
115.350000 -2.220936
115.400000 -2.196955
115.450000 -2.121585
115.500000 -1.981124
115.550000 -1.796125
115.600000 -1.604275
115.650000 -1.432981
115.700000 -1.278816
115.750000 -1.152058
115.800000 -1.076689
115.850000 -1.039004
115.900000 -1.018449
115.950000 -1.039004
116.000000 -1.117800
116.050000 -1.210298
116.100000 -1.285668
116.150000 -1.371316
116.200000 -1.460389
116.250000 -1.528906
116.300000 -1.604276
116.350000 -1.686497
116.400000 -1.744737
116.450000 -1.806404
116.500000 -1.905754
116.550000 -2.005105
116.600000 -2.094178
116.650000 -2.200380
116.700000 -2.275751
116.750000 -2.275751
116.800000 -2.262047
116.850000 -2.220936
116.900000 -2.121585
116.950000 -1.977698
117.000000 -1.837237
117.050000 -1.683071
117.100000 -1.535758
117.150000 -1.439834
117.200000 -1.378167
117.250000 -1.333631
117.300000 -1.347334
117.350000 -1.409000
117.400000 -1.498074
117.450000 -1.607702
117.500000 -1.734460
117.550000 -1.861217
117.600000 -1.998253
117.650000 -2.148992
117.700000 -2.244917
117.750000 -2.279176
117.800000 -2.320287
117.850000 -2.351120
117.900000 -2.337417
117.950000 -2.299732
118.000000 -2.262047
118.050000 -2.193529
118.100000 -2.111307
118.150000 -2.066771
118.200000 -2.022235
118.250000 -1.929735
118.300000 -1.857791
118.350000 -1.837236
118.400000 -1.826959
118.450000 -1.830384
118.500000 -1.868069
118.550000 -1.919458
118.600000 -1.987976
118.650000 -2.046216
118.700000 -2.063345
118.750000 -2.046215
118.800000 -2.018808
118.850000 -1.953717
118.900000 -1.830385
118.950000 -1.689924
119.000000 -1.570017
119.050000 -1.443259
119.100000 -1.302798
119.150000 -1.176040
119.200000 -1.090392
119.250000 -1.073263
119.300000 -1.110947
119.350000 -1.165762
119.400000 -1.237705
119.450000 -1.361037
119.500000 -1.515203
119.550000 -1.669368
119.600000 -1.785848
119.650000 -1.874921
119.700000 -1.933161
119.750000 -1.946865
119.800000 -1.912606
119.850000 -1.861218
119.900000 -1.826959
119.950000 -1.792700
120.000000 -1.744738
120.050000 -1.710479
120.100000 -1.700201
120.150000 -1.720756
120.200000 -1.782422
120.250000 -1.864643
120.300000 -1.943439
120.350000 -2.039364
120.400000 -2.159270
120.450000 -2.238066
120.500000 -2.238065
120.550000 -2.214085
120.600000 -2.155845
120.650000 -2.005105
120.700000 -1.792700
120.750000 -1.573443
120.800000 -1.340482
120.850000 -1.097245
120.900000 -0.895116
120.950000 -0.751229
121.000000 -0.641601
121.050000 -0.600490
121.100000 -0.669007
121.150000 -0.812895
121.200000 -0.980764
121.250000 -1.179465
121.300000 -1.419278
121.350000 -1.638534
121.400000 -1.768719
121.450000 -1.806403
121.500000 -1.785848
121.550000 -1.707052
121.600000 -1.587146
121.650000 -1.439833
121.700000 -1.282243
121.750000 -1.138355
121.800000 -1.052708
121.850000 -1.035578
121.900000 -1.066411
121.950000 -1.124651
122.000000 -1.258261
122.050000 -1.453537
122.100000 -1.628257
122.150000 -1.792700
122.200000 -1.970846
122.250000 -2.131863
122.300000 -2.244917
122.350000 -2.327139
122.400000 -2.361398
122.450000 -2.340843
122.500000 -2.310010
122.550000 -2.265473
122.600000 -2.169548
122.650000 -2.070197
122.700000 -1.963995
122.750000 -1.806403
122.800000 -1.611128
122.850000 -1.436407
122.900000 -1.261687
122.950000 -1.080114
123.000000 -0.943079
123.050000 -0.854006
123.100000 -0.799192
123.150000 -0.795766
123.200000 -0.860858
123.250000 -0.970486
123.300000 -1.124652
123.350000 -1.326778
123.400000 -1.522054
123.450000 -1.693349
123.500000 -1.844088
123.550000 -1.967420
123.600000 -2.032512
123.650000 -2.039363
123.700000 -1.994827
123.750000 -1.895477
123.800000 -1.748163
123.850000 -1.563165
123.900000 -1.371316
123.950000 -1.213724
124.000000 -1.134929
124.050000 -1.138354
124.100000 -1.224002
124.150000 -1.381593
124.200000 -1.587146
124.250000 -1.813255
124.300000 -2.042789
124.350000 -2.238065
124.400000 -2.378527
124.450000 -2.433341
124.500000 -2.399082
124.550000 -2.282602
124.600000 -2.090753
124.650000 -1.857792
124.700000 -1.641961
124.750000 -1.463815
124.800000 -1.319926
124.850000 -1.227428
124.900000 -1.247983
124.950000 -1.367889
125.000000 -1.549461
125.050000 -1.758441
125.100000 -1.981123
125.150000 -2.203806
125.200000 -2.395656
125.250000 -2.525841
125.300000 -2.584080
125.350000 -2.577228
125.400000 -2.512136
125.450000 -2.405935
125.500000 -2.296306
125.550000 -2.196955
125.600000 -2.087326
125.650000 -1.984550
125.700000 -1.898902
125.750000 -1.823533
125.800000 -1.748163
125.850000 -1.655664
125.900000 -1.549461
125.950000 -1.463815
126.000000 -1.409000
126.050000 -1.354186
126.100000 -1.302798
126.150000 -1.282242
126.200000 -1.306223
126.250000 -1.326778
126.300000 -1.367889
126.350000 -1.422703
126.400000 -1.494647
126.450000 -1.563165
126.500000 -1.638535
126.550000 -1.737886
126.600000 -1.850940
126.650000 -1.905754
126.700000 -1.905754
126.750000 -1.895476
126.800000 -1.878347
126.850000 -1.830385
126.900000 -1.772144
126.950000 -1.717331
127.000000 -1.641961
127.050000 -1.552888
127.100000 -1.491222
127.150000 -1.443259
127.200000 -1.371315
127.250000 -1.316502
127.300000 -1.354186
127.350000 -1.422703
127.400000 -1.487795
127.450000 -1.580295
127.500000 -1.676220
127.550000 -1.724182
127.600000 -1.758441
127.650000 -1.809830
127.700000 -1.816681
127.750000 -1.765293
127.800000 -1.724182
127.850000 -1.703626
127.900000 -1.645387
127.950000 -1.587146
128.000000 -1.570017
128.050000 -1.580294
128.100000 -1.590572
128.150000 -1.621406
128.200000 -1.676219
128.250000 -1.741311
128.300000 -1.813255
128.350000 -1.861218
128.400000 -1.892050
128.450000 -1.940013
128.500000 -1.991401
128.550000 -2.011957
128.600000 -2.018809
128.650000 -2.046215
128.700000 -2.063345
128.750000 -2.053067
128.800000 -2.066771
128.850000 -2.114734
128.900000 -2.152418
128.950000 -2.166121
129.000000 -2.179826
129.050000 -2.214084
129.100000 -2.275751
129.150000 -2.313435
129.200000 -2.303157
129.250000 -2.279176
129.300000 -2.241491
129.350000 -2.152418
129.400000 -2.025661
129.450000 -1.898903
129.500000 -1.741312
129.550000 -1.535758
129.600000 -1.309650
129.650000 -1.093818
129.700000 -0.898542
129.750000 -0.761507
129.800000 -0.710118
129.850000 -0.723822
129.900000 -0.785488
129.950000 -0.908820
130.000000 -1.076689
130.050000 -1.258261
130.100000 -1.432981
130.150000 -1.597424
130.200000 -1.751589
130.250000 -1.868069
130.300000 -1.916032
130.350000 -1.912606
130.400000 -1.868070
130.450000 -1.796126
130.500000 -1.703626
130.550000 -1.611128
130.600000 -1.504925
130.650000 -1.378167
130.700000 -1.275390
130.750000 -1.210298
130.800000 -1.152058
130.850000 -1.073263
130.900000 -1.008171
130.950000 -0.980763
131.000000 -0.987615
131.050000 -1.052707
131.100000 -1.148632
131.150000 -1.234280
131.200000 -1.343908
131.250000 -1.498073
131.300000 -1.648812
131.350000 -1.789274
131.400000 -1.946865
131.450000 -2.087326
131.500000 -2.179825
131.550000 -2.248343
131.600000 -2.316861
131.650000 -2.337416
131.700000 -2.303158
131.750000 -2.251769
131.800000 -2.166122
131.850000 -2.049642
131.900000 -1.895477
131.950000 -1.710478
132.000000 -1.511777
132.050000 -1.340482
132.100000 -1.169188
132.150000 -1.011597
132.200000 -0.915672
132.250000 -0.874561
132.300000 -0.877987
132.350000 -0.953357
132.400000 -1.059559
132.450000 -1.162336
132.500000 -1.282243
132.550000 -1.429555
132.600000 -1.552887
132.650000 -1.624831
132.700000 -1.655664
132.750000 -1.604276
132.800000 -1.491222
132.850000 -1.364464
132.900000 -1.200021
132.950000 -1.011597
133.000000 -0.860858
133.050000 -0.764933
133.100000 -0.682712
133.150000 -0.651878
133.200000 -0.703267
133.250000 -0.812895
133.300000 -0.967060
133.350000 -1.176040
133.400000 -1.412426
133.450000 -1.631683
133.500000 -1.833811
133.550000 -2.018808
133.600000 -2.155844
133.650000 -2.217511
133.700000 -2.224362
133.750000 -2.172974
133.800000 -2.056493
133.850000 -1.916032
133.900000 -1.785848
133.950000 -1.641961
134.000000 -1.480944
134.050000 -1.340483
134.100000 -1.234279
134.150000 -1.152058
134.200000 -1.128077
134.250000 -1.182892
134.300000 -1.251409
134.350000 -1.333631
134.400000 -1.463815
134.450000 -1.600850
134.500000 -1.679646
134.550000 -1.734459
134.600000 -1.806403
134.650000 -1.854366
134.700000 -1.840662
134.750000 -1.796125
134.800000 -1.734460
134.850000 -1.662516
134.900000 -1.597424
134.950000 -1.552887
135.000000 -1.518629
135.050000 -1.494647
135.100000 -1.494647
135.150000 -1.522055
135.200000 -1.576869
135.250000 -1.648813
135.300000 -1.707053
135.350000 -1.741312
135.400000 -1.761867
135.450000 -1.768718
135.500000 -1.724182
135.550000 -1.635109
135.600000 -1.525481
135.650000 -1.395296
135.700000 -1.247983
135.750000 -1.121225
135.800000 -1.018448
135.850000 -0.932802
135.900000 -0.864284
135.950000 -0.830025
136.000000 -0.812895
136.050000 -0.833451
136.100000 -0.905394
136.150000 -1.011597
136.200000 -1.114374
136.250000 -1.213724
136.300000 -1.326779
136.350000 -1.426129
136.400000 -1.480944
136.450000 -1.515202
136.500000 -1.525481
136.550000 -1.501499
136.600000 -1.439833
136.650000 -1.357612
136.700000 -1.251410
136.750000 -1.134929
136.800000 -1.004745
136.850000 -0.871135
136.900000 -0.761507
136.950000 -0.699841
137.000000 -0.689563
137.050000 -0.682712
137.100000 -0.696415
137.150000 -0.764933
137.200000 -0.874561
137.250000 -1.004745
137.300000 -1.152058
137.350000 -1.302797
137.400000 -1.450111
137.450000 -1.617979
137.500000 -1.775571
137.550000 -1.878347
137.600000 -1.950290
137.650000 -2.015383
137.700000 -2.022234
137.750000 -1.953716
137.800000 -1.857792
137.850000 -1.724182
137.900000 -1.559739
137.950000 -1.412426
138.000000 -1.316501
138.050000 -1.227428
138.100000 -1.162336
138.150000 -1.176039
138.200000 -1.244557
138.250000 -1.333631
138.300000 -1.460389
138.350000 -1.604276
138.400000 -1.734459
138.450000 -1.837236
138.500000 -1.905754
138.550000 -1.940014
138.600000 -1.940013
138.650000 -1.909180
138.700000 -1.857791
138.750000 -1.820107
138.800000 -1.806404
138.850000 -1.802978
138.900000 -1.799552
138.950000 -1.823532
139.000000 -1.837236
139.050000 -1.816681
139.100000 -1.785848
139.150000 -1.761867
139.200000 -1.713904
139.250000 -1.621405
139.300000 -1.532332
139.350000 -1.474092
139.400000 -1.453537
139.450000 -1.477518
139.500000 -1.539184
139.550000 -1.614554
139.600000 -1.713904
139.650000 -1.847514
139.700000 -1.953717
139.750000 -1.994828
139.800000 -1.987975
139.850000 -1.953716
139.900000 -1.850940
139.950000 -1.703627
140.000000 -1.559739
140.050000 -1.429556
140.100000 -1.306223
140.150000 -1.230854
140.200000 -1.224002
140.250000 -1.268538
140.300000 -1.337056
140.350000 -1.446684
140.400000 -1.576869
140.450000 -1.683071
140.500000 -1.737886
140.550000 -1.758441
140.600000 -1.744737
140.650000 -1.669368
140.700000 -1.532333
140.750000 -1.385019
140.800000 -1.230854
140.850000 -1.080115
140.900000 -0.960209
140.950000 -0.888265
141.000000 -0.867709
141.050000 -0.891690
141.100000 -0.953357
141.150000 -1.056133
141.200000 -1.186318
141.250000 -1.330205
141.300000 -1.470666
141.350000 -1.593998
141.400000 -1.696775
141.450000 -1.785848
141.500000 -1.864643
141.550000 -1.912606
141.600000 -1.936587
141.650000 -1.963994
141.700000 -1.987976
141.750000 -1.977698
141.800000 -1.957143
141.850000 -1.970846
141.900000 -1.994828
141.950000 -1.991401
142.000000 -2.011957
142.050000 -2.049641
142.100000 -2.059919
142.150000 -2.042790
142.200000 -2.029087
142.250000 -1.984549
142.300000 -1.905754
142.350000 -1.806404
142.400000 -1.713904
142.450000 -1.607702
142.500000 -1.504925
142.550000 -1.443259
142.600000 -1.398723
142.650000 -1.350760
142.700000 -1.299372
142.750000 -1.302798
142.800000 -1.354186
142.850000 -1.422704
142.900000 -1.504925
142.950000 -1.597424
143.000000 -1.665941
143.050000 -1.717331
143.100000 -1.761867
143.150000 -1.792700
143.200000 -1.775571
143.250000 -1.727607
143.300000 -1.676220
143.350000 -1.638535
143.400000 -1.611128
143.450000 -1.621405
143.500000 -1.635109
143.550000 -1.648812
143.600000 -1.700201
143.650000 -1.792700
143.700000 -1.868069
143.750000 -1.916032
143.800000 -1.977698
143.850000 -2.025660
143.900000 -2.018809
143.950000 -1.967420
144.000000 -1.885199
144.050000 -1.755015
144.100000 -1.597424
144.150000 -1.432981
144.200000 -1.275391
144.250000 -1.152058
144.300000 -1.093818
144.350000 -1.069837
144.400000 -1.080115
144.450000 -1.148633
144.500000 -1.247983
144.550000 -1.323353
144.600000 -1.364464
144.650000 -1.381593
144.700000 -1.361037
144.750000 -1.299372
144.800000 -1.213725
144.850000 -1.114373
144.900000 -1.008171
144.950000 -0.932802
145.000000 -0.912246
145.050000 -0.967061
145.100000 -1.093819
145.150000 -1.261687
145.200000 -1.474092
145.250000 -1.737885
145.300000 -2.015382
145.350000 -2.258621
145.400000 -2.464175
145.450000 -2.604636
145.500000 -2.638894
145.550000 -2.597784
145.600000 -2.515563
145.650000 -2.371675
145.700000 -2.183252
145.750000 -2.018808
145.800000 -1.878347
145.850000 -1.734460
145.900000 -1.614554
145.950000 -1.573442
146.000000 -1.559739
146.050000 -1.539184
146.100000 -1.539184
146.150000 -1.583721
146.200000 -1.635109
146.250000 -1.655664
146.300000 -1.676220
146.350000 -1.734459
146.400000 -1.802978
146.450000 -1.847514
146.500000 -1.868070
146.550000 -1.868070
146.600000 -1.857792
146.650000 -1.847514
146.700000 -1.813255
146.750000 -1.758441
146.800000 -1.727608
146.850000 -1.710478
146.900000 -1.669367
146.950000 -1.614554
147.000000 -1.576869
147.050000 -1.522054
147.100000 -1.450111
147.150000 -1.412426
147.200000 -1.402148
147.250000 -1.374741
147.300000 -1.337056
147.350000 -1.295945
147.400000 -1.254835
147.450000 -1.206873
147.500000 -1.169188
147.550000 -1.138354
147.600000 -1.121225
147.650000 -1.128077
147.700000 -1.138355
147.750000 -1.155484
147.800000 -1.217150
147.850000 -1.316501
147.900000 -1.405575
147.950000 -1.474092
148.000000 -1.576868
148.050000 -1.693349
148.100000 -1.782422
148.150000 -1.850940
148.200000 -1.902328
148.250000 -1.922883
148.300000 -1.905754
148.350000 -1.868070
148.400000 -1.816681
148.450000 -1.737885
148.500000 -1.628257
148.550000 -1.498073
148.600000 -1.388445
148.650000 -1.316501
148.700000 -1.247983
148.750000 -1.179466
148.800000 -1.155484
148.850000 -1.158910
148.900000 -1.172614
148.950000 -1.210299
149.000000 -1.268539
149.050000 -1.319927
149.100000 -1.357612
149.150000 -1.402148
149.200000 -1.429556
149.250000 -1.429555
149.300000 -1.412426
149.350000 -1.395297
149.400000 -1.398722
149.450000 -1.419277
149.500000 -1.453537
149.550000 -1.487796
149.600000 -1.549462
149.650000 -1.631683
149.700000 -1.696775
149.750000 -1.741312
149.800000 -1.785848
149.850000 -1.816681
149.900000 -1.802977
149.950000 -1.741312
150.000000 -1.621405
150.050000 -1.470666
150.100000 -1.316501
150.150000 -1.138354
150.200000 -0.953357
150.250000 -0.802618
150.300000 -0.706693
150.350000 -0.645027
150.400000 -0.624472
150.450000 -0.645027
150.500000 -0.689563
150.550000 -0.754655
150.600000 -0.850580
150.650000 -0.946505
150.700000 -1.045856
150.750000 -1.155484
150.800000 -1.254835
150.850000 -1.340482
150.900000 -1.405575
150.950000 -1.460388
151.000000 -1.525481
151.050000 -1.600850
151.100000 -1.659090
151.150000 -1.710478
151.200000 -1.789274
151.250000 -1.861218
151.300000 -1.888625
151.350000 -1.905754
151.400000 -1.946864
151.450000 -1.974272
151.500000 -1.957142
151.550000 -1.943439
151.600000 -1.936587
151.650000 -1.912606
151.700000 -1.874921
151.750000 -1.854365
151.800000 -1.830384
151.850000 -1.785848
151.900000 -1.727607
151.950000 -1.655664
152.000000 -1.576869
152.050000 -1.511777
152.100000 -1.436407
152.150000 -1.340483
152.200000 -1.265113
152.250000 -1.241131
152.300000 -1.234280
152.350000 -1.230853
152.400000 -1.258261
152.450000 -1.309650
152.500000 -1.357612
152.550000 -1.391871
152.600000 -1.405574
152.650000 -1.405575
152.700000 -1.388445
152.750000 -1.340483
152.800000 -1.289094
152.850000 -1.244558
152.900000 -1.189743
152.950000 -1.138355
153.000000 -1.121225
153.050000 -1.124652
153.100000 -1.134929
153.150000 -1.193169
153.200000 -1.289094
153.250000 -1.340482
153.300000 -1.354185
153.350000 -1.381593
153.400000 -1.395296
153.450000 -1.333631
153.500000 -1.247983
153.550000 -1.172614
153.600000 -1.076689
153.650000 -0.960209
153.700000 -0.881413
153.750000 -0.847154
153.800000 -0.843728
153.850000 -0.888265
153.900000 -0.967060
153.950000 -1.056133
154.000000 -1.162336
154.050000 -1.302798
154.100000 -1.415852
154.150000 -1.491221
154.200000 -1.532332
154.250000 -1.542610
154.300000 -1.515203
154.350000 -1.453536
154.400000 -1.367889
154.450000 -1.275390
154.500000 -1.189743
154.550000 -1.128077
154.600000 -1.080114
154.650000 -1.049282
154.700000 -1.062985
154.750000 -1.114373
154.800000 -1.172613
154.850000 -1.234280
154.900000 -1.333630
154.950000 -1.432981
155.000000 -1.494648
155.050000 -1.559739
155.100000 -1.631683
155.150000 -1.652238
155.200000 -1.621405
155.250000 -1.580295
155.300000 -1.511777
155.350000 -1.395297
155.400000 -1.261686
155.450000 -1.128077
155.500000 -0.953357
155.550000 -0.785489
155.600000 -0.682712
155.650000 -0.624471
155.700000 -0.579935
155.750000 -0.576509
155.800000 -0.631323
155.850000 -0.716971
155.900000 -0.833451
155.950000 -0.997893
156.000000 -1.176040
156.050000 -1.337057
156.100000 -1.498074
156.150000 -1.645386
156.200000 -1.778996
156.250000 -1.885199
156.300000 -1.940013
156.350000 -1.919458
156.400000 -1.868070
156.450000 -1.840662
156.500000 -1.799551
156.550000 -1.724182
156.600000 -1.645386
156.650000 -1.576869
156.700000 -1.491222
156.750000 -1.409000
156.800000 -1.367890
156.850000 -1.343908
156.900000 -1.323353
156.950000 -1.309649
157.000000 -1.316501
157.050000 -1.337056
157.100000 -1.388445
157.150000 -1.460389
157.200000 -1.525481
157.250000 -1.600850
157.300000 -1.693349
157.350000 -1.799552
157.400000 -1.892051
157.450000 -1.963994
157.500000 -2.018809
157.550000 -2.056494
157.600000 -2.114734
157.650000 -2.186677
157.700000 -2.227788
157.750000 -2.262047
157.800000 -2.323713
157.850000 -2.388804
157.900000 -2.450470
157.950000 -2.529266
158.000000 -2.604636
158.050000 -2.625191
158.100000 -2.618339
158.150000 -2.625191
158.200000 -2.577229
158.250000 -2.443619
158.300000 -2.265473
158.350000 -2.083900
158.400000 -1.881773
158.450000 -1.679646
158.500000 -1.515202
158.550000 -1.402148
158.600000 -1.340483
158.650000 -1.364463
158.700000 -1.450111
158.750000 -1.566591
158.800000 -1.689923
158.850000 -1.813255
158.900000 -1.916032
158.950000 -1.991401
159.000000 -2.022234
159.050000 -1.984549
159.100000 -1.878347
159.150000 -1.727608
159.200000 -1.539184
159.250000 -1.319927
159.300000 -1.114374
159.350000 -0.939653
159.400000 -0.788914
159.450000 -0.689564
159.500000 -0.665582
159.550000 -0.682711
159.600000 -0.740951
159.650000 -0.850580
159.700000 -0.980764
159.750000 -1.097244
159.800000 -1.227428
159.850000 -1.361038
159.900000 -1.443259
159.950000 -1.470666
160.000000 -1.494647
160.050000 -1.508351
160.100000 -1.480944
160.150000 -1.415852
160.200000 -1.330205
160.250000 -1.244557
160.300000 -1.158910
160.350000 -1.090393
160.400000 -1.062986
160.450000 -1.083541
160.500000 -1.131503
160.550000 -1.203447
160.600000 -1.309649
160.650000 -1.419277
160.700000 -1.494647
160.750000 -1.556313
160.800000 -1.587146
160.850000 -1.556314
160.900000 -1.470666
160.950000 -1.361038
161.000000 -1.220576
161.050000 -1.062985
161.100000 -0.925949
161.150000 -0.843728
161.200000 -0.819747
161.250000 -0.881413
161.300000 -1.018448
161.350000 -1.210299
161.400000 -1.443259
161.450000 -1.689923
161.500000 -1.926310
161.550000 -2.135289
161.600000 -2.292880
161.650000 -2.371675
161.700000 -2.385379
161.750000 -2.364823
161.800000 -2.268898
161.850000 -2.101030
161.900000 -1.902328
161.950000 -1.693349
162.000000 -1.480944
162.050000 -1.292520
162.100000 -1.141780
162.150000 -1.004745
162.200000 -0.905394
162.250000 -0.891691
162.300000 -0.939654
162.350000 -1.018449
162.400000 -1.155484
162.450000 -1.357612
162.500000 -1.580295
162.550000 -1.782422
162.600000 -1.957143
162.650000 -2.087327
162.700000 -2.166121
162.750000 -2.193529
162.800000 -2.138714
162.850000 -1.991402
162.900000 -1.775570
162.950000 -1.539184
163.000000 -1.292520
163.050000 -1.039004
163.100000 -0.826599
163.150000 -0.689563
163.200000 -0.614194
163.250000 -0.593639
163.300000 -0.634750
163.350000 -0.761507
163.400000 -0.943079
163.450000 -1.124651
163.500000 -1.299372
163.550000 -1.467240
163.600000 -1.590573
163.650000 -1.648813
163.700000 -1.672794
163.750000 -1.669367
163.800000 -1.617980
163.850000 -1.542610
163.900000 -1.460388
163.950000 -1.354186
164.000000 -1.241131
164.050000 -1.155484
164.100000 -1.097244
164.150000 -1.056133
164.200000 -1.049282
164.250000 -1.076688
164.300000 -1.141781
164.350000 -1.247984
164.400000 -1.347334
164.450000 -1.429555
164.500000 -1.522054
164.550000 -1.617980
164.600000 -1.672794
164.650000 -1.679645
164.700000 -1.669368
164.750000 -1.648813
164.800000 -1.600850
164.850000 -1.518629
164.900000 -1.450111
164.950000 -1.422704
165.000000 -1.395297
165.050000 -1.361038
165.100000 -1.378167
165.150000 -1.450111
165.200000 -1.528906
165.250000 -1.631682
165.300000 -1.768718
165.350000 -1.888625
165.400000 -1.984550
165.450000 -2.070197
165.500000 -2.114733
165.550000 -2.083900
165.600000 -2.029087
165.650000 -1.984550
165.700000 -1.912606
165.750000 -1.826958
165.800000 -1.768718
165.850000 -1.731033
165.900000 -1.703627
165.950000 -1.720756
166.000000 -1.775570
166.050000 -1.840662
166.100000 -1.919458
166.150000 -2.018809
166.200000 -2.090753
166.250000 -2.125012
166.300000 -2.142140
166.350000 -2.159271
166.400000 -2.179826
166.450000 -2.179826
166.500000 -2.159270
166.550000 -2.138715
166.600000 -2.128437
166.650000 -2.118159
166.700000 -2.094178
166.750000 -2.063345
166.800000 -2.025661
166.850000 -1.974272
166.900000 -1.916032
166.950000 -1.854366
167.000000 -1.765292
167.050000 -1.638535
167.100000 -1.494647
167.150000 -1.343908
167.200000 -1.182891
167.250000 -1.032152
167.300000 -0.929375
167.350000 -0.871135
167.400000 -0.843729
167.450000 -0.874561
167.500000 -0.973912
167.550000 -1.104096
167.600000 -1.251409
167.650000 -1.415852
167.700000 -1.552887
167.750000 -1.624831
167.800000 -1.676220
167.850000 -1.707053
167.900000 -1.655665
167.950000 -1.525480
168.000000 -1.381593
168.050000 -1.234279
168.100000 -1.073262
168.150000 -0.915672
168.200000 -0.809469
168.250000 -0.771785
168.300000 -0.764933
168.350000 -0.775211
168.400000 -0.840302
168.450000 -0.956783
168.500000 -1.066411
168.550000 -1.138354
168.600000 -1.224002
168.650000 -1.319927
168.700000 -1.357612
168.750000 -1.326779
168.800000 -1.268538
168.850000 -1.196595
168.900000 -1.134928
168.950000 -1.069837
169.000000 -1.001319
169.050000 -0.946505
169.100000 -0.956782
169.150000 -0.997893
169.200000 -0.997893
169.250000 -0.980764
169.300000 -1.015022
169.350000 -1.059559
169.400000 -1.076689
169.450000 -1.093818
169.500000 -1.124651
169.550000 -1.121225
169.600000 -1.093819
169.650000 -1.107522
169.700000 -1.145207
169.750000 -1.189744
169.800000 -1.268538
169.850000 -1.395297
169.900000 -1.528906
169.950000 -1.679645
170.000000 -1.868069
170.050000 -2.042790
170.100000 -2.135289
170.150000 -2.148993
170.200000 -2.107881
170.250000 -2.015382
170.300000 -1.847515
170.350000 -1.635108
170.400000 -1.395296
170.450000 -1.162336
170.500000 -0.953357
170.550000 -0.792340
170.600000 -0.686138
170.650000 -0.655305
170.700000 -0.734100
170.750000 -0.912246
170.800000 -1.158910
170.850000 -1.405574
170.900000 -1.648813
170.950000 -1.881773
171.000000 -2.053068
171.050000 -2.111307
171.100000 -2.070196
171.150000 -1.960568
171.200000 -1.782422
171.250000 -1.559739
171.300000 -1.326779
171.350000 -1.090392
171.400000 -0.888265
171.450000 -0.768359
171.500000 -0.703267
171.550000 -0.686137
171.600000 -0.744377
171.650000 -0.847154
171.700000 -0.949930
171.750000 -1.056134
171.800000 -1.176039
171.850000 -1.271965
171.900000 -1.330205
171.950000 -1.361037
172.000000 -1.364463
172.050000 -1.343908
172.100000 -1.340483
172.150000 -1.357612
172.200000 -1.361038
172.250000 -1.323353
172.300000 -1.278816
172.350000 -1.268539
172.400000 -1.254835
172.450000 -1.220576
172.500000 -1.196595
172.550000 -1.189743
172.600000 -1.158910
172.650000 -1.134929
172.700000 -1.193169
172.750000 -1.289093
172.800000 -1.367890
172.850000 -1.460388
172.900000 -1.614554
172.950000 -1.768719
173.000000 -1.892050
173.050000 -2.005105
173.100000 -2.090752
173.150000 -2.121586
173.200000 -2.135289
173.250000 -2.135289
173.300000 -2.077048
173.350000 -1.994827
173.400000 -1.933161
173.450000 -1.847514
173.500000 -1.710479
173.550000 -1.573443
173.600000 -1.467240
173.650000 -1.374742
173.700000 -1.278816
173.750000 -1.186317
173.800000 -1.114374
173.850000 -1.083540
173.900000 -1.062985
173.950000 -1.049282
174.000000 -1.097244
174.050000 -1.200020
174.100000 -1.295946
174.150000 -1.385019
174.200000 -1.518629
174.250000 -1.662516
174.300000 -1.744737
174.350000 -1.802977
174.400000 -1.874921
174.450000 -1.912606
174.500000 -1.912606
174.550000 -1.912606
174.600000 -1.898903
174.650000 -1.881773
174.700000 -1.874921
174.750000 -1.881773
174.800000 -1.868070
174.850000 -1.854366
174.900000 -1.850940
174.950000 -1.823533
175.000000 -1.775571
175.050000 -1.737886
175.100000 -1.696775
175.150000 -1.638535
175.200000 -1.590572
175.250000 -1.552888
175.300000 -1.511777
175.350000 -1.491222
175.400000 -1.504925
175.450000 -1.549461
175.500000 -1.611128
175.550000 -1.683071
175.600000 -1.744737
175.650000 -1.799551
175.700000 -1.840662
175.750000 -1.878348
175.800000 -1.905754
175.850000 -1.916032
175.900000 -1.888624
175.950000 -1.826959
176.000000 -1.775570
176.050000 -1.758441
176.100000 -1.751590
176.150000 -1.741312
176.200000 -1.744737
176.250000 -1.782422
176.300000 -1.837236
176.350000 -1.892050
176.400000 -1.946865
176.450000 -2.008531
176.500000 -2.066771
176.550000 -2.094178
176.600000 -2.070197
176.650000 -2.008531
176.700000 -1.902328
176.750000 -1.748163
176.800000 -1.583720
176.850000 -1.436407
176.900000 -1.271964
176.950000 -1.093818
177.000000 -0.970486
177.050000 -0.908820
177.100000 -0.884839
177.150000 -0.919097
177.200000 -1.028727
177.250000 -1.189743
177.300000 -1.391871
177.350000 -1.624831
177.400000 -1.871495
177.450000 -2.090752
177.500000 -2.306583
177.550000 -2.498433
177.600000 -2.618339
177.650000 -2.662876
177.700000 -2.659450
177.750000 -2.628617
177.800000 -2.556673
177.850000 -2.457323
177.900000 -2.330565
177.950000 -2.190103
178.000000 -2.073623
178.050000 -1.967420
178.100000 -1.868070
178.150000 -1.789274
178.200000 -1.734460
178.250000 -1.717330
178.300000 -1.737885
178.350000 -1.758441
178.400000 -1.765293
178.450000 -1.789274
178.500000 -1.789274
178.550000 -1.748164
178.600000 -1.720756
178.650000 -1.713905
178.700000 -1.655664
178.750000 -1.570017
178.800000 -1.522054
178.850000 -1.487796
178.900000 -1.443259
178.950000 -1.409000
179.000000 -1.391871
179.050000 -1.378167
179.100000 -1.409000
179.150000 -1.480944
179.200000 -1.552887
179.250000 -1.621405
179.300000 -1.696775
179.350000 -1.741311
179.400000 -1.744737
179.450000 -1.755015
179.500000 -1.748163
179.550000 -1.686497
179.600000 -1.607702
179.650000 -1.542610
179.700000 -1.460388
179.750000 -1.337057
179.800000 -1.217150
179.850000 -1.148632
179.900000 -1.121225
179.950000 -1.128077
180.000000 -1.172613
180.050000 -1.251410
180.100000 -1.350760
180.150000 -1.477518
180.200000 -1.635109
180.250000 -1.799552
180.300000 -1.946865
180.350000 -2.063345
180.400000 -2.148992
180.450000 -2.207233
180.500000 -2.231214
180.550000 -2.220936
180.600000 -2.166122
180.650000 -2.083901
180.700000 -1.991401
180.750000 -1.878347
180.800000 -1.765293
180.850000 -1.669367
180.900000 -1.566591
180.950000 -1.463814
181.000000 -1.385019
181.050000 -1.330204
181.100000 -1.302798
181.150000 -1.319927
181.200000 -1.395297
181.250000 -1.470666
181.300000 -1.515203
181.350000 -1.566591
181.400000 -1.645387
181.450000 -1.696775
181.500000 -1.683071
181.550000 -1.648813
181.600000 -1.641961
181.650000 -1.638534
181.700000 -1.624831
181.750000 -1.604276
181.800000 -1.590573
181.850000 -1.597424
181.900000 -1.631683
181.950000 -1.669367
182.000000 -1.724182
182.050000 -1.785848
182.100000 -1.792700
182.150000 -1.727608
182.200000 -1.659090
182.250000 -1.583720
182.300000 -1.446685
182.350000 -1.302798
182.400000 -1.217150
182.450000 -1.155484
182.500000 -1.107521
182.550000 -1.117799
182.600000 -1.189744
182.650000 -1.251409
182.700000 -1.319927
182.750000 -1.429555
182.800000 -1.525480
182.850000 -1.566591
182.900000 -1.583720
182.950000 -1.580295
183.000000 -1.535758
183.050000 -1.453536
183.100000 -1.374741
183.150000 -1.292520
183.200000 -1.210298
183.250000 -1.128078
183.300000 -1.049282
183.350000 -0.994467
183.400000 -0.973912
183.450000 -0.956783
183.500000 -0.919098
183.550000 -0.901968
183.600000 -0.915672
183.650000 -0.922523
183.700000 -0.912246
183.750000 -0.922523
183.800000 -0.946505
183.850000 -0.956783
183.900000 -0.973912
183.950000 -1.021874
184.000000 -1.090393
184.050000 -1.158910
184.100000 -1.237706
184.150000 -1.326779
184.200000 -1.405574
184.250000 -1.470667
184.300000 -1.528906
184.350000 -1.593998
184.400000 -1.641960
184.450000 -1.655665
184.500000 -1.662516
184.550000 -1.696775
184.600000 -1.741311
184.650000 -1.761867
184.700000 -1.796125
184.750000 -1.864644
184.800000 -1.926310
184.850000 -1.981124
184.900000 -2.066771
184.950000 -2.155844
185.000000 -2.210658
185.050000 -2.241491
185.100000 -2.248344
185.150000 -2.200381
185.200000 -2.142141
185.250000 -2.097604
185.300000 -2.053067
185.350000 -1.994827
185.400000 -1.953716
185.450000 -1.953717
185.500000 -1.998253
185.550000 -2.056494
185.600000 -2.097604
185.650000 -2.155845
185.700000 -2.227788
185.750000 -2.255195
185.800000 -2.241492
185.850000 -2.217510
185.900000 -2.148993
185.950000 -1.984550
186.000000 -1.792700
186.050000 -1.604276
186.100000 -1.398722
186.150000 -1.200021
186.200000 -1.073262
186.250000 -1.025301
186.300000 -1.025300
186.350000 -1.090392
186.400000 -1.224002
186.450000 -1.398723
186.500000 -1.576869
186.550000 -1.744737
186.600000 -1.874921
186.650000 -1.960569
186.700000 -1.998254
186.750000 -1.977698
186.800000 -1.881773
186.850000 -1.741312
186.900000 -1.590572
186.950000 -1.453537
187.000000 -1.347334
187.050000 -1.268539
187.100000 -1.213725
187.150000 -1.206873
187.200000 -1.251410
187.250000 -1.316501
187.300000 -1.391871
187.350000 -1.484370
187.400000 -1.580295
187.450000 -1.638534
187.500000 -1.659090
187.550000 -1.662516
187.600000 -1.648812
187.650000 -1.641960
187.700000 -1.645386
187.750000 -1.662516
187.800000 -1.689923
187.850000 -1.727607
187.900000 -1.775570
187.950000 -1.813255
188.000000 -1.857792
188.050000 -1.898902
188.100000 -1.916031
188.150000 -1.919457
188.200000 -1.929736
188.250000 -1.933162
188.300000 -1.922884
188.350000 -1.922884
188.400000 -1.919458
188.450000 -1.878348
188.500000 -1.826959
188.550000 -1.806404
188.600000 -1.796126
188.650000 -1.768718
188.700000 -1.737886
188.750000 -1.717330
188.800000 -1.689923
188.850000 -1.638535
