time[ns] Raw_signal[mV]
-11.100000 -0.003906
-11.050000 -0.038165
-11.000000 -0.079275
-10.950000 -0.134090
-10.900000 -0.212886
-10.850000 -0.291680
-10.800000 -0.349921
-10.750000 -0.401309
-10.700000 -0.432142
-10.650000 -0.421865
-10.600000 -0.377328
-10.550000 -0.288254
-10.500000 -0.147793
-10.450000 0.002946
-10.400000 0.139982
-10.350000 0.287294
-10.300000 0.420905
-10.250000 0.506552
-10.200000 0.551089
-10.150000 0.561367
-10.100000 0.520255
-10.050000 0.431182
-10.000000 0.314702
-9.950000 0.174241
-9.900000 0.040630
-9.850000 -0.065572
-9.800000 -0.161497
-9.750000 -0.267699
-9.700000 -0.332792
-9.650000 -0.339644
-9.600000 -0.315662
-9.550000 -0.271126
-9.500000 -0.206033
-9.450000 -0.130664
-9.400000 -0.062146
-9.350000 0.009798
-9.300000 0.071463
-9.250000 0.102297
-9.200000 0.109148
-9.150000 0.105723
-9.100000 0.071464
-9.050000 0.026927
-9.000000 0.016649
-8.950000 0.016649
-8.900000 0.026927
-8.850000 0.071464
-8.800000 0.139981
-8.750000 0.174240
-8.700000 0.201647
-8.650000 0.235906
-8.600000 0.232480
-8.550000 0.194795
-8.500000 0.174241
-8.450000 0.136556
-8.400000 0.050908
-8.350000 -0.041591
-8.300000 -0.113534
-8.250000 -0.178627
-8.200000 -0.209459
-8.150000 -0.199181
-8.100000 -0.161497
-8.050000 -0.092979
-8.000000 0.023502
-7.950000 0.143408
-7.900000 0.263314
-7.850000 0.379794
-7.800000 0.458589
-7.750000 0.509978
-7.700000 0.551088
-7.650000 0.557940
-7.600000 0.489422
-7.550000 0.410627
-7.500000 0.359238
-7.450000 0.294147
-7.400000 0.208499
-7.350000 0.170814
-7.300000 0.160537
-7.250000 0.143408
-7.200000 0.139982
-7.150000 0.177666
-7.100000 0.232481
-7.050000 0.266739
-7.000000 0.273592
-6.950000 0.270166
-6.900000 0.273591
-6.850000 0.259887
-6.800000 0.205073
-6.750000 0.157111
-6.700000 0.153685
-6.650000 0.146833
-6.600000 0.133129
-6.550000 0.150259
-6.500000 0.150259
-6.450000 0.112574
-6.400000 0.071464
-6.350000 0.037204
-6.300000 -0.038165
-6.250000 -0.137515
-6.200000 -0.230014
-6.150000 -0.336217
-6.100000 -0.432142
-6.050000 -0.469827
-6.000000 -0.497234
-5.950000 -0.534919
-5.900000 -0.507512
-5.850000 -0.401309
-5.800000 -0.298532
-5.750000 -0.195756
-5.700000 -0.086127
-5.650000 -0.017609
-5.600000 0.016650
-5.550000 0.071464
-5.500000 0.092019
-5.450000 0.071464
-5.400000 0.054334
-5.350000 0.037205
-5.300000 -0.021035
-5.250000 -0.068998
-5.200000 -0.075849
-5.150000 -0.089554
-5.100000 -0.116961
-5.050000 -0.096404
-5.000000 -0.045016
-4.950000 -0.027887
-4.900000 -0.007332
-4.850000 0.030353
-4.800000 0.057760
-4.750000 0.085167
-4.700000 0.136556
-4.650000 0.205073
-4.600000 0.263313
-4.550000 0.300999
-4.500000 0.328405
-4.450000 0.338684
-4.400000 0.321554
-4.350000 0.259888
-4.300000 0.184518
-4.250000 0.112575
-4.200000 0.009798
-4.150000 -0.110108
-4.100000 -0.199182
-4.050000 -0.250570
-4.000000 -0.274551
-3.950000 -0.236866
-3.900000 -0.120386
-3.850000 0.047483
-3.800000 0.232481
-3.750000 0.431182
-3.700000 0.623032
-3.650000 0.790901
-3.600000 0.924510
-3.550000 0.999880
-3.500000 1.013583
-3.450000 0.962195
-3.400000 0.859418
-3.350000 0.732661
-3.300000 0.609329
-3.250000 0.407201
-3.200000 0.133130
-3.150000 -0.024461
-3.100000 -0.000480
-3.050000 -0.038165
-3.000000 -0.168348
-2.950000 -0.116960
-2.900000 0.061186
-2.850000 0.092019
-2.800000 0.050909
-2.750000 0.112574
-2.700000 0.133130
-2.650000 0.136555
-2.600000 0.324980
-2.550000 0.485997
-2.500000 0.420904
-2.450000 0.407201
-2.400000 0.571644
-2.350000 0.561366
-2.300000 0.403775
-2.250000 0.434608
-2.200000 0.472293
-2.150000 0.270165
-2.100000 0.170814
-2.050000 0.314702
-2.000000 0.304424
-1.950000 0.061186
-1.900000 -0.051869
-1.850000 0.016649
-1.800000 0.119426
-1.750000 0.263314
-1.700000 0.383219
-1.650000 0.369517
-1.600000 0.441459
-1.550000 0.647014
-1.500000 0.698401
-1.450000 0.626458
-1.400000 0.739513
-1.350000 0.907381
-1.300000 0.855993
-1.250000 0.729234
-1.200000 0.616181
-1.150000 0.400349
-1.100000 0.242758
-1.050000 0.283869
-1.000000 0.174240
-0.950000 -0.164923
-0.900000 -0.260847
-0.850000 -0.086127
-0.800000 -0.075850
-0.750000 -0.127238
-0.700000 0.037204
-0.650000 0.181092
-0.600000 0.143408
-0.550000 0.187944
-0.500000 0.335257
-0.450000 0.352387
-0.400000 0.318128
-0.350000 0.386646
-0.300000 0.441459
-0.250000 0.417478
-0.200000 0.414053
-0.150000 0.424330
-0.100000 0.393497
-0.050000 0.362664
0.000000 0.345535
0.050000 0.335257
0.100000 0.342109
0.150000 0.300998
0.200000 0.187944
0.250000 0.181092
0.300000 0.300998
0.350000 0.324980
0.400000 0.249610
0.450000 0.324980
0.500000 0.523681
0.550000 0.633310
0.600000 0.684698
0.650000 0.790901
0.700000 0.866270
0.750000 0.835437
0.800000 0.838863
0.850000 0.948492
0.900000 1.099231
0.950000 1.301359
1.000000 1.640522
1.050000 2.171534
1.100000 2.914953
1.150000 3.963275
1.200000 5.357612
1.250000 7.080835
1.300000 9.119239
1.350000 11.503663
1.400000 14.179276
1.450000 16.978229
1.500000 19.777183
1.550000 22.610398
1.600000 25.477866
1.650000 28.249406
1.700000 30.811975
1.750000 33.196393
1.800000 35.399246
1.850000 37.338299
1.900000 39.003274
1.950000 40.496974
2.000000 41.839914
2.050000 42.932774
2.100000 43.754994
2.150000 44.364794
2.200000 44.762194
2.250000 44.882104
2.300000 44.676554
2.350000 44.155814
2.400000 43.330184
2.450000 42.196214
2.500000 40.781314
2.550000 39.109484
2.600000 37.228674
2.650000 35.145734
2.700000 32.884644
2.750000 30.555034
2.800000 28.239134
2.850000 25.902674
2.900000 23.583346
2.950000 21.445591
3.000000 19.527094
3.050000 17.749057
3.100000 16.186850
3.150000 14.960382
3.200000 13.990855
3.250000 13.230308
3.300000 12.812349
3.350000 12.719850
3.400000 12.781516
3.450000 12.973365
3.500000 13.401601
3.550000 13.984001
3.600000 14.610945
3.650000 15.282418
3.700000 15.984718
3.750000 16.656194
3.800000 17.286566
3.850000 17.872388
3.900000 18.317753
3.950000 18.584977
4.000000 18.711733
4.050000 18.725436
4.100000 18.591829
4.150000 18.269793
4.200000 17.766190
4.250000 17.135822
4.300000 16.395830
4.350000 15.511951
4.400000 14.501313
4.450000 13.483823
4.500000 12.517722
4.550000 11.537918
4.600000 10.547835
4.650000 9.667382
4.700000 8.920538
4.750000 8.235360
4.800000 7.611849
4.850000 7.121946
4.900000 6.765653
4.950000 6.498434
5.000000 6.299732
5.050000 6.166122
5.100000 6.083901
5.150000 6.070197
5.200000 6.097605
5.250000 6.155845
5.300000 6.258621
5.350000 6.416212
5.400000 6.618340
5.450000 6.844449
5.500000 7.101390
5.550000 7.372035
5.600000 7.639255
5.650000 7.913327
5.700000 8.197676
5.750000 8.447765
5.800000 8.608782
5.850000 8.673874
5.900000 8.673875
5.950000 8.591653
6.000000 8.392951
6.050000 8.105177
6.100000 7.752310
6.150000 7.310370
6.200000 6.803338
6.250000 6.306584
6.300000 5.820108
6.350000 5.343909
6.400000 4.932802
6.450000 4.590213
6.500000 4.264753
6.550000 3.963274
6.600000 3.740592
6.650000 3.552168
6.700000 3.329485
6.750000 3.103377
6.800000 2.921804
6.850000 2.795047
6.900000 2.678566
6.950000 2.558660
7.000000 2.473013
7.050000 2.459309
7.100000 2.510697
7.150000 2.579215
7.200000 2.712825
7.250000 2.908101
7.300000 3.123931
7.350000 3.350040
7.400000 3.603557
7.450000 3.829665
7.500000 3.983831
7.550000 4.083181
7.600000 4.144847
7.650000 4.124291
7.700000 4.004385
7.750000 3.812535
7.800000 3.572724
7.850000 3.284948
7.900000 2.986897
7.950000 2.695696
8.000000 2.411347
8.050000 2.161257
8.100000 1.969407
8.150000 1.825519
8.200000 1.722743
8.250000 1.654224
8.300000 1.613115
8.350000 1.589133
8.400000 1.551448
8.450000 1.482930
8.500000 1.387005
8.550000 1.273951
8.600000 1.133490
8.650000 0.969047
8.700000 0.828585
8.750000 0.725808
8.800000 0.629884
8.850000 0.544237
8.900000 0.503126
8.950000 0.516829
9.000000 0.554514
9.050000 0.605903
9.100000 0.691549
9.150000 0.770346
9.200000 0.842289
9.250000 0.900529
9.300000 0.945066
9.350000 0.975899
9.400000 0.993028
9.450000 0.999880
9.500000 0.993028
9.550000 0.999880
9.600000 1.017009
9.650000 1.037565
9.700000 1.075250
9.750000 1.099231
9.800000 1.085528
9.850000 1.071823
9.900000 1.075250
9.950000 1.068398
10.000000 1.020436
10.050000 0.955343
10.100000 0.900529
10.150000 0.825159
10.200000 0.746364
10.250000 0.694976
10.300000 0.674420
10.350000 0.636736
10.400000 0.588773
10.450000 0.571644
10.500000 0.588773
10.550000 0.595625
10.600000 0.557940
10.650000 0.513403
10.700000 0.482571
10.750000 0.427756
10.800000 0.348961
10.850000 0.280443
10.900000 0.225629
10.950000 0.157111
11.000000 0.098871
11.050000 0.081741
11.100000 0.081742
11.150000 0.068038
11.200000 0.071463
11.250000 0.122852
11.300000 0.205073
11.350000 0.287294
11.400000 0.355813
11.450000 0.410627
11.500000 0.438034
11.550000 0.424330
11.600000 0.376368
11.650000 0.321554
11.700000 0.259888
11.750000 0.170814
11.800000 0.068038
11.850000 0.002946
11.900000 -0.021035
11.950000 -0.082701
12.000000 -0.158071
12.050000 -0.168348
12.100000 -0.134089
12.150000 -0.130664
12.200000 -0.130664
12.250000 -0.103257
12.300000 -0.079275
12.350000 -0.079276
12.400000 -0.089553
12.450000 -0.147793
12.500000 -0.250570
12.550000 -0.336217
12.600000 -0.401310
12.650000 -0.466401
12.700000 -0.517789
12.750000 -0.548622
12.800000 -0.555474
12.850000 -0.497234
12.900000 -0.404735
12.950000 -0.325940
13.000000 -0.230015
13.050000 -0.092979
13.100000 0.006372
13.150000 0.044057
13.200000 0.081741
13.250000 0.078315
13.300000 0.006372
13.350000 -0.089554
13.400000 -0.171775
13.450000 -0.264274
13.500000 -0.346495
13.550000 -0.391032
13.600000 -0.425291
13.650000 -0.438994
13.700000 -0.394457
13.750000 -0.325939
13.800000 -0.271125
13.850000 -0.199181
13.900000 -0.144368
13.950000 -0.140941
14.000000 -0.178626
14.050000 -0.240292
14.100000 -0.356773
14.150000 -0.500659
14.200000 -0.613714
14.250000 -0.723343
14.300000 -0.826120
14.350000 -0.880933
14.400000 -0.894637
14.450000 -0.894637
14.500000 -0.867231
14.550000 -0.791861
14.600000 -0.702788
14.650000 -0.610289
14.700000 -0.517790
14.750000 -0.445846
14.800000 -0.397883
14.850000 -0.373902
14.900000 -0.387605
14.950000 -0.418438
15.000000 -0.452697
15.050000 -0.517789
15.100000 -0.617140
15.150000 -0.682232
15.200000 -0.706214
15.250000 -0.743898
15.300000 -0.767879
15.350000 -0.723343
15.400000 -0.658251
15.450000 -0.606862
15.500000 -0.534919
15.550000 -0.459549
15.600000 -0.408160
15.650000 -0.370476
15.700000 -0.325939
15.750000 -0.305384
15.800000 -0.315661
15.850000 -0.363625
15.900000 -0.445845
15.950000 -0.514364
16.000000 -0.558900
16.050000 -0.600011
16.100000 -0.603437
16.150000 -0.579456
16.200000 -0.572604
16.250000 -0.586307
16.300000 -0.555475
16.350000 -0.517789
16.400000 -0.541770
16.450000 -0.579455
16.500000 -0.555474
16.550000 -0.534919
16.600000 -0.555474
16.650000 -0.558900
16.700000 -0.517789
16.750000 -0.483530
16.800000 -0.466401
16.850000 -0.425290
16.900000 -0.349921
16.950000 -0.260847
17.000000 -0.188904
17.050000 -0.140942
17.100000 -0.110109
17.150000 -0.103257
17.200000 -0.116961
17.250000 -0.123812
17.300000 -0.116960
17.350000 -0.140941
17.400000 -0.192330
17.450000 -0.219737
17.500000 -0.212885
17.550000 -0.233441
17.600000 -0.267699
17.650000 -0.260848
17.700000 -0.271125
17.750000 -0.325939
17.800000 -0.370476
17.850000 -0.397883
17.900000 -0.456123
17.950000 -0.521216
18.000000 -0.555474
18.050000 -0.589733
18.100000 -0.637696
18.150000 -0.671954
18.200000 -0.699362
18.250000 -0.723343
18.300000 -0.719917
18.350000 -0.713065
18.400000 -0.719917
18.450000 -0.706214
18.500000 -0.695936
18.550000 -0.723342
18.600000 -0.757602
18.650000 -0.737047
18.700000 -0.699361
18.750000 -0.685658
18.800000 -0.641122
18.850000 -0.545196
18.900000 -0.442420
18.950000 -0.363625
19.000000 -0.271125
19.050000 -0.158070
19.100000 -0.048442
19.150000 0.054334
19.200000 0.139981
19.250000 0.187944
19.300000 0.208499
19.350000 0.191370
19.400000 0.126278
19.450000 0.006372
19.500000 -0.140941
19.550000 -0.281403
19.600000 -0.401309
19.650000 -0.514364
19.700000 -0.620566
19.750000 -0.702787
19.800000 -0.733620
19.850000 -0.737047
19.900000 -0.713066
19.950000 -0.668528
20.000000 -0.600011
20.050000 -0.534918
20.100000 -0.462975
20.150000 -0.387606
20.200000 -0.329365
20.250000 -0.274551
20.300000 -0.209459
20.350000 -0.161497
20.400000 -0.144367
20.450000 -0.127238
20.500000 -0.103256
20.550000 -0.082701
20.600000 -0.058720
20.650000 -0.045016
20.700000 -0.055294
20.750000 -0.062146
20.800000 -0.086127
20.850000 -0.151219
20.900000 -0.219737
20.950000 -0.264274
21.000000 -0.295107
21.050000 -0.308810
21.100000 -0.295106
21.150000 -0.281403
21.200000 -0.267700
21.250000 -0.209460
21.300000 -0.144368
21.350000 -0.127238
21.400000 -0.147793
21.450000 -0.154645
21.500000 -0.192330
21.550000 -0.288255
21.600000 -0.394457
21.650000 -0.493808
21.700000 -0.613714
21.750000 -0.726768
21.800000 -0.764454
21.850000 -0.764453
21.900000 -0.747324
21.950000 -0.692510
22.000000 -0.589733
22.050000 -0.486956
22.100000 -0.397883
22.150000 -0.329365
22.200000 -0.325939
22.250000 -0.377328
22.300000 -0.438994
22.350000 -0.504086
22.400000 -0.600011
22.450000 -0.709639
22.500000 -0.771305
22.550000 -0.774731
22.600000 -0.757602
22.650000 -0.713065
22.700000 -0.627418
22.750000 -0.524641
22.800000 -0.435568
22.850000 -0.380754
22.900000 -0.367050
22.950000 -0.401309
23.000000 -0.497234
23.050000 -0.654825
23.100000 -0.843249
23.150000 -1.017970
23.200000 -1.182412
23.250000 -1.346855
23.300000 -1.466761
23.350000 -1.507872
23.400000 -1.490742
23.450000 -1.446205
23.500000 -1.350281
23.550000 -1.196116
23.600000 -1.035099
23.650000 -0.901489
23.700000 -0.778157
23.750000 -0.647973
23.800000 -0.558900
23.850000 -0.538344
23.900000 -0.548622
23.950000 -0.552048
24.000000 -0.589733
24.050000 -0.661677
24.100000 -0.709640
24.150000 -0.719917
24.200000 -0.730194
24.250000 -0.740472
24.300000 -0.699362
24.350000 -0.620566
24.400000 -0.541771
24.450000 -0.459549
24.500000 -0.373902
24.550000 -0.312236
24.600000 -0.271125
24.650000 -0.250570
24.700000 -0.264274
24.750000 -0.339643
24.800000 -0.466401
24.850000 -0.623992
24.900000 -0.788435
24.950000 -0.949452
25.000000 -1.127597
25.050000 -1.316021
25.100000 -1.480465
25.150000 -1.620926
25.200000 -1.737406
25.250000 -1.805924
25.300000 -1.836757
25.350000 -1.833331
25.400000 -1.788794
25.450000 -1.706573
25.500000 -1.620926
25.550000 -1.528427
25.600000 -1.405095
25.650000 -1.295467
25.700000 -1.220097
25.750000 -1.151579
25.800000 -1.096765
25.850000 -1.079636
25.900000 -1.103617
25.950000 -1.141302
26.000000 -1.158431
26.050000 -1.144727
26.100000 -1.127598
26.150000 -1.120746
26.200000 -1.079635
26.250000 -0.976859
26.300000 -0.874082
26.350000 -0.791861
26.400000 -0.678806
26.450000 -0.534919
26.500000 -0.438994
26.550000 -0.394457
26.600000 -0.363625
26.650000 -0.367050
26.700000 -0.408161
26.750000 -0.483530
26.800000 -0.617140
26.850000 -0.778157
26.900000 -0.901489
26.950000 -0.987136
27.000000 -1.076209
27.050000 -1.127598
27.100000 -1.110468
27.150000 -1.083061
27.200000 -1.038525
27.250000 -0.932322
27.300000 -0.812416
27.350000 -0.730195
27.400000 -0.647973
27.450000 -0.579455
27.500000 -0.565752
27.550000 -0.589733
27.600000 -0.623992
27.650000 -0.695935
27.700000 -0.802138
27.750000 -0.884360
27.800000 -0.928897
27.850000 -0.949452
27.900000 -0.952877
27.950000 -0.935748
28.000000 -0.922044
28.050000 -0.887786
28.100000 -0.839823
28.150000 -0.815842
28.200000 -0.819268
28.250000 -0.822693
28.300000 -0.839823
28.350000 -0.874082
28.400000 -0.922044
28.450000 -0.973432
28.500000 -1.017969
28.550000 -1.048802
28.600000 -1.103617
28.650000 -1.168708
28.700000 -1.189264
28.750000 -1.196116
28.800000 -1.230375
28.850000 -1.281763
28.900000 -1.329725
28.950000 -1.367410
29.000000 -1.370836
29.050000 -1.367410
29.100000 -1.360559
29.150000 -1.292041
29.200000 -1.165283
29.250000 -1.059080
29.300000 -0.963155
29.350000 -0.812416
29.400000 -0.654825
29.450000 -0.545196
29.500000 -0.452697
29.550000 -0.404735
29.600000 -0.435568
29.650000 -0.483531
29.700000 -0.517789
29.750000 -0.600010
29.800000 -0.723343
29.850000 -0.808990
29.900000 -0.867230
29.950000 -0.928896
30.000000 -0.963155
30.050000 -0.949452
30.100000 -0.925471
30.150000 -0.894637
30.200000 -0.839823
30.250000 -0.812416
30.300000 -0.798712
30.350000 -0.767879
30.400000 -0.750749
30.450000 -0.781583
30.500000 -0.812416
30.550000 -0.829545
30.600000 -0.863804
30.650000 -0.894637
30.700000 -0.901489
30.750000 -0.918619
30.800000 -0.939173
30.850000 -0.918618
30.900000 -0.877508
30.950000 -0.853526
31.000000 -0.808990
31.050000 -0.743898
31.100000 -0.702787
31.150000 -0.678807
31.200000 -0.654825
31.250000 -0.644547
31.300000 -0.651399
31.350000 -0.658250
31.400000 -0.702788
31.450000 -0.774731
31.500000 -0.815842
31.550000 -0.853526
31.600000 -0.911766
31.650000 -0.956303
31.700000 -0.997414
31.750000 -1.055654
31.800000 -1.096765
31.850000 -1.072783
31.900000 -1.048802
31.950000 -1.048802
32.000000 -1.031673
32.050000 -0.990562
32.100000 -0.963155
32.150000 -0.970006
32.200000 -0.980284
32.250000 -0.983710
32.300000 -0.987137
32.350000 -1.021395
32.400000 -1.065932
32.450000 -1.062506
32.500000 -1.028247
32.550000 -0.997414
32.600000 -0.939174
32.650000 -0.826119
32.700000 -0.685658
32.750000 -0.565752
32.800000 -0.449272
32.850000 -0.343069
32.900000 -0.257421
32.950000 -0.209459
33.000000 -0.209459
33.050000 -0.250570
33.100000 -0.319088
33.150000 -0.397883
33.200000 -0.469827
33.250000 -0.552049
33.300000 -0.630844
33.350000 -0.675381
33.400000 -0.671955
33.450000 -0.647974
33.500000 -0.620566
33.550000 -0.586307
33.600000 -0.558900
33.650000 -0.534919
33.700000 -0.514363
33.750000 -0.517789
33.800000 -0.565752
33.850000 -0.634270
33.900000 -0.699361
33.950000 -0.771306
34.000000 -0.856952
34.050000 -0.935748
34.100000 -1.000840
34.150000 -1.048802
34.200000 -1.079636
34.250000 -1.110469
34.300000 -1.127598
34.350000 -1.113894
34.400000 -1.089913
34.450000 -1.089913
34.500000 -1.079636
34.550000 -1.041950
34.600000 -0.997414
34.650000 -0.959729
34.700000 -0.922045
34.750000 -0.908340
34.800000 -0.894637
34.850000 -0.850101
34.900000 -0.832972
34.950000 -0.850100
35.000000 -0.846675
35.050000 -0.819268
35.100000 -0.843249
35.150000 -0.911766
35.200000 -0.976859
35.250000 -1.038525
35.300000 -1.131024
35.350000 -1.250930
35.400000 -1.384540
35.450000 -1.507871
35.500000 -1.610648
35.550000 -1.692870
35.600000 -1.747683
35.650000 -1.757961
35.700000 -1.733979
35.750000 -1.675741
35.800000 -1.572964
35.850000 -1.446206
35.900000 -1.312596
35.950000 -1.175561
36.000000 -1.038525
36.050000 -0.928897
36.100000 -0.856952
36.150000 -0.808990
36.200000 -0.767880
36.250000 -0.747324
36.300000 -0.761027
36.350000 -0.812416
36.400000 -0.863804
36.450000 -0.894637
36.500000 -0.932322
36.550000 -0.976858
36.600000 -0.997414
36.650000 -0.987137
36.700000 -0.966581
36.750000 -0.925470
36.800000 -0.867230
36.850000 -0.808990
36.900000 -0.730194
36.950000 -0.600011
37.000000 -0.473252
37.050000 -0.391032
37.100000 -0.315662
37.150000 -0.247144
37.200000 -0.243718
37.250000 -0.288255
37.300000 -0.319087
37.350000 -0.353347
37.400000 -0.449272
37.450000 -0.572604
37.500000 -0.689083
37.550000 -0.795286
37.600000 -0.891211
37.650000 -0.963155
37.700000 -0.987136
37.750000 -0.983711
37.800000 -0.966581
37.850000 -0.939174
37.900000 -0.901489
37.950000 -0.860378
38.000000 -0.836397
38.050000 -0.853526
38.100000 -0.904915
38.150000 -0.990562
38.200000 -1.086487
38.250000 -1.178986
38.300000 -1.247504
38.350000 -1.322874
38.400000 -1.377688
38.450000 -1.411947
38.500000 -1.422225
38.550000 -1.422225
38.600000 -1.415372
38.650000 -1.415373
38.700000 -1.394817
38.750000 -1.353706
38.800000 -1.326299
38.850000 -1.340003
38.900000 -1.381114
38.950000 -1.405095
39.000000 -1.384539
39.050000 -1.340003
39.100000 -1.302319
39.150000 -1.257781
39.200000 -1.161857
39.250000 -1.035099
39.300000 -0.935748
39.350000 -0.850101
39.400000 -0.743898
39.450000 -0.644547
39.500000 -0.565751
39.550000 -0.517790
39.600000 -0.524641
39.650000 -0.552048
39.700000 -0.579456
39.750000 -0.613715
39.800000 -0.665102
39.850000 -0.702788
39.900000 -0.730195
39.950000 -0.764453
40.000000 -0.788435
40.050000 -0.802138
40.100000 -0.826119
40.150000 -0.836397
40.200000 -0.812416
40.250000 -0.788435
40.300000 -0.778157
40.350000 -0.771305
40.400000 -0.757602
40.450000 -0.754176
40.500000 -0.750750
40.550000 -0.730195
40.600000 -0.713065
40.650000 -0.702788
40.700000 -0.678807
40.750000 -0.665102
40.800000 -0.654825
40.850000 -0.623992
40.900000 -0.582882
40.950000 -0.569178
41.000000 -0.555475
41.050000 -0.531493
41.100000 -0.538344
41.150000 -0.572604
41.200000 -0.606862
41.250000 -0.658251
41.300000 -0.757601
41.350000 -0.856953
41.400000 -0.942600
41.450000 -1.028247
41.500000 -1.096765
41.550000 -1.103617
41.600000 -1.079635
41.650000 -1.048803
41.700000 -0.983710
41.750000 -0.874082
41.800000 -0.761028
41.850000 -0.665103
41.900000 -0.586307
41.950000 -0.531493
42.000000 -0.507511
42.050000 -0.514363
42.100000 -0.552048
42.150000 -0.623992
42.200000 -0.706213
42.250000 -0.798712
42.300000 -0.884360
42.350000 -0.949451
42.400000 -0.997414
42.450000 -1.035099
42.500000 -1.028247
42.550000 -0.973432
42.600000 -0.915193
42.650000 -0.880934
42.700000 -0.856952
42.750000 -0.829545
42.800000 -0.808990
42.850000 -0.795286
42.900000 -0.819268
42.950000 -0.867230
43.000000 -0.904915
43.050000 -0.911767
43.100000 -0.911767
43.150000 -0.908341
43.200000 -0.863804
43.250000 -0.791861
43.300000 -0.713066
43.350000 -0.610289
43.400000 -0.483530
43.450000 -0.380754
43.500000 -0.308810
43.550000 -0.236867
43.600000 -0.192329
43.650000 -0.206033
43.700000 -0.253996
43.750000 -0.308810
43.800000 -0.367051
43.850000 -0.421865
43.900000 -0.462976
43.950000 -0.500660
44.000000 -0.510938
44.050000 -0.493808
44.100000 -0.469827
44.150000 -0.452697
44.200000 -0.452697
44.250000 -0.486956
44.300000 -0.558900
44.350000 -0.671955
44.400000 -0.843249
44.450000 -1.045376
44.500000 -1.220097
44.550000 -1.363984
44.600000 -1.501020
44.650000 -1.579815
44.700000 -1.596944
44.750000 -1.583241
44.800000 -1.528427
44.850000 -1.408521
44.900000 -1.268060
44.950000 -1.134450
45.000000 -0.976858
45.050000 -0.815842
45.100000 -0.706213
45.150000 -0.637695
45.200000 -0.569178
45.250000 -0.514363
45.300000 -0.504086
45.350000 -0.507511
45.400000 -0.483530
45.450000 -0.452697
45.500000 -0.452698
45.550000 -0.480105
45.600000 -0.510937
45.650000 -0.531493
45.700000 -0.552048
45.750000 -0.600010
45.800000 -0.692510
45.850000 -0.791860
45.900000 -0.836397
45.950000 -0.880933
46.000000 -0.987137
46.050000 -1.096764
46.100000 -1.144727
46.150000 -1.175560
46.200000 -1.230374
46.250000 -1.254356
46.300000 -1.220096
46.350000 -1.196116
46.400000 -1.206394
46.450000 -1.196116
46.500000 -1.175560
46.550000 -1.175560
46.600000 -1.165283
46.650000 -1.131024
46.700000 -1.100190
46.750000 -1.069358
46.800000 -1.014543
46.850000 -0.949451
46.900000 -0.901489
46.950000 -0.843249
47.000000 -0.757601
47.050000 -0.671955
47.100000 -0.600010
47.150000 -0.558900
47.200000 -0.558900
47.250000 -0.569178
47.300000 -0.582881
47.350000 -0.641122
47.400000 -0.726768
47.450000 -0.795287
47.500000 -0.870656
47.550000 -0.976859
47.600000 -1.055654
47.650000 -1.096765
47.700000 -1.137875
47.750000 -1.172134
47.800000 -1.161857
47.850000 -1.148153
47.900000 -1.134450
47.950000 -1.093339
48.000000 -1.038524
48.050000 -0.973432
48.100000 -0.898063
48.150000 -0.860378
48.200000 -0.870656
48.250000 -0.863804
48.300000 -0.836397
48.350000 -0.874082
48.400000 -0.925471
48.450000 -0.911767
48.500000 -0.898063
48.550000 -0.942599
48.600000 -0.976858
48.650000 -0.966581
48.700000 -0.949451
48.750000 -0.939174
48.800000 -0.946026
48.850000 -0.976859
48.900000 -1.004266
48.950000 -1.028247
49.000000 -1.089913
49.050000 -1.175561
49.100000 -1.244078
49.150000 -1.336577
49.200000 -1.470187
49.250000 -1.590093
49.300000 -1.665463
49.350000 -1.713425
49.400000 -1.737406
49.450000 -1.716851
49.500000 -1.655185
49.550000 -1.566112
49.600000 -1.442780
49.650000 -1.292041
49.700000 -1.151579
49.750000 -1.038525
49.800000 -0.949452
49.850000 -0.911767
49.900000 -0.928896
49.950000 -0.952877
50.000000 -0.973433
50.050000 -1.017969
50.100000 -1.065931
50.150000 -1.079635
50.200000 -1.055654
50.250000 -0.990562
50.300000 -0.894637
50.350000 -0.802138
50.400000 -0.702788
50.450000 -0.589733
50.500000 -0.486957
50.550000 -0.415013
50.600000 -0.401309
50.650000 -0.456123
50.700000 -0.552048
50.750000 -0.661677
50.800000 -0.812416
50.850000 -1.007692
50.900000 -1.175560
50.950000 -1.288615
51.000000 -1.370836
51.050000 -1.432502
51.100000 -1.449631
51.150000 -1.429076
51.200000 -1.381114
51.250000 -1.309170
51.300000 -1.237226
51.350000 -1.182412
51.400000 -1.117320
51.450000 -1.052229
51.500000 -1.007692
51.550000 -0.980285
51.600000 -0.963155
51.650000 -0.973432
51.700000 -0.980284
51.750000 -0.939174
51.800000 -0.880933
51.850000 -0.850101
51.900000 -0.802139
51.950000 -0.702788
52.000000 -0.606863
52.050000 -0.552049
52.100000 -0.490382
52.150000 -0.411586
52.200000 -0.397883
52.250000 -0.421865
52.300000 -0.435568
52.350000 -0.459549
52.400000 -0.545196
52.450000 -0.647973
52.500000 -0.750750
52.550000 -0.891211
52.600000 -1.031673
52.650000 -1.137875
52.700000 -1.233800
52.750000 -1.329726
52.800000 -1.398243
52.850000 -1.456483
52.900000 -1.518149
52.950000 -1.538704
53.000000 -1.504445
53.050000 -1.459909
53.100000 -1.381113
53.150000 -1.250930
53.200000 -1.093338
53.250000 -0.952877
53.300000 -0.822694
53.350000 -0.702788
53.400000 -0.603437
53.450000 -0.528067
53.500000 -0.493808
53.550000 -0.517789
53.600000 -0.582881
53.650000 -0.668529
53.700000 -0.778157
53.750000 -0.898063
53.800000 -0.993988
53.850000 -1.065932
53.900000 -1.131024
53.950000 -1.206394
54.000000 -1.264634
54.050000 -1.298892
54.100000 -1.319448
54.150000 -1.343428
54.200000 -1.394817
54.250000 -1.435928
54.300000 -1.432503
54.350000 -1.387965
54.400000 -1.350281
54.450000 -1.333151
54.500000 -1.281763
54.550000 -1.175560
54.600000 -1.083061
54.650000 -1.031673
54.700000 -0.973433
54.750000 -0.898063
54.800000 -0.853527
54.850000 -0.856953
54.900000 -0.874082
54.950000 -0.887785
55.000000 -0.891211
55.050000 -0.901489
55.100000 -0.915192
55.150000 -0.942600
55.200000 -0.959729
55.250000 -0.939174
55.300000 -0.925470
55.350000 -0.935748
55.400000 -0.932322
55.450000 -0.887785
55.500000 -0.850101
55.550000 -0.839823
55.600000 -0.805564
55.650000 -0.761027
55.700000 -0.730194
55.750000 -0.713065
55.800000 -0.689084
55.850000 -0.665103
55.900000 -0.630844
55.950000 -0.600010
56.000000 -0.579455
56.050000 -0.555474
56.100000 -0.528067
56.150000 -0.541771
56.200000 -0.596585
56.250000 -0.641121
56.300000 -0.671955
56.350000 -0.737046
56.400000 -0.812416
56.450000 -0.870656
56.500000 -0.939174
56.550000 -1.011117
56.600000 -1.048802
56.650000 -1.069358
56.700000 -1.083061
56.750000 -1.062506
56.800000 -1.035099
56.850000 -1.048802
56.900000 -1.069358
56.950000 -1.062506
57.000000 -1.062506
57.050000 -1.079636
57.100000 -1.079635
57.150000 -1.083061
57.200000 -1.096765
57.250000 -1.103616
57.300000 -1.079635
57.350000 -1.041950
57.400000 -1.014543
57.450000 -0.980284
57.500000 -0.922044
57.550000 -0.853527
57.600000 -0.815842
57.650000 -0.788434
57.700000 -0.743898
57.750000 -0.730195
57.800000 -0.757602
57.850000 -0.788435
57.900000 -0.832971
57.950000 -0.904915
58.000000 -0.970007
58.050000 -1.014544
58.100000 -1.086487
58.150000 -1.168709
58.200000 -1.206393
58.250000 -1.209819
58.300000 -1.209819
58.350000 -1.185838
58.400000 -1.144727
58.450000 -1.103616
58.500000 -1.062506
58.550000 -0.997414
58.600000 -0.918619
58.650000 -0.867230
58.700000 -0.846675
58.750000 -0.850101
58.800000 -0.850101
58.850000 -0.867230
58.900000 -0.894638
58.950000 -0.935748
59.000000 -0.942600
59.050000 -0.898063
59.100000 -0.832971
59.150000 -0.798713
59.200000 -0.761027
59.250000 -0.695936
59.300000 -0.627418
59.350000 -0.569177
59.400000 -0.517789
59.450000 -0.504086
59.500000 -0.521215
59.550000 -0.548623
59.600000 -0.593159
59.650000 -0.675381
59.700000 -0.774731
59.750000 -0.874082
59.800000 -0.997414
59.850000 -1.110469
59.900000 -1.172134
59.950000 -1.223523
60.000000 -1.278337
60.050000 -1.305744
60.100000 -1.302318
60.150000 -1.285189
60.200000 -1.233801
60.250000 -1.172134
60.300000 -1.137875
60.350000 -1.103616
60.400000 -1.038525
60.450000 -0.997414
60.500000 -1.024821
60.550000 -1.065932
60.600000 -1.062506
60.650000 -1.059080
60.700000 -1.093339
60.750000 -1.141301
60.800000 -1.155005
60.850000 -1.141302
60.900000 -1.127598
60.950000 -1.113895
61.000000 -1.113895
61.050000 -1.107043
61.100000 -1.103617
61.150000 -1.127598
61.200000 -1.175560
61.250000 -1.216670
61.300000 -1.264633
61.350000 -1.316022
61.400000 -1.353706
61.450000 -1.391391
61.500000 -1.449632
61.550000 -1.477039
61.600000 -1.453057
61.650000 -1.439354
61.700000 -1.429077
61.750000 -1.384540
61.800000 -1.326299
61.850000 -1.288615
61.900000 -1.223522
61.950000 -1.137876
62.000000 -1.083062
62.050000 -1.021395
62.100000 -0.939174
62.150000 -0.880933
62.200000 -0.829545
62.250000 -0.737047
62.300000 -0.623992
62.350000 -0.545197
62.400000 -0.483531
62.450000 -0.404735
62.500000 -0.308810
62.550000 -0.236866
62.600000 -0.206033
62.650000 -0.185478
62.700000 -0.154645
62.750000 -0.161496
62.800000 -0.223162
62.850000 -0.288254
62.900000 -0.339643
62.950000 -0.428717
63.000000 -0.565752
63.050000 -0.709639
63.100000 -0.843249
63.150000 -0.959730
63.200000 -1.069357
63.250000 -1.172134
63.300000 -1.254356
63.350000 -1.292041
63.400000 -1.295466
63.450000 -1.281763
63.500000 -1.244078
63.550000 -1.158431
63.600000 -1.028247
63.650000 -0.887785
63.700000 -0.757602
63.750000 -0.627418
63.800000 -0.504086
63.850000 -0.421864
63.900000 -0.377328
63.950000 -0.349921
64.000000 -0.343069
64.050000 -0.377328
64.100000 -0.449272
64.150000 -0.548622
64.200000 -0.654825
64.250000 -0.747324
64.300000 -0.832971
64.350000 -0.901489
64.400000 -0.939173
64.450000 -0.918618
64.500000 -0.863805
64.550000 -0.822693
64.600000 -0.785009
64.650000 -0.733620
64.700000 -0.668528
64.750000 -0.634270
64.800000 -0.651399
64.850000 -0.689084
64.900000 -0.747324
64.950000 -0.850101
65.000000 -0.956303
65.050000 -1.035099
65.100000 -1.117320
65.150000 -1.199542
65.200000 -1.240652
65.250000 -1.247504
65.300000 -1.233801
65.350000 -1.178986
65.400000 -1.086487
65.450000 -1.000840
65.500000 -0.932322
65.550000 -0.867230
65.600000 -0.808990
65.650000 -0.802138
65.700000 -0.826119
65.750000 -0.856952
65.800000 -0.891212
65.850000 -0.935748
65.900000 -0.966580
65.950000 -1.014543
66.000000 -1.065932
66.050000 -1.093338
66.100000 -1.086487
66.150000 -1.076209
66.200000 -1.062506
66.250000 -1.021396
66.300000 -0.973433
66.350000 -0.932323
66.400000 -0.884360
66.450000 -0.836397
66.500000 -0.771306
66.550000 -0.695936
66.600000 -0.644548
66.650000 -0.627418
66.700000 -0.593159
66.750000 -0.552048
66.800000 -0.572604
66.850000 -0.644548
66.900000 -0.709639
66.950000 -0.795287
67.000000 -0.915192
67.050000 -1.024822
67.100000 -1.113894
67.150000 -1.192690
67.200000 -1.268059
67.250000 -1.312596
67.300000 -1.333151
67.350000 -1.329725
67.400000 -1.309170
67.450000 -1.268059
67.500000 -1.202968
67.550000 -1.113894
67.600000 -1.011117
67.650000 -0.894637
67.700000 -0.781582
67.750000 -0.699361
67.800000 -0.658251
67.850000 -0.654825
67.900000 -0.678806
67.950000 -0.716491
68.000000 -0.767880
68.050000 -0.839823
68.100000 -0.904915
68.150000 -0.935748
68.200000 -0.939174
68.250000 -0.942600
68.300000 -0.915192
68.350000 -0.853526
68.400000 -0.798712
68.450000 -0.764454
68.500000 -0.726768
68.550000 -0.689084
68.600000 -0.692510
68.650000 -0.723343
68.700000 -0.774731
68.750000 -0.870656
68.800000 -0.997414
68.850000 -1.100191
68.900000 -1.182412
68.950000 -1.254355
69.000000 -1.309170
69.050000 -1.333151
69.100000 -1.329725
69.150000 -1.281763
69.200000 -1.189264
69.250000 -1.079635
69.300000 -0.963156
69.350000 -0.839823
69.400000 -0.723343
69.450000 -0.606862
69.500000 -0.500660
69.550000 -0.435568
69.600000 -0.418439
69.650000 -0.421865
69.700000 -0.459549
69.750000 -0.541770
69.800000 -0.634269
69.850000 -0.719917
69.900000 -0.815842
69.950000 -0.911767
70.000000 -0.987137
70.050000 -1.048803
70.100000 -1.072783
70.150000 -1.048803
70.200000 -1.007692
70.250000 -0.956303
70.300000 -0.863804
70.350000 -0.761027
70.400000 -0.675380
70.450000 -0.596585
70.500000 -0.510937
70.550000 -0.452698
70.600000 -0.432142
70.650000 -0.432142
70.700000 -0.452698
70.750000 -0.466401
70.800000 -0.476679
70.850000 -0.504086
70.900000 -0.531492
70.950000 -0.534919
71.000000 -0.538345
71.050000 -0.562326
71.100000 -0.579455
71.150000 -0.576029
71.200000 -0.589733
71.250000 -0.641121
71.300000 -0.706213
71.350000 -0.767879
71.400000 -0.832972
71.450000 -0.918619
71.500000 -0.997414
71.550000 -1.048802
71.600000 -1.072784
71.650000 -1.093339
71.700000 -1.100190
71.750000 -1.103617
71.800000 -1.120746
71.850000 -1.144727
71.900000 -1.155005
71.950000 -1.141301
72.000000 -1.127598
72.050000 -1.131023
72.100000 -1.148153
72.150000 -1.158430
72.200000 -1.134450
72.250000 -1.079636
72.300000 -1.048802
72.350000 -1.017969
72.400000 -0.952877
72.450000 -0.867230
72.500000 -0.829546
72.550000 -0.815842
72.600000 -0.795287
72.650000 -0.798712
72.700000 -0.850100
72.750000 -0.887786
72.800000 -0.922044
72.850000 -0.990562
72.900000 -1.045376
72.950000 -1.045376
73.000000 -1.024821
73.050000 -1.007691
73.100000 -0.935748
73.150000 -0.815841
73.200000 -0.719917
73.250000 -0.623992
73.300000 -0.497234
73.350000 -0.384180
73.400000 -0.322513
73.450000 -0.298533
73.500000 -0.281403
73.550000 -0.295107
73.600000 -0.370476
73.650000 -0.490382
73.700000 -0.606862
73.750000 -0.702788
73.800000 -0.812415
73.850000 -0.918619
73.900000 -0.970007
73.950000 -0.970007
74.000000 -0.952877
74.050000 -0.915193
74.100000 -0.850101
74.150000 -0.771305
74.200000 -0.713065
74.250000 -0.661676
74.300000 -0.627418
74.350000 -0.627418
74.400000 -0.661676
74.450000 -0.706214
74.500000 -0.733621
74.550000 -0.764453
74.600000 -0.812416
74.650000 -0.856952
74.700000 -0.874082
74.750000 -0.850101
74.800000 -0.826120
74.850000 -0.805564
74.900000 -0.781583
74.950000 -0.743898
75.000000 -0.747324
75.050000 -0.788435
75.100000 -0.826119
75.150000 -0.867230
75.200000 -0.966581
75.250000 -1.079635
75.300000 -1.148153
75.350000 -1.178986
75.400000 -1.223523
75.450000 -1.264634
75.500000 -1.274911
75.550000 -1.285188
75.600000 -1.309170
75.650000 -1.312596
75.700000 -1.312596
75.750000 -1.343429
75.800000 -1.367410
75.850000 -1.370836
75.900000 -1.363984
75.950000 -1.360558
76.000000 -1.329725
76.050000 -1.271485
76.100000 -1.220097
76.150000 -1.161856
76.200000 -1.076209
76.250000 -0.983711
76.300000 -0.911767
76.350000 -0.843249
76.400000 -0.774731
76.450000 -0.747324
76.500000 -0.761027
76.550000 -0.788435
76.600000 -0.815842
76.650000 -0.829546
76.700000 -0.826119
76.750000 -0.829545
76.800000 -0.850100
76.850000 -0.839823
76.900000 -0.812416
76.950000 -0.822694
77.000000 -0.846674
77.050000 -0.860379
77.100000 -0.891211
77.150000 -0.932322
77.200000 -0.970007
77.250000 -1.017969
77.300000 -1.052228
77.350000 -1.031673
77.400000 -1.011118
77.450000 -1.017970
77.500000 -0.952877
77.550000 -0.815842
77.600000 -0.719917
77.650000 -0.654825
77.700000 -0.548623
77.750000 -0.462975
77.800000 -0.469827
77.850000 -0.500660
77.900000 -0.528067
77.950000 -0.603436
78.000000 -0.726769
78.050000 -0.853527
78.100000 -0.970007
78.150000 -1.062506
78.200000 -1.134449
78.250000 -1.199541
78.300000 -1.209819
78.350000 -1.158431
78.400000 -1.100190
78.450000 -1.035099
78.500000 -0.911767
78.550000 -0.781583
78.600000 -0.689084
78.650000 -0.603437
78.700000 -0.524641
78.750000 -0.514364
78.800000 -0.545196
78.850000 -0.552048
78.900000 -0.545197
78.950000 -0.558900
79.000000 -0.576029
79.050000 -0.586307
79.100000 -0.593159
79.150000 -0.586307
79.200000 -0.572604
79.250000 -0.548622
79.300000 -0.524641
79.350000 -0.510938
79.400000 -0.521215
79.450000 -0.538344
79.500000 -0.541771
79.550000 -0.572603
79.600000 -0.665103
79.650000 -0.764454
79.700000 -0.856953
79.750000 -0.983710
79.800000 -1.117320
79.850000 -1.213245
79.900000 -1.295466
79.950000 -1.381114
80.000000 -1.418799
80.050000 -1.398243
80.100000 -1.353707
80.150000 -1.295467
80.200000 -1.209819
80.250000 -1.113895
80.300000 -0.990563
80.350000 -0.850101
80.400000 -0.747324
80.450000 -0.699361
80.500000 -0.692510
80.550000 -0.740472
80.600000 -0.843249
80.650000 -0.976859
80.700000 -1.107042
80.750000 -1.213245
80.800000 -1.295467
80.850000 -1.391391
80.900000 -1.466761
80.950000 -1.470187
81.000000 -1.418799
81.050000 -1.350281
81.100000 -1.247504
81.150000 -1.117320
81.200000 -0.983710
81.250000 -0.846675
81.300000 -0.699361
81.350000 -0.593159
81.400000 -0.517789
81.450000 -0.432142
81.500000 -0.360198
81.550000 -0.329366
81.600000 -0.315662
81.650000 -0.322514
81.700000 -0.349920
81.750000 -0.363625
81.800000 -0.339643
81.850000 -0.336217
81.900000 -0.363625
81.950000 -0.367050
82.000000 -0.343069
82.050000 -0.343069
82.100000 -0.370476
82.150000 -0.425290
82.200000 -0.473253
82.250000 -0.524641
82.300000 -0.610288
82.350000 -0.723343
82.400000 -0.819268
82.450000 -0.901489
82.500000 -1.011117
82.550000 -1.120746
82.600000 -1.178986
82.650000 -1.199541
82.700000 -1.206393
82.750000 -1.178987
82.800000 -1.137876
82.850000 -1.093339
82.900000 -1.041950
82.950000 -0.987137
83.000000 -0.946026
83.050000 -0.925471
83.100000 -0.911767
83.150000 -0.904915
83.200000 -0.922044
83.250000 -0.949451
83.300000 -0.970007
83.350000 -0.983711
83.400000 -0.993988
83.450000 -1.011117
83.500000 -1.021395
83.550000 -1.031672
83.600000 -1.041951
83.650000 -1.038524
83.700000 -1.011118
83.750000 -1.004266
83.800000 -1.028247
83.850000 -1.041950
83.900000 -1.014543
83.950000 -1.007692
84.000000 -1.028247
84.050000 -0.997414
84.100000 -0.908340
84.150000 -0.822693
84.200000 -0.737046
84.250000 -0.627418
84.300000 -0.524641
84.350000 -0.442420
84.400000 -0.356772
84.450000 -0.281403
84.500000 -0.264273
84.550000 -0.288255
84.600000 -0.339643
84.650000 -0.421865
84.700000 -0.541771
84.750000 -0.665103
84.800000 -0.774731
84.850000 -0.860378
84.900000 -0.932322
84.950000 -0.980284
85.000000 -1.004266
85.050000 -0.976859
85.100000 -0.918619
85.150000 -0.846675
85.200000 -0.767879
85.250000 -0.699361
85.300000 -0.644547
85.350000 -0.600011
85.400000 -0.545197
85.450000 -0.521215
85.500000 -0.545196
85.550000 -0.586308
85.600000 -0.613714
85.650000 -0.617140
85.700000 -0.606862
85.750000 -0.606863
85.800000 -0.637695
85.850000 -0.665103
85.900000 -0.668528
85.950000 -0.675381
86.000000 -0.702787
86.050000 -0.723343
86.100000 -0.733620
86.150000 -0.764453
86.200000 -0.805564
86.250000 -0.867230
86.300000 -0.949452
86.350000 -1.004266
86.400000 -1.048802
86.450000 -1.113895
86.500000 -1.206393
86.550000 -1.274911
86.600000 -1.295466
86.650000 -1.309170
86.700000 -1.298892
86.750000 -1.254356
86.800000 -1.178986
86.850000 -1.065932
86.900000 -0.928896
86.950000 -0.788435
87.000000 -0.661677
87.050000 -0.548622
87.100000 -0.473253
87.150000 -0.425290
87.200000 -0.401309
87.250000 -0.425290
87.300000 -0.500660
87.350000 -0.593158
87.400000 -0.692510
87.450000 -0.802138
87.500000 -0.898063
87.550000 -0.956303
87.600000 -1.014543
87.650000 -1.048802
87.700000 -1.028247
87.750000 -0.980285
87.800000 -0.935748
87.850000 -0.884359
87.900000 -0.819268
87.950000 -0.767879
88.000000 -0.740473
88.050000 -0.730195
88.100000 -0.737046
88.150000 -0.764454
88.200000 -0.798712
88.250000 -0.829546
88.300000 -0.894638
88.350000 -0.973433
88.400000 -1.021395
88.450000 -1.038525
88.500000 -1.038524
88.550000 -1.007691
88.600000 -0.935748
88.650000 -0.856953
88.700000 -0.764454
88.750000 -0.665103
88.800000 -0.586307
88.850000 -0.528067
88.900000 -0.490383
88.950000 -0.493808
89.000000 -0.555475
89.050000 -0.630843
89.100000 -0.709640
89.150000 -0.805564
89.200000 -0.928896
89.250000 -1.048802
89.300000 -1.144727
89.350000 -1.223523
89.400000 -1.278337
89.450000 -1.281763
89.500000 -1.254356
89.550000 -1.247504
89.600000 -1.226948
89.650000 -1.151579
89.700000 -1.076210
89.750000 -1.048803
89.800000 -1.031673
89.850000 -0.980285
89.900000 -0.939174
89.950000 -0.942599
90.000000 -0.952878
90.050000 -0.939174
90.100000 -0.915192
90.150000 -0.894638
90.200000 -0.880934
90.250000 -0.880933
90.300000 -0.911767
90.350000 -0.952878
90.400000 -0.980284
90.450000 -1.007692
90.500000 -1.052228
90.550000 -1.083061
90.600000 -1.117321
90.650000 -1.144727
90.700000 -1.134450
90.750000 -1.076210
90.800000 -1.011117
90.850000 -0.932322
90.900000 -0.808990
90.950000 -0.685658
91.000000 -0.589733
91.050000 -0.497234
91.100000 -0.401309
91.150000 -0.346495
91.200000 -0.329366
91.250000 -0.332791
91.300000 -0.363625
91.350000 -0.404735
91.400000 -0.425291
91.450000 -0.462975
91.500000 -0.517790
91.550000 -0.538345
91.600000 -0.514363
91.650000 -0.476678
91.700000 -0.435568
91.750000 -0.373902
91.800000 -0.308810
91.850000 -0.260847
91.900000 -0.230014
91.950000 -0.236866
92.000000 -0.288254
92.050000 -0.356773
92.100000 -0.432142
92.150000 -0.510938
92.200000 -0.582881
92.250000 -0.627418
92.300000 -0.654825
92.350000 -0.685658
92.400000 -0.685658
92.450000 -0.651399
92.500000 -0.613714
92.550000 -0.582881
92.600000 -0.558900
92.650000 -0.538344
92.700000 -0.545196
92.750000 -0.586307
92.800000 -0.665103
92.850000 -0.757601
92.900000 -0.819267
92.950000 -0.891211
93.000000 -0.976858
93.050000 -1.031673
93.100000 -1.052228
93.150000 -1.100191
93.200000 -1.168709
93.250000 -1.206393
93.300000 -1.220097
93.350000 -1.226949
93.400000 -1.223523
93.450000 -1.220097
93.500000 -1.237226
93.550000 -1.247504
93.600000 -1.233800
93.650000 -1.240652
93.700000 -1.278337
93.750000 -1.298892
93.800000 -1.281762
93.850000 -1.268059
93.900000 -1.288614
93.950000 -1.309170
94.000000 -1.312596
94.050000 -1.292041
94.100000 -1.264633
94.150000 -1.230374
94.200000 -1.185838
94.250000 -1.124171
94.300000 -1.055655
94.350000 -1.021395
94.400000 -0.987136
94.450000 -0.925470
94.500000 -0.867231
94.550000 -0.839823
94.600000 -0.822694
94.650000 -0.788434
94.700000 -0.757601
94.750000 -0.726768
94.800000 -0.671955
94.850000 -0.606863
94.900000 -0.555474
94.950000 -0.517789
95.000000 -0.497234
95.050000 -0.497234
95.100000 -0.521216
95.150000 -0.579455
95.200000 -0.668529
95.250000 -0.747324
95.300000 -0.843249
95.350000 -0.983710
95.400000 -1.110468
95.450000 -1.155005
95.500000 -1.168709
95.550000 -1.196116
95.600000 -1.202968
95.650000 -1.151579
95.700000 -1.059080
95.750000 -0.952878
95.800000 -0.870656
95.850000 -0.802138
95.900000 -0.733620
95.950000 -0.692510
96.000000 -0.675380
96.050000 -0.675380
96.100000 -0.695936
96.150000 -0.754176
96.200000 -0.802138
96.250000 -0.808990
96.300000 -0.826119
96.350000 -0.860378
96.400000 -0.874082
96.450000 -0.877508
96.500000 -0.891212
96.550000 -0.908340
96.600000 -0.928896
96.650000 -0.956303
96.700000 -0.963155
96.750000 -0.970007
96.800000 -1.000840
96.850000 -1.028247
96.900000 -1.014544
96.950000 -0.980285
97.000000 -0.952878
97.050000 -0.911767
97.100000 -0.870656
97.150000 -0.843249
97.200000 -0.802138
97.250000 -0.764453
97.300000 -0.771305
97.350000 -0.788434
97.400000 -0.785009
97.450000 -0.805564
97.500000 -0.832971
97.550000 -0.850101
97.600000 -0.874082
97.650000 -0.925470
97.700000 -0.966581
97.750000 -0.993988
97.800000 -1.055654
97.850000 -1.131024
97.900000 -1.189263
97.950000 -1.223523
98.000000 -1.220097
98.050000 -1.185838
98.100000 -1.127597
98.150000 -1.052228
98.200000 -0.952878
98.250000 -0.826120
98.300000 -0.678806
98.350000 -0.545197
98.400000 -0.456123
98.450000 -0.401310
98.500000 -0.394457
98.550000 -0.452698
98.600000 -0.555474
98.650000 -0.654825
98.700000 -0.774731
98.750000 -0.942600
98.800000 -1.103617
98.850000 -1.192690
98.900000 -1.240652
98.950000 -1.264633
99.000000 -1.244078
99.050000 -1.178986
99.100000 -1.096765
99.150000 -0.987137
99.200000 -0.853527
99.250000 -0.737046
99.300000 -0.654825
99.350000 -0.593159
99.400000 -0.552048
99.450000 -0.541771
99.500000 -0.558900
99.550000 -0.589733
99.600000 -0.617140
99.650000 -0.647973
99.700000 -0.692510
99.750000 -0.737046
99.800000 -0.761027
99.850000 -0.750750
99.900000 -0.740473
99.950000 -0.726769
100.000000 -0.699361
100.050000 -0.647974
100.100000 -0.593159
100.150000 -0.541771
100.200000 -0.493809
100.250000 -0.469827
100.300000 -0.459549
100.350000 -0.449272
100.400000 -0.435568
100.450000 -0.435568
100.500000 -0.459549
100.550000 -0.490382
100.600000 -0.514363
100.650000 -0.528067
100.700000 -0.545196
100.750000 -0.572604
100.800000 -0.589733
100.850000 -0.630843
100.900000 -0.695936
100.950000 -0.757602
101.000000 -0.819268
101.050000 -0.887785
101.100000 -0.952877
101.150000 -1.007692
101.200000 -1.052228
101.250000 -1.062506
101.300000 -1.045376
101.350000 -1.021395
101.400000 -0.990563
101.450000 -0.928896
101.500000 -0.853527
101.550000 -0.785008
101.600000 -0.737047
101.650000 -0.709639
101.700000 -0.695936
101.750000 -0.675381
101.800000 -0.658250
101.850000 -0.654825
101.900000 -0.654825
101.950000 -0.661677
102.000000 -0.675380
102.050000 -0.668529
102.100000 -0.651399
102.150000 -0.641122
102.200000 -0.603437
102.250000 -0.534918
102.300000 -0.486956
102.350000 -0.466401
102.400000 -0.438994
102.450000 -0.411587
102.500000 -0.404735
102.550000 -0.394457
102.600000 -0.404735
102.650000 -0.456123
102.700000 -0.510938
102.750000 -0.558900
102.800000 -0.627418
102.850000 -0.689084
102.900000 -0.743898
102.950000 -0.832972
103.000000 -0.932322
103.050000 -0.983710
103.100000 -1.004266
103.150000 -1.059080
103.200000 -1.110468
103.250000 -1.131023
103.300000 -1.144728
103.350000 -1.155005
103.400000 -1.141301
103.450000 -1.131024
103.500000 -1.141302
103.550000 -1.137875
103.600000 -1.100190
103.650000 -1.035099
103.700000 -0.973433
103.750000 -0.952877
103.800000 -0.942600
103.850000 -0.894637
103.900000 -0.829545
103.950000 -0.798713
104.000000 -0.791861
104.050000 -0.785008
104.100000 -0.791861
104.150000 -0.822694
104.200000 -0.863804
104.250000 -0.918618
104.300000 -1.000840
104.350000 -1.086487
104.400000 -1.172134
104.450000 -1.250930
104.500000 -1.298892
104.550000 -1.312596
104.600000 -1.319447
104.650000 -1.319448
104.700000 -1.292041
104.750000 -1.233800
104.800000 -1.172134
104.850000 -1.110468
104.900000 -1.028247
104.950000 -0.942599
105.000000 -0.874082
105.050000 -0.826120
105.100000 -0.767879
105.150000 -0.702787
105.200000 -0.665103
105.250000 -0.671954
105.300000 -0.678806
105.350000 -0.671955
105.400000 -0.668529
105.450000 -0.699361
105.500000 -0.750750
105.550000 -0.812416
105.600000 -0.894638
105.650000 -0.980285
105.700000 -1.069358
105.750000 -1.161857
105.800000 -1.244078
105.850000 -1.278337
105.900000 -1.278337
105.950000 -1.264634
106.000000 -1.230374
106.050000 -1.165283
106.100000 -1.079635
106.150000 -0.983710
106.200000 -0.904915
106.250000 -0.843249
106.300000 -0.805564
106.350000 -0.795286
106.400000 -0.822694
106.450000 -0.856953
106.500000 -0.884360
106.550000 -0.928897
106.600000 -0.990563
106.650000 -1.021395
106.700000 -1.031673
106.750000 -1.086487
106.800000 -1.137875
106.850000 -1.137875
106.900000 -1.124172
106.950000 -1.110468
107.000000 -1.048803
107.050000 -0.949451
107.100000 -0.867230
107.150000 -0.798712
107.200000 -0.723343
107.250000 -0.644547
107.300000 -0.589733
107.350000 -0.552048
107.400000 -0.545197
107.450000 -0.555474
107.500000 -0.589733
107.550000 -0.654825
107.600000 -0.730195
107.650000 -0.785008
107.700000 -0.839823
107.750000 -0.891211
107.800000 -0.925470
107.850000 -0.935748
107.900000 -0.935748
107.950000 -0.932322
108.000000 -0.952877
108.050000 -1.004266
108.100000 -1.055654
108.150000 -1.100191
108.200000 -1.155005
108.250000 -1.220097
108.300000 -1.268059
108.350000 -1.305744
108.400000 -1.322874
108.450000 -1.316021
108.500000 -1.295467
108.550000 -1.268059
108.600000 -1.220096
108.650000 -1.141301
108.700000 -1.062506
108.750000 -1.004266
108.800000 -0.942599
108.850000 -0.877508
108.900000 -0.829546
108.950000 -0.802139
109.000000 -0.771305
109.050000 -0.723343
109.100000 -0.685658
109.150000 -0.637696
109.200000 -0.565752
109.250000 -0.456124
109.300000 -0.353347
109.350000 -0.281403
109.400000 -0.209459
109.450000 -0.134090
109.500000 -0.106683
109.550000 -0.134089
109.600000 -0.175200
109.650000 -0.226589
109.700000 -0.336217
109.750000 -0.483530
109.800000 -0.620566
109.850000 -0.757602
109.900000 -0.898064
109.950000 -1.031673
110.000000 -1.155005
110.050000 -1.257781
110.100000 -1.305744
110.150000 -1.326300
110.200000 -1.357132
110.250000 -1.394817
110.300000 -1.384540
110.350000 -1.343429
110.400000 -1.298892
110.450000 -1.250930
110.500000 -1.223523
110.550000 -1.189264
110.600000 -1.117320
110.650000 -1.017969
110.700000 -0.911767
110.750000 -0.805564
110.800000 -0.699361
110.850000 -0.610288
110.900000 -0.538345
110.950000 -0.480105
111.000000 -0.449271
111.050000 -0.435568
111.100000 -0.445845
111.150000 -0.490382
111.200000 -0.558900
111.250000 -0.634269
111.300000 -0.709639
111.350000 -0.764453
111.400000 -0.795286
111.450000 -0.822694
111.500000 -0.850101
111.550000 -0.856953
111.600000 -0.853527
111.650000 -0.850100
111.700000 -0.839823
111.750000 -0.832971
111.800000 -0.822694
111.850000 -0.808990
111.900000 -0.819268
111.950000 -0.856953
112.000000 -0.884360
112.050000 -0.904915
112.100000 -0.949452
112.150000 -0.997414
112.200000 -1.031673
112.250000 -1.065932
112.300000 -1.083062
112.350000 -1.055655
112.400000 -1.014544
112.450000 -0.966580
112.500000 -0.884360
112.550000 -0.781582
112.600000 -0.692510
112.650000 -0.620566
112.700000 -0.555475
112.750000 -0.504086
112.800000 -0.456124
112.850000 -0.421865
112.900000 -0.408161
112.950000 -0.401309
113.000000 -0.397883
113.050000 -0.421865
113.100000 -0.452698
113.150000 -0.476679
113.200000 -0.497234
113.250000 -0.538344
113.300000 -0.589733
113.350000 -0.647973
113.400000 -0.706214
113.450000 -0.754176
113.500000 -0.795286
113.550000 -0.819267
113.600000 -0.819268
113.650000 -0.836397
113.700000 -0.856952
113.750000 -0.850101
113.800000 -0.846674
113.850000 -0.877507
113.900000 -0.891211
113.950000 -0.877508
114.000000 -0.880934
114.050000 -0.911767
114.100000 -0.922044
114.150000 -0.922044
114.200000 -0.915192
114.250000 -0.880934
114.300000 -0.826120
114.350000 -0.771305
114.400000 -0.709640
114.450000 -0.641122
114.500000 -0.582882
114.550000 -0.538345
114.600000 -0.510937
114.650000 -0.517789
114.700000 -0.555474
114.750000 -0.589733
114.800000 -0.617140
114.850000 -0.651399
114.900000 -0.692510
114.950000 -0.737047
115.000000 -0.771305
115.050000 -0.778157
115.100000 -0.781583
115.150000 -0.826120
115.200000 -0.874082
115.250000 -0.891211
115.300000 -0.922044
115.350000 -0.990563
115.400000 -1.024821
115.450000 -1.024821
115.500000 -1.048802
115.550000 -1.083061
115.600000 -1.083061
115.650000 -1.093339
115.700000 -1.117321
115.750000 -1.124172
115.800000 -1.144728
115.850000 -1.182412
115.900000 -1.209819
115.950000 -1.233801
116.000000 -1.271485
116.050000 -1.285188
116.100000 -1.233800
116.150000 -1.182412
116.200000 -1.144728
116.250000 -1.069358
116.300000 -0.952877
116.350000 -0.853527
116.400000 -0.788435
116.450000 -0.750750
116.500000 -0.740472
116.550000 -0.757602
116.600000 -0.808991
116.650000 -0.891212
116.700000 -1.000840
116.750000 -1.120746
116.800000 -1.220097
116.850000 -1.281762
116.900000 -1.329725
116.950000 -1.381113
117.000000 -1.377687
117.050000 -1.312596
117.100000 -1.233801
117.150000 -1.165283
117.200000 -1.072784
117.250000 -0.976858
117.300000 -0.898063
117.350000 -0.812416
117.400000 -0.730194
117.450000 -0.682232
117.500000 -0.641121
117.550000 -0.579455
117.600000 -0.531493
117.650000 -0.517789
117.700000 -0.524641
117.750000 -0.545197
117.800000 -0.576029
117.850000 -0.586307
117.900000 -0.589733
117.950000 -0.606863
118.000000 -0.593159
118.050000 -0.562326
118.100000 -0.572603
118.150000 -0.603436
118.200000 -0.586307
118.250000 -0.555474
118.300000 -0.562326
118.350000 -0.552049
118.400000 -0.517789
118.450000 -0.517789
118.500000 -0.562326
118.550000 -0.610288
118.600000 -0.675380
118.650000 -0.774731
118.700000 -0.884359
118.750000 -1.024821
118.800000 -1.168708
118.850000 -1.271485
118.900000 -1.343429
118.950000 -1.425650
119.000000 -1.470186
119.050000 -1.453057
119.100000 -1.429076
119.150000 -1.401669
119.200000 -1.336577
119.250000 -1.264634
119.300000 -1.196116
119.350000 -1.113894
119.400000 -1.024821
119.450000 -0.976859
119.500000 -0.970007
119.550000 -0.952877
119.600000 -0.939174
119.650000 -0.959729
119.700000 -1.014544
119.750000 -1.076210
119.800000 -1.110468
119.850000 -1.124171
119.900000 -1.144727
119.950000 -1.161856
120.000000 -1.144727
120.050000 -1.093339
120.100000 -1.021395
120.150000 -0.949452
120.200000 -0.901489
120.250000 -0.874082
120.300000 -0.826119
120.350000 -0.764454
120.400000 -0.754176
120.450000 -0.795286
120.500000 -0.829545
120.550000 -0.877508
120.600000 -0.963155
120.650000 -1.052228
120.700000 -1.134449
120.750000 -1.213244
120.800000 -1.268059
120.850000 -1.268059
120.900000 -1.237227
120.950000 -1.185838
121.000000 -1.107042
121.050000 -1.024821
121.100000 -0.956303
121.150000 -0.891212
121.200000 -0.850100
121.250000 -0.843249
121.300000 -0.853526
121.350000 -0.898064
121.400000 -0.983711
121.450000 -1.062506
121.500000 -1.131024
121.550000 -1.216671
121.600000 -1.285189
121.650000 -1.298893
121.700000 -1.302318
121.750000 -1.298892
121.800000 -1.233801
121.850000 -1.127597
121.900000 -1.031673
121.950000 -0.939174
122.000000 -0.846675
122.050000 -0.767880
122.100000 -0.713065
122.150000 -0.678807
122.200000 -0.689084
122.250000 -0.733620
122.300000 -0.795286
122.350000 -0.874082
122.400000 -0.939174
122.450000 -0.976859
122.500000 -1.014544
122.550000 -1.065932
122.600000 -1.062505
122.650000 -0.990562
122.700000 -0.918619
122.750000 -0.846675
122.800000 -0.761027
122.850000 -0.692510
122.900000 -0.630843
122.950000 -0.548622
123.000000 -0.497234
123.050000 -0.486957
123.100000 -0.493808
123.150000 -0.510938
123.200000 -0.548623
123.250000 -0.596585
123.300000 -0.637696
123.350000 -0.689084
123.400000 -0.730195
123.450000 -0.754176
123.500000 -0.774731
123.550000 -0.802138
123.600000 -0.802139
123.650000 -0.781583
123.700000 -0.761028
123.750000 -0.733620
123.800000 -0.706213
123.850000 -0.695935
123.900000 -0.699362
123.950000 -0.726769
124.000000 -0.788434
124.050000 -0.856953
124.100000 -0.894637
124.150000 -0.956304
124.200000 -1.055654
124.250000 -1.134449
124.300000 -1.175561
124.350000 -1.206393
124.400000 -1.230374
124.450000 -1.233801
124.500000 -1.226948
124.550000 -1.213246
124.600000 -1.199542
124.650000 -1.178986
124.700000 -1.148153
124.750000 -1.107043
124.800000 -1.086488
124.850000 -1.089913
124.900000 -1.076209
124.950000 -1.059080
125.000000 -1.048803
125.050000 -1.031673
125.100000 -0.987136
125.150000 -0.925470
125.200000 -0.856952
125.250000 -0.791861
125.300000 -0.730195
125.350000 -0.695936
125.400000 -0.671955
125.450000 -0.627417
125.500000 -0.579455
125.550000 -0.558900
125.600000 -0.572604
125.650000 -0.600011
125.700000 -0.634270
125.750000 -0.702787
125.800000 -0.788434
125.850000 -0.856953
125.900000 -0.898063
125.950000 -0.939174
126.000000 -0.990562
126.050000 -1.017970
126.100000 -1.014544
126.150000 -1.017969
126.200000 -1.035098
126.250000 -1.045377
126.300000 -1.041951
126.350000 -1.055655
126.400000 -1.069358
126.450000 -1.052228
126.500000 -1.011117
126.550000 -0.946026
126.600000 -0.870656
126.650000 -0.778157
126.700000 -0.665103
126.750000 -0.541771
126.800000 -0.432142
126.850000 -0.329365
126.900000 -0.209459
126.950000 -0.113535
127.000000 -0.079275
127.050000 -0.065571
127.100000 -0.086127
127.150000 -0.158071
127.200000 -0.247144
127.250000 -0.315662
127.300000 -0.408161
127.350000 -0.552048
127.400000 -0.685658
127.450000 -0.774731
127.500000 -0.874082
127.550000 -0.983711
127.600000 -1.069357
127.650000 -1.127598
127.700000 -1.178986
127.750000 -1.220097
127.800000 -1.247503
127.850000 -1.254355
127.900000 -1.237226
127.950000 -1.189264
128.000000 -1.144727
128.050000 -1.100190
128.100000 -1.031672
128.150000 -0.949451
128.200000 -0.908341
128.250000 -0.898063
128.300000 -0.884360
128.350000 -0.870656
128.400000 -0.870656
128.450000 -0.887786
128.500000 -0.925470
128.550000 -0.949451
128.600000 -0.918619
128.650000 -0.870656
128.700000 -0.874082
128.750000 -0.874082
128.800000 -0.808990
128.850000 -0.733620
128.900000 -0.699362
128.950000 -0.661677
129.000000 -0.617140
129.050000 -0.606863
129.100000 -0.634269
129.150000 -0.661677
129.200000 -0.695936
129.250000 -0.750750
129.300000 -0.812416
129.350000 -0.860378
129.400000 -0.904915
129.450000 -0.942599
129.500000 -0.959730
129.550000 -0.966581
129.600000 -0.956303
129.650000 -0.925470
129.700000 -0.870656
129.750000 -0.802138
129.800000 -0.740473
129.850000 -0.685658
129.900000 -0.623992
129.950000 -0.576029
130.000000 -0.555474
130.050000 -0.558900
130.100000 -0.565752
130.150000 -0.593159
130.200000 -0.658251
130.250000 -0.733620
130.300000 -0.802138
130.350000 -0.880934
130.400000 -0.983710
130.450000 -1.093339
130.500000 -1.172134
130.550000 -1.209820
130.600000 -1.230374
130.650000 -1.240653
130.700000 -1.216671
130.750000 -1.155005
130.800000 -1.079635
130.850000 -0.973433
130.900000 -0.846674
130.950000 -0.737046
131.000000 -0.654825
131.050000 -0.562326
131.100000 -0.490382
131.150000 -0.456123
131.200000 -0.445845
131.250000 -0.466401
131.300000 -0.531493
131.350000 -0.620566
131.400000 -0.716491
131.450000 -0.839823
131.500000 -0.970007
131.550000 -1.055654
131.600000 -1.107042
131.650000 -1.148153
131.700000 -1.144727
131.750000 -1.124172
131.800000 -1.124172
131.850000 -1.110468
131.900000 -1.055654
131.950000 -1.007692
132.000000 -0.976858
132.050000 -0.932322
132.100000 -0.904915
132.150000 -0.932323
132.200000 -0.966581
132.250000 -0.970006
132.300000 -0.970006
132.350000 -0.983711
132.400000 -0.983710
132.450000 -0.973432
132.500000 -0.963155
132.550000 -0.939173
132.600000 -0.915192
132.650000 -0.891211
132.700000 -0.839823
132.750000 -0.785008
132.800000 -0.767879
132.850000 -0.767880
132.900000 -0.761027
132.950000 -0.781583
133.000000 -0.832972
133.050000 -0.863804
133.100000 -0.891211
133.150000 -0.939174
133.200000 -0.966581
133.250000 -0.966581
133.300000 -0.980284
133.350000 -0.983711
133.400000 -0.932322
133.450000 -0.870656
133.500000 -0.836397
133.550000 -0.802138
133.600000 -0.747324
133.650000 -0.709639
133.700000 -0.685658
133.750000 -0.634270
133.800000 -0.582882
133.850000 -0.548622
133.900000 -0.528067
133.950000 -0.517789
134.000000 -0.521216
134.050000 -0.534919
134.100000 -0.558900
134.150000 -0.600011
134.200000 -0.661677
134.250000 -0.730195
134.300000 -0.819267
134.350000 -0.952877
134.400000 -1.100190
134.450000 -1.216671
134.500000 -1.305744
134.550000 -1.391391
134.600000 -1.456483
134.650000 -1.494167
134.700000 -1.487316
134.750000 -1.422224
134.800000 -1.353707
134.850000 -1.285188
134.900000 -1.161856
134.950000 -0.983711
135.000000 -0.843249
135.050000 -0.740472
135.100000 -0.627418
135.150000 -0.552049
135.200000 -0.552049
135.250000 -0.572604
135.300000 -0.589733
135.350000 -0.647973
135.400000 -0.754176
135.450000 -0.853526
135.500000 -0.959730
135.550000 -1.083062
135.600000 -1.175560
135.650000 -1.226949
135.700000 -1.288615
135.750000 -1.336577
135.800000 -1.340003
135.850000 -1.326299
135.900000 -1.295466
135.950000 -1.216671
136.000000 -1.096765
136.050000 -0.976859
136.100000 -0.850101
136.150000 -0.716491
136.200000 -0.630843
136.250000 -0.610289
136.300000 -0.603437
136.350000 -0.627418
136.400000 -0.726768
136.450000 -0.891211
136.500000 -1.076209
136.550000 -1.250930
136.600000 -1.411947
136.650000 -1.538704
136.700000 -1.610649
136.750000 -1.617500
136.800000 -1.552408
136.850000 -1.422224
136.900000 -1.237227
136.950000 -1.045377
137.000000 -0.863804
137.050000 -0.689084
137.100000 -0.538344
137.150000 -0.442420
137.200000 -0.397883
137.250000 -0.404735
137.300000 -0.449271
137.350000 -0.524642
137.400000 -0.586307
137.450000 -0.647973
137.500000 -0.692510
137.550000 -0.702787
137.600000 -0.692510
137.650000 -0.699361
137.700000 -0.689084
137.750000 -0.665103
137.800000 -0.682232
137.850000 -0.719917
137.900000 -0.750750
137.950000 -0.805564
138.000000 -0.894637
138.050000 -0.959729
138.100000 -1.004266
138.150000 -1.031673
138.200000 -1.028247
138.250000 -1.004266
138.300000 -0.973433
138.350000 -0.901489
138.400000 -0.798712
138.450000 -0.733621
138.500000 -0.689084
138.550000 -0.630844
138.600000 -0.593159
138.650000 -0.603437
138.700000 -0.610288
138.750000 -0.593158
138.800000 -0.593159
138.850000 -0.613714
138.900000 -0.617140
138.950000 -0.610289
139.000000 -0.613715
139.050000 -0.606862
139.100000 -0.610289
139.150000 -0.617141
139.200000 -0.617140
139.250000 -0.630843
139.300000 -0.695936
139.350000 -0.781583
139.400000 -0.836397
139.450000 -0.887785
139.500000 -0.942599
139.550000 -1.000840
139.600000 -1.052228
139.650000 -1.072783
139.700000 -1.062506
139.750000 -1.052228
139.800000 -1.041950
139.850000 -1.000840
139.900000 -0.942599
139.950000 -0.911767
140.000000 -0.891211
140.050000 -0.853527
140.100000 -0.829545
140.150000 -0.826119
140.200000 -0.839823
140.250000 -0.843249
140.300000 -0.819267
140.350000 -0.754175
140.400000 -0.675380
140.450000 -0.596584
140.500000 -0.469827
140.550000 -0.308810
140.600000 -0.161497
140.650000 -0.024462
140.700000 0.122852
140.750000 0.229055
140.800000 0.259888
140.850000 0.235906
140.900000 0.170814
140.950000 0.047482
141.000000 -0.137516
141.050000 -0.356772
141.100000 -0.589733
141.150000 -0.798712
141.200000 -0.970007
141.250000 -1.100191
141.300000 -1.172135
141.350000 -1.155004
141.400000 -1.055654
141.450000 -0.908341
141.500000 -0.737046
141.550000 -0.579456
141.600000 -0.449272
141.650000 -0.349920
141.700000 -0.329366
141.750000 -0.397883
141.800000 -0.500660
141.850000 -0.630844
141.900000 -0.788435
141.950000 -0.973433
142.000000 -1.155005
142.050000 -1.316021
142.100000 -1.435927
142.150000 -1.501020
142.200000 -1.514723
142.250000 -1.470187
142.300000 -1.387965
142.350000 -1.288615
142.400000 -1.178986
142.450000 -1.038525
142.500000 -0.908341
142.550000 -0.832971
142.600000 -0.785009
142.650000 -0.730195
142.700000 -0.692509
142.750000 -0.702787
142.800000 -0.730194
142.850000 -0.757601
142.900000 -0.785009
142.950000 -0.819268
143.000000 -0.856953
143.050000 -0.901490
143.100000 -0.925470
143.150000 -0.922044
143.200000 -0.908340
143.250000 -0.894637
143.300000 -0.856953
143.350000 -0.802138
143.400000 -0.750750
143.450000 -0.713065
143.500000 -0.682232
143.550000 -0.661676
143.600000 -0.647973
143.650000 -0.644547
143.700000 -0.658251
143.750000 -0.671954
143.800000 -0.675380
143.850000 -0.685658
143.900000 -0.699362
143.950000 -0.730195
144.000000 -0.774731
144.050000 -0.819268
144.100000 -0.856953
144.150000 -0.898063
144.200000 -0.949451
144.250000 -1.004266
144.300000 -1.048803
144.350000 -1.065932
144.400000 -1.089913
144.450000 -1.100191
144.500000 -1.055654
144.550000 -0.983711
144.600000 -0.928896
144.650000 -0.850101
144.700000 -0.757602
144.750000 -0.689084
144.800000 -0.651399
144.850000 -0.627418
144.900000 -0.634270
144.950000 -0.658251
145.000000 -0.668528
145.050000 -0.675380
145.100000 -0.719917
145.150000 -0.767879
145.200000 -0.802138
145.250000 -0.826120
145.300000 -0.839823
145.350000 -0.815841
145.400000 -0.788435
145.450000 -0.795286
145.500000 -0.788435
145.550000 -0.764453
145.600000 -0.747324
145.650000 -0.730194
145.700000 -0.689084
145.750000 -0.637696
145.800000 -0.596585
145.850000 -0.555475
145.900000 -0.500660
145.950000 -0.452698
146.000000 -0.415013
146.050000 -0.363625
146.100000 -0.322514
146.150000 -0.319088
146.200000 -0.346495
146.250000 -0.401309
146.300000 -0.469827
146.350000 -0.541771
146.400000 -0.603436
146.450000 -0.661677
146.500000 -0.719917
146.550000 -0.771305
146.600000 -0.802138
146.650000 -0.815842
146.700000 -0.815842
146.750000 -0.805564
146.800000 -0.795287
146.850000 -0.781583
146.900000 -0.781583
146.950000 -0.795287
147.000000 -0.812416
147.050000 -0.829545
147.100000 -0.860379
147.150000 -0.894637
147.200000 -0.901489
147.250000 -0.898063
147.300000 -0.867230
147.350000 -0.795286
147.400000 -0.709640
147.450000 -0.623992
147.500000 -0.507512
147.550000 -0.401309
147.600000 -0.349921
147.650000 -0.305385
147.700000 -0.250570
147.750000 -0.247144
147.800000 -0.291680
147.850000 -0.322514
147.900000 -0.367050
147.950000 -0.449271
148.000000 -0.524641
148.050000 -0.576029
148.100000 -0.634270
148.150000 -0.678806
148.200000 -0.692510
148.250000 -0.689084
148.300000 -0.678807
148.350000 -0.644547
148.400000 -0.600011
148.450000 -0.586307
148.500000 -0.579455
148.550000 -0.562326
148.600000 -0.545196
148.650000 -0.548622
148.700000 -0.548622
148.750000 -0.545197
148.800000 -0.552049
148.850000 -0.555474
148.900000 -0.524641
148.950000 -0.486957
149.000000 -0.490382
149.050000 -0.510938
149.100000 -0.490382
149.150000 -0.462975
149.200000 -0.459549
149.250000 -0.462976
149.300000 -0.462975
149.350000 -0.490383
149.400000 -0.534918
149.450000 -0.579456
149.500000 -0.623992
149.550000 -0.671955
149.600000 -0.713065
149.650000 -0.761028
149.700000 -0.812416
149.750000 -0.846674
149.800000 -0.863804
149.850000 -0.880934
149.900000 -0.887786
149.950000 -0.874082
150.000000 -0.846675
150.050000 -0.808990
150.100000 -0.761027
150.150000 -0.716491
150.200000 -0.678806
150.250000 -0.637696
150.300000 -0.596585
150.350000 -0.579456
150.400000 -0.582882
150.450000 -0.589733
150.500000 -0.606863
150.550000 -0.647973
150.600000 -0.702788
150.650000 -0.761028
150.700000 -0.815842
150.750000 -0.850100
150.800000 -0.870656
150.850000 -0.877508
150.900000 -0.853527
150.950000 -0.785009
151.000000 -0.719917
151.050000 -0.671955
151.100000 -0.586307
151.150000 -0.486956
151.200000 -0.404735
151.250000 -0.298532
151.300000 -0.175200
151.350000 -0.103257
151.400000 -0.075849
151.450000 -0.034739
151.500000 -0.021035
151.550000 -0.075849
151.600000 -0.161497
151.650000 -0.257422
151.700000 -0.384180
151.750000 -0.538344
151.800000 -0.699361
151.850000 -0.839824
151.900000 -0.918619
151.950000 -0.976858
152.000000 -1.031673
152.050000 -1.031673
152.100000 -0.956303
152.150000 -0.898063
152.200000 -0.874081
152.250000 -0.822693
152.300000 -0.771306
152.350000 -0.774732
152.400000 -0.798712
152.450000 -0.802138
152.500000 -0.812416
152.550000 -0.832971
152.600000 -0.853526
152.650000 -0.867230
152.700000 -0.874082
152.750000 -0.850100
152.800000 -0.805564
152.850000 -0.767879
152.900000 -0.713065
152.950000 -0.665103
153.000000 -0.654825
153.050000 -0.637696
153.100000 -0.589733
153.150000 -0.576029
153.200000 -0.582881
153.250000 -0.541770
153.300000 -0.483531
153.350000 -0.445846
153.400000 -0.394457
153.450000 -0.346495
153.500000 -0.325940
153.550000 -0.305384
153.600000 -0.274551
153.650000 -0.291680
153.700000 -0.329365
153.750000 -0.353347
153.800000 -0.428716
153.850000 -0.565752
153.900000 -0.675381
153.950000 -0.764454
154.000000 -0.884360
154.050000 -0.987136
154.100000 -1.041951
154.150000 -1.113895
154.200000 -1.192690
154.250000 -1.230374
154.300000 -1.244078
154.350000 -1.247504
154.400000 -1.206393
154.450000 -1.124172
154.500000 -1.038524
154.550000 -0.946025
154.600000 -0.846675
154.650000 -0.750750
154.700000 -0.651399
154.750000 -0.579456
154.800000 -0.552048
154.850000 -0.524641
154.900000 -0.493808
154.950000 -0.493809
155.000000 -0.510937
155.050000 -0.528067
155.100000 -0.572604
155.150000 -0.647973
155.200000 -0.709639
155.250000 -0.767879
155.300000 -0.839823
155.350000 -0.904915
155.400000 -0.939174
155.450000 -0.980284
155.500000 -1.031673
155.550000 -1.069357
155.600000 -1.096765
155.650000 -1.113894
155.700000 -1.117320
155.750000 -1.103617
155.800000 -1.089913
155.850000 -1.079635
155.900000 -1.059080
155.950000 -1.031673
156.000000 -1.000840
156.050000 -0.970007
156.100000 -0.939174
156.150000 -0.911767
156.200000 -0.880934
156.250000 -0.819267
156.300000 -0.737046
156.350000 -0.641121
156.400000 -0.541770
156.450000 -0.445846
156.500000 -0.363624
156.550000 -0.305384
156.600000 -0.271125
156.650000 -0.243719
156.700000 -0.233440
156.750000 -0.271125
156.800000 -0.343069
156.850000 -0.404735
156.900000 -0.480105
156.950000 -0.593159
157.000000 -0.695935
157.050000 -0.750750
157.100000 -0.791860
157.150000 -0.836397
157.200000 -0.846674
157.250000 -0.815842
157.300000 -0.761027
157.350000 -0.730195
157.400000 -0.719916
157.450000 -0.716491
157.500000 -0.733620
157.550000 -0.805564
157.600000 -0.915193
157.650000 -1.028247
157.700000 -1.165282
157.750000 -1.346855
157.800000 -1.521576
157.850000 -1.665462
157.900000 -1.781942
157.950000 -1.840182
158.000000 -1.809349
158.050000 -1.723702
158.100000 -1.600371
158.150000 -1.415372
158.200000 -1.185838
158.250000 -0.963155
158.300000 -0.750749
158.350000 -0.565751
158.400000 -0.449271
158.450000 -0.397883
158.500000 -0.367050
158.550000 -0.377328
158.600000 -0.432142
158.650000 -0.507512
158.700000 -0.596585
158.750000 -0.689084
158.800000 -0.767879
158.850000 -0.826119
158.900000 -0.853526
158.950000 -0.867230
159.000000 -0.894638
159.050000 -0.922045
159.100000 -0.932322
159.150000 -0.935748
159.200000 -0.983710
159.250000 -1.035099
159.300000 -1.041951
159.350000 -1.041951
159.400000 -1.083061
159.450000 -1.110469
159.500000 -1.079635
159.550000 -1.045377
159.600000 -1.011118
159.650000 -0.942600
159.700000 -0.863804
159.750000 -0.812416
159.800000 -0.754176
159.850000 -0.695936
159.900000 -0.651399
159.950000 -0.603437
160.000000 -0.548622
160.050000 -0.524641
160.100000 -0.507512
160.150000 -0.483531
160.200000 -0.504086
160.250000 -0.565752
160.300000 -0.613714
160.350000 -0.658250
160.400000 -0.719917
160.450000 -0.785009
160.500000 -0.812416
160.550000 -0.832972
160.600000 -0.853526
160.650000 -0.867230
160.700000 -0.874082
160.750000 -0.853527
160.800000 -0.815842
160.850000 -0.791861
160.900000 -0.757602
160.950000 -0.702788
161.000000 -0.654825
161.050000 -0.596585
161.100000 -0.507512
161.150000 -0.418439
161.200000 -0.367050
161.250000 -0.332791
161.300000 -0.288255
161.350000 -0.277977
161.400000 -0.332791
161.450000 -0.428717
161.500000 -0.541771
161.550000 -0.682232
161.600000 -0.850101
161.650000 -1.038525
161.700000 -1.213245
161.750000 -1.346854
161.800000 -1.425650
161.850000 -1.453057
161.900000 -1.418798
161.950000 -1.333151
162.000000 -1.206393
162.050000 -1.038525
162.100000 -0.853526
162.150000 -0.713065
162.200000 -0.603436
162.250000 -0.521215
162.300000 -0.510938
162.350000 -0.572604
162.400000 -0.665102
162.450000 -0.798712
162.500000 -1.007692
162.550000 -1.216671
162.600000 -1.381114
162.650000 -1.521576
162.700000 -1.620925
162.750000 -1.631204
162.800000 -1.569538
162.850000 -1.453058
162.900000 -1.281762
162.950000 -1.076209
163.000000 -0.867230
163.050000 -0.682232
163.100000 -0.538345
163.150000 -0.452698
163.200000 -0.387605
163.250000 -0.353347
163.300000 -0.404735
163.350000 -0.538344
163.400000 -0.695936
163.450000 -0.836397
163.500000 -0.966581
163.550000 -1.079635
163.600000 -1.175560
163.650000 -1.244078
163.700000 -1.264633
163.750000 -1.274911
163.800000 -1.316022
163.850000 -1.346855
163.900000 -1.322874
163.950000 -1.288615
164.000000 -1.292041
164.050000 -1.292040
164.100000 -1.237226
164.150000 -1.161857
164.200000 -1.076210
164.250000 -0.956303
164.300000 -0.819268
164.350000 -0.675380
164.400000 -0.510938
164.450000 -0.336218
164.500000 -0.209459
164.550000 -0.116960
164.600000 -0.041590
164.650000 -0.021035
164.700000 -0.048442
164.750000 -0.089553
164.800000 -0.171775
164.850000 -0.319088
164.900000 -0.483530
164.950000 -0.637695
165.000000 -0.832971
165.050000 -1.035098
165.100000 -1.189264
165.150000 -1.312595
165.200000 -1.422224
165.250000 -1.477039
165.300000 -1.470186
165.350000 -1.439354
165.400000 -1.360558
165.450000 -1.226949
165.500000 -1.062505
165.550000 -0.901489
165.600000 -0.740472
165.650000 -0.586307
165.700000 -0.456123
165.750000 -0.339643
165.800000 -0.253996
165.850000 -0.219737
165.900000 -0.233441
165.950000 -0.277977
166.000000 -0.356773
166.050000 -0.449272
166.100000 -0.538345
166.150000 -0.630844
166.200000 -0.733620
166.250000 -0.812416
166.300000 -0.870656
166.350000 -0.925470
166.400000 -0.987136
166.450000 -1.055654
166.500000 -1.110468
166.550000 -1.131024
166.600000 -1.127598
166.650000 -1.113894
166.700000 -1.107043
166.750000 -1.072783
166.800000 -0.993988
166.850000 -0.877508
166.900000 -0.761027
166.950000 -0.658251
167.000000 -0.545196
167.050000 -0.418439
167.100000 -0.329365
167.150000 -0.298532
167.200000 -0.298533
167.250000 -0.329366
167.300000 -0.421865
167.350000 -0.572603
167.400000 -0.743898
167.450000 -0.932322
167.500000 -1.113894
167.550000 -1.237226
167.600000 -1.326300
167.650000 -1.398243
167.700000 -1.408520
167.750000 -1.350280
167.800000 -1.281762
167.850000 -1.192690
167.900000 -1.072784
167.950000 -0.976859
168.000000 -0.918619
168.050000 -0.863804
168.100000 -0.822694
168.150000 -0.822694
168.200000 -0.853527
168.250000 -0.898063
168.300000 -0.952877
168.350000 -0.990562
168.400000 -1.000840
168.450000 -1.014544
168.500000 -1.000840
168.550000 -0.928896
168.600000 -0.850101
168.650000 -0.785009
168.700000 -0.726769
168.750000 -0.665103
168.800000 -0.610288
168.850000 -0.572604
168.900000 -0.541771
168.950000 -0.507512
169.000000 -0.476678
169.050000 -0.462975
169.100000 -0.456123
169.150000 -0.438994
169.200000 -0.408161
169.250000 -0.394457
169.300000 -0.394457
169.350000 -0.394457
169.400000 -0.408161
169.450000 -0.442420
169.500000 -0.486957
169.550000 -0.541770
169.600000 -0.613714
169.650000 -0.695936
169.700000 -0.774731
169.750000 -0.867230
169.800000 -0.956304
169.850000 -1.004266
169.900000 -1.011118
169.950000 -0.987136
170.000000 -0.939174
170.050000 -0.870656
170.100000 -0.812416
170.150000 -0.757601
170.200000 -0.695936
170.250000 -0.644547
170.300000 -0.596585
170.350000 -0.582882
170.400000 -0.620566
170.450000 -0.682232
170.500000 -0.750750
170.550000 -0.839823
170.600000 -0.939174
170.650000 -1.007691
170.700000 -1.028247
170.750000 -1.017969
170.800000 -0.993988
170.850000 -0.935748
170.900000 -0.843248
170.950000 -0.754176
171.000000 -0.685658
171.050000 -0.630844
171.100000 -0.572603
171.150000 -0.558900
171.200000 -0.613714
171.250000 -0.689084
171.300000 -0.764454
171.350000 -0.860379
171.400000 -0.990562
171.450000 -1.107043
171.500000 -1.189263
171.550000 -1.233800
171.600000 -1.223522
171.650000 -1.165283
171.700000 -1.096765
171.750000 -1.021395
171.800000 -0.922044
171.850000 -0.798712
171.900000 -0.668528
171.950000 -0.558900
172.000000 -0.493808
172.050000 -0.462975
172.100000 -0.459549
172.150000 -0.507512
172.200000 -0.606862
172.250000 -0.713065
172.300000 -0.829545
172.350000 -0.949451
172.400000 -1.055654
172.450000 -1.137875
172.500000 -1.209819
172.550000 -1.240652
172.600000 -1.220096
172.650000 -1.161857
172.700000 -1.076209
172.750000 -0.966581
172.800000 -0.846675
172.850000 -0.719917
172.900000 -0.569178
172.950000 -0.449272
173.000000 -0.384179
173.050000 -0.336218
173.100000 -0.288255
173.150000 -0.298533
173.200000 -0.349921
173.250000 -0.384180
173.300000 -0.415013
173.350000 -0.486957
173.400000 -0.565752
173.450000 -0.617141
173.500000 -0.668529
173.550000 -0.737046
173.600000 -0.791861
173.650000 -0.843249
173.700000 -0.915193
173.750000 -0.966581
173.800000 -1.004265
173.850000 -1.052228
173.900000 -1.069358
173.950000 -1.038524
174.000000 -0.997414
174.050000 -0.942600
174.100000 -0.856953
174.150000 -0.764453
174.200000 -0.661676
174.250000 -0.510938
174.300000 -0.356773
174.350000 -0.264274
174.400000 -0.202608
174.450000 -0.120386
174.500000 -0.058720
174.550000 -0.062146
174.600000 -0.106683
174.650000 -0.161497
174.700000 -0.230015
174.750000 -0.298532
174.800000 -0.370476
174.850000 -0.452697
174.900000 -0.514363
174.950000 -0.558900
175.000000 -0.630843
175.050000 -0.713065
175.100000 -0.747324
175.150000 -0.754176
175.200000 -0.778157
175.250000 -0.785009
175.300000 -0.757602
175.350000 -0.750749
175.400000 -0.761027
175.450000 -0.754176
175.500000 -0.733620
175.550000 -0.726769
175.600000 -0.713065
175.650000 -0.692509
175.700000 -0.678806
175.750000 -0.682232
175.800000 -0.671954
175.850000 -0.637696
175.900000 -0.610288
175.950000 -0.603437
176.000000 -0.589733
176.050000 -0.579456
176.100000 -0.582881
176.150000 -0.600011
176.200000 -0.620566
176.250000 -0.661677
176.300000 -0.716491
176.350000 -0.767880
176.400000 -0.798712
176.450000 -0.808991
176.500000 -0.808990
176.550000 -0.778157
176.600000 -0.702788
176.650000 -0.610289
176.700000 -0.521215
176.750000 -0.425290
176.800000 -0.336217
176.850000 -0.277977
176.900000 -0.257422
176.950000 -0.243718
177.000000 -0.267699
177.050000 -0.336217
177.100000 -0.415012
177.150000 -0.493808
177.200000 -0.627418
177.250000 -0.802139
177.300000 -0.935747
177.350000 -1.031673
177.400000 -1.148153
177.450000 -1.257782
177.500000 -1.302318
177.550000 -1.309170
177.600000 -1.322873
177.650000 -1.322873
177.700000 -1.261208
177.750000 -1.196116
177.800000 -1.148154
177.850000 -1.059080
177.900000 -0.939174
177.950000 -0.856953
178.000000 -0.808990
178.050000 -0.764454
178.100000 -0.750750
178.150000 -0.791860
178.200000 -0.850100
178.250000 -0.928896
178.300000 -1.021395
178.350000 -1.093339
178.400000 -1.141301
178.450000 -1.202967
178.500000 -1.247504
178.550000 -1.230374
178.600000 -1.202967
178.650000 -1.178986
178.700000 -1.096765
178.750000 -0.997414
178.800000 -0.935748
178.850000 -0.880934
178.900000 -0.829546
178.950000 -0.819268
179.000000 -0.846674
179.050000 -0.884359
179.100000 -0.949452
179.150000 -1.038525
179.200000 -1.120745
179.250000 -1.196115
179.300000 -1.274911
179.350000 -1.353707
179.400000 -1.405095
179.450000 -1.429076
179.500000 -1.446205
179.550000 -1.449632
179.600000 -1.418798
179.650000 -1.343429
179.700000 -1.271485
179.750000 -1.213245
179.800000 -1.158431
179.850000 -1.096765
179.900000 -1.038525
179.950000 -0.983710
180.000000 -0.963155
180.050000 -0.976858
180.100000 -0.980284
180.150000 -0.959729
180.200000 -0.952877
180.250000 -0.963155
180.300000 -0.956303
180.350000 -0.942600
180.400000 -0.928896
180.450000 -0.901489
180.500000 -0.887785
180.550000 -0.894637
180.600000 -0.880933
180.650000 -0.836397
180.700000 -0.812416
180.750000 -0.798712
180.800000 -0.747324
180.850000 -0.689083
180.900000 -0.658251
180.950000 -0.620566
181.000000 -0.579455
181.050000 -0.555474
181.100000 -0.517790
181.150000 -0.486956
181.200000 -0.521215
181.250000 -0.620567
181.300000 -0.709639
181.350000 -0.808990
181.400000 -0.939174
181.450000 -1.065932
181.500000 -1.168709
181.550000 -1.271485
181.600000 -1.346855
181.650000 -1.384539
181.700000 -1.405094
181.750000 -1.384539
181.800000 -1.278337
181.850000 -1.161857
181.900000 -1.072784
181.950000 -0.949452
182.000000 -0.774731
182.050000 -0.651400
182.100000 -0.593159
182.150000 -0.531493
182.200000 -0.452698
182.250000 -0.404735
182.300000 -0.377328
182.350000 -0.346495
182.400000 -0.319088
182.450000 -0.288254
182.500000 -0.267699
182.550000 -0.264273
182.600000 -0.257421
182.650000 -0.216311
182.700000 -0.195755
182.750000 -0.216311
182.800000 -0.230014
182.850000 -0.236866
182.900000 -0.267699
182.950000 -0.315662
183.000000 -0.349921
183.050000 -0.363625
183.100000 -0.356772
183.150000 -0.332791
183.200000 -0.329365
183.250000 -0.346495
183.300000 -0.343069
183.350000 -0.322514
183.400000 -0.339643
183.450000 -0.387606
183.500000 -0.435568
183.550000 -0.504086
183.600000 -0.620567
183.650000 -0.737046
183.700000 -0.846674
183.750000 -0.970007
183.800000 -1.100190
183.850000 -1.178987
183.900000 -1.230374
183.950000 -1.271485
184.000000 -1.292040
184.050000 -1.271485
184.100000 -1.226948
184.150000 -1.168709
184.200000 -1.089913
184.250000 -0.973432
184.300000 -0.832972
184.350000 -0.699362
184.400000 -0.569178
184.450000 -0.432142
184.500000 -0.301958
184.550000 -0.223163
184.600000 -0.195756
184.650000 -0.185478
184.700000 -0.199181
184.750000 -0.267699
184.800000 -0.380753
184.850000 -0.480104
184.900000 -0.572603
184.950000 -0.692510
185.000000 -0.815842
185.050000 -0.887785
185.100000 -0.898064
185.150000 -0.867231
185.200000 -0.826120
185.250000 -0.761028
185.300000 -0.675380
185.350000 -0.579455
185.400000 -0.510938
185.450000 -0.476679
185.500000 -0.483530
185.550000 -0.538345
185.600000 -0.637695
185.650000 -0.767879
185.700000 -0.922044
185.750000 -1.093339
185.800000 -1.257781
185.850000 -1.408520
185.900000 -1.501020
185.950000 -1.528427
186.000000 -1.511298
186.050000 -1.466761
186.100000 -1.377687
186.150000 -1.247504
186.200000 -1.107042
186.250000 -1.000840
186.300000 -0.928896
186.350000 -0.922044
186.400000 -0.990562
186.450000 -1.076210
186.500000 -1.172134
186.550000 -1.312596
186.600000 -1.463335
186.650000 -1.555834
186.700000 -1.593518
186.750000 -1.586667
186.800000 -1.497593
186.850000 -1.336577
186.900000 -1.158431
186.950000 -0.990563
187.000000 -0.832971
187.050000 -0.678806
187.100000 -0.548623
187.150000 -0.476679
187.200000 -0.473253
187.250000 -0.510938
187.300000 -0.555474
187.350000 -0.641122
187.400000 -0.743898
187.450000 -0.788435
187.500000 -0.805564
187.550000 -0.822694
187.600000 -0.805564
187.650000 -0.723343
187.700000 -0.637695
187.750000 -0.562326
187.800000 -0.462975
187.850000 -0.349921
187.900000 -0.264274
187.950000 -0.212885
188.000000 -0.171775
188.050000 -0.147793
188.100000 -0.154645
188.150000 -0.199181
188.200000 -0.253996
188.250000 -0.312236
188.300000 -0.394457
188.350000 -0.493809
188.400000 -0.596585
188.450000 -0.723343
188.500000 -0.877508
188.550000 -1.014544
188.600000 -1.103617
188.650000 -1.178987
188.700000 -1.254356
188.750000 -1.285189
188.800000 -1.278337
188.850000 -1.278337
188.900000 -1.257781
