time[ns] Raw_signal[mV]
-11.100000 -0.233782
-11.050000 -0.199524
-11.000000 -0.131005
-10.950000 -0.062488
-10.900000 0.002604
-10.850000 0.071122
-10.800000 0.139640
-10.750000 0.180750
-10.700000 0.180751
-10.650000 0.146491
-10.600000 0.095103
-10.550000 0.050567
-10.500000 0.023159
-10.450000 -0.007674
-10.400000 -0.038506
-10.350000 -0.052210
-10.300000 -0.041933
-10.250000 -0.014526
-10.200000 0.060844
-10.150000 0.136214
-10.100000 0.173898
-10.050000 0.197879
-10.000000 0.235564
-9.950000 0.221861
-9.900000 0.129362
-9.850000 0.026585
-9.800000 -0.079618
-9.750000 -0.220079
-9.700000 -0.360540
-9.650000 -0.456465
-9.600000 -0.524983
-9.550000 -0.542112
-9.500000 -0.507854
-9.450000 -0.449613
-9.400000 -0.363966
-9.350000 -0.213227
-9.300000 -0.072765
-9.250000 0.016308
-9.200000 0.095103
-9.150000 0.184176
-9.100000 0.238990
-9.050000 0.259546
-9.000000 0.262972
-8.950000 0.225287
-8.900000 0.184176
-8.850000 0.187602
-8.800000 0.208157
-8.750000 0.197880
-8.700000 0.201305
-8.650000 0.238991
-8.600000 0.286953
-8.550000 0.324638
-8.500000 0.338341
-8.450000 0.338341
-8.400000 0.348619
-8.350000 0.369174
-8.300000 0.358897
-8.250000 0.314360
-8.200000 0.297231
-8.150000 0.304082
-8.100000 0.304082
-8.050000 0.307508
-8.000000 0.334916
-7.950000 0.348618
-7.900000 0.341767
-7.850000 0.334915
-7.800000 0.328063
-7.750000 0.310934
-7.700000 0.297231
-7.650000 0.283527
-7.600000 0.242416
-7.550000 0.173898
-7.500000 0.098529
-7.450000 0.012882
-7.400000 -0.076191
-7.350000 -0.144709
-7.300000 -0.202950
-7.250000 -0.247486
-7.200000 -0.274893
-7.150000 -0.292023
-7.100000 -0.305726
-7.050000 -0.302300
-7.000000 -0.292023
-6.950000 -0.288596
-6.900000 -0.298874
-6.850000 -0.298875
-6.800000 -0.298874
-6.750000 -0.292023
-6.700000 -0.274893
-6.650000 -0.261190
-6.600000 -0.250912
-6.550000 -0.220079
-6.500000 -0.151562
-6.450000 -0.083043
-6.400000 -0.035081
-6.350000 -0.000822
-6.300000 0.040288
-6.250000 0.057418
-6.200000 0.043715
-6.150000 0.030011
-6.100000 0.006030
-6.050000 -0.038507
-6.000000 -0.079617
-5.950000 -0.107025
-5.900000 -0.148135
-5.850000 -0.185821
-5.800000 -0.182394
-5.750000 -0.168691
-5.700000 -0.182394
-5.650000 -0.196098
-5.600000 -0.161839
-5.550000 -0.127580
-5.500000 -0.120728
-5.450000 -0.117302
-5.400000 -0.107025
-5.350000 -0.110450
-5.300000 -0.124154
-5.250000 -0.127580
-5.200000 -0.144709
-5.150000 -0.165265
-5.100000 -0.158413
-5.050000 -0.134432
-5.000000 -0.110451
-4.950000 -0.089896
-4.900000 -0.059062
-4.850000 -0.024803
-4.800000 0.006030
-4.750000 0.026585
-4.700000 0.047140
-4.650000 0.060844
-4.600000 0.050566
-4.550000 0.026585
-4.500000 0.006030
-4.450000 -0.021378
-4.400000 -0.055637
-4.350000 -0.072765
-4.300000 -0.065914
-4.250000 -0.076191
-4.200000 -0.086469
-4.150000 -0.065914
-4.100000 -0.028229
-4.050000 0.002604
-4.000000 0.036863
-3.950000 0.067696
-3.900000 0.081400
-3.850000 0.105380
-3.800000 0.129362
-3.750000 0.119084
-3.700000 0.098529
-3.650000 0.115658
-3.600000 0.146491
-3.550000 0.136214
-3.500000 0.129362
-3.450000 0.132788
-3.400000 0.119084
-3.350000 0.125936
-3.300000 0.208157
-3.250000 0.249268
-3.200000 0.191028
-3.150000 0.204732
-3.100000 0.358897
-3.050000 0.420563
-3.000000 0.362322
-2.950000 0.423988
-2.900000 0.561024
-2.850000 0.530191
-2.800000 0.420563
-2.750000 0.386304
-2.700000 0.300656
-2.650000 0.201305
-2.600000 0.310934
-2.550000 0.417136
-2.500000 0.286953
-2.450000 0.259546
-2.400000 0.458247
-2.350000 0.482228
-2.300000 0.348619
-2.250000 0.461673
-2.200000 0.608986
-2.150000 0.451395
-2.100000 0.334916
-2.050000 0.485655
-2.000000 0.492506
-1.950000 0.225286
-1.900000 0.077973
-1.850000 0.119084
-1.800000 0.187602
-1.750000 0.297230
-1.700000 0.376026
-1.650000 0.324638
-1.600000 0.328063
-1.550000 0.451395
-1.500000 0.420563
-1.450000 0.286952
-1.400000 0.365748
-1.350000 0.492506
-1.300000 0.403433
-1.250000 0.283527
-1.200000 0.232139
-1.150000 0.074548
-1.100000 -0.028229
-1.050000 0.088252
-1.000000 0.033437
-0.950000 -0.268042
-0.900000 -0.302300
-0.850000 -0.069339
-0.800000 -0.021377
-0.750000 -0.024803
-0.700000 0.204731
-0.650000 0.362323
-0.600000 0.314360
-0.550000 0.382878
-0.500000 0.547321
-0.450000 0.513061
-0.400000 0.400007
-0.350000 0.420563
-0.300000 0.406859
-0.250000 0.269823
-0.200000 0.160195
-0.150000 0.105380
-0.100000 0.030011
-0.050000 -0.038507
0.000000 -0.055636
0.050000 -0.024804
0.100000 0.043715
0.150000 0.060844
0.200000 0.023159
0.250000 0.074548
0.300000 0.215009
0.350000 0.208158
0.400000 0.088251
0.450000 0.122511
0.500000 0.269823
0.550000 0.314360
0.600000 0.321211
0.650000 0.400007
0.700000 0.437692
0.750000 0.430840
0.800000 0.523339
0.850000 0.701485
0.900000 0.903613
0.950000 1.211943
1.000000 1.746382
1.050000 2.489800
1.100000 3.483308
1.150000 4.863942
1.200000 6.686516
1.250000 8.906488
1.300000 11.541006
1.350000 14.610594
1.400000 18.019363
1.450000 21.568578
1.500000 25.131507
1.550000 28.711565
1.600000 32.264207
1.650000 35.580474
1.700000 38.550721
1.750000 41.250318
1.800000 43.672427
1.850000 45.683422
1.900000 47.303872
1.950000 48.687924
2.000000 49.863014
2.050000 50.750314
2.100000 51.360124
2.150000 51.736974
2.200000 51.870584
2.250000 51.730124
2.300000 51.257344
2.350000 50.380324
2.400000 49.164124
2.450000 47.667014
2.500000 45.861574
2.550000 43.761494
2.600000 41.486714
2.650000 39.088584
2.700000 36.567124
2.750000 34.042254
2.800000 31.647544
2.850000 29.348774
2.900000 27.128794
2.950000 25.121224
3.000000 23.394584
3.050000 21.866639
3.100000 20.530535
3.150000 19.437681
3.200000 18.557228
3.250000 17.848064
3.300000 17.365018
3.350000 17.101222
3.400000 16.995020
3.450000 17.032706
3.500000 17.275942
3.550000 17.711027
3.600000 18.259170
3.650000 18.851848
3.700000 19.478787
3.750000 20.126280
3.800000 20.742946
3.850000 21.277378
3.900000 21.698764
3.950000 21.969410
4.000000 22.072192
4.050000 22.010517
4.100000 21.770713
4.150000 21.332198
4.200000 20.739517
4.250000 20.057760
4.300000 19.280084
4.350000 18.403062
4.400000 17.457518
4.450000 16.494834
4.500000 15.535587
4.550000 14.600317
4.600000 13.702741
4.650000 12.849695
4.700000 12.041182
4.750000 11.263506
4.800000 10.537220
4.850000 9.900001
4.900000 9.345006
4.950000 8.837974
5.000000 8.409738
5.050000 8.094556
5.100000 7.851317
5.150000 7.669745
5.200000 7.604654
5.250000 7.656042
5.300000 7.748538
5.350000 7.899281
5.400000 8.149369
5.450000 8.430294
5.500000 8.670109
5.550000 8.899640
5.600000 9.132603
5.650000 9.310749
5.700000 9.410101
5.750000 9.471762
5.800000 9.488897
5.850000 9.440935
5.900000 9.351853
5.950000 9.249077
6.000000 9.136030
6.050000 8.992137
6.100000 8.807141
6.150000 8.594736
6.200000 8.354924
6.250000 8.060297
6.300000 7.704004
6.350000 7.313453
6.400000 6.892068
6.450000 6.422721
6.500000 5.943097
6.550000 5.466898
6.600000 5.004403
6.650000 4.586445
6.700000 4.226726
6.750000 3.904693
6.800000 3.668306
6.850000 3.548400
6.900000 3.493586
6.950000 3.469604
7.000000 3.520993
7.050000 3.616918
7.100000 3.712843
7.150000 3.819045
7.200000 3.962933
7.250000 4.093116
7.300000 4.213023
7.350000 4.343207
7.400000 4.442557
7.450000 4.497372
7.500000 4.565890
7.550000 4.648111
7.600000 4.699500
7.650000 4.709777
7.700000 4.720054
7.750000 4.716628
7.800000 4.672092
7.850000 4.600148
7.900000 4.490519
7.950000 4.346633
8.000000 4.206171
8.050000 4.052006
8.100000 3.825897
8.150000 3.579233
8.200000 3.353124
8.250000 3.106460
8.300000 2.811834
8.350000 2.527485
8.400000 2.273969
8.450000 2.006749
8.500000 1.749808
8.550000 1.537403
8.600000 1.355831
8.650000 1.177684
8.700000 1.030371
8.750000 0.955001
8.800000 0.944724
8.850000 0.982409
8.900000 1.061204
8.950000 1.191388
9.000000 1.376386
9.050000 1.609347
9.100000 1.849158
9.150000 2.099249
9.200000 2.363042
9.250000 2.606280
9.300000 2.791279
9.350000 2.931740
9.400000 3.037943
9.450000 3.065350
9.500000 3.024239
9.550000 2.962573
9.600000 2.887204
9.650000 2.770723
9.700000 2.647391
9.750000 2.544614
9.800000 2.424708
9.850000 2.267117
9.900000 2.116378
9.950000 1.999898
10.000000 1.852584
10.050000 1.677864
10.100000 1.527125
10.150000 1.369534
10.200000 1.167407
10.250000 0.972131
10.300000 0.828244
10.350000 0.698060
10.400000 0.591857
10.450000 0.557598
10.500000 0.574727
10.550000 0.608986
10.600000 0.677504
10.650000 0.790559
10.700000 0.924168
10.750000 1.047501
10.800000 1.163981
10.850000 1.253054
10.900000 1.301016
10.950000 1.324997
11.000000 1.324998
11.050000 1.273609
11.100000 1.163981
11.150000 1.050926
11.200000 0.958427
11.250000 0.865929
11.300000 0.780281
11.350000 0.728893
11.400000 0.715189
11.450000 0.708337
11.500000 0.708337
11.550000 0.746022
11.600000 0.811114
11.650000 0.859076
11.700000 0.883058
11.750000 0.907039
11.800000 0.913890
11.850000 0.886484
11.900000 0.838521
11.950000 0.759725
12.000000 0.650097
12.050000 0.557598
12.100000 0.465099
12.150000 0.365748
12.200000 0.280101
12.250000 0.245842
12.300000 0.235565
12.350000 0.245843
12.400000 0.293805
12.450000 0.338341
12.500000 0.365748
12.550000 0.410285
12.600000 0.482229
12.650000 0.537043
12.700000 0.550746
12.750000 0.574727
12.800000 0.615838
12.850000 0.622690
12.900000 0.581579
12.950000 0.519913
13.000000 0.489080
13.050000 0.489080
13.100000 0.495932
13.150000 0.492506
13.200000 0.502784
13.250000 0.499358
13.300000 0.451396
13.350000 0.403433
13.400000 0.379452
13.450000 0.334916
13.500000 0.228713
13.550000 0.105380
13.600000 0.009456
13.650000 -0.086469
13.700000 -0.172116
13.750000 -0.209802
13.800000 -0.192672
13.850000 -0.148135
13.900000 -0.093321
13.950000 -0.035081
14.000000 0.030011
14.050000 0.084826
14.100000 0.101954
14.150000 0.088251
14.200000 0.105380
14.250000 0.139640
14.300000 0.119085
14.350000 0.053993
14.400000 0.012881
14.450000 -0.004248
14.500000 -0.031655
14.550000 -0.055636
14.600000 -0.045359
14.650000 -0.028230
14.700000 -0.028229
14.750000 -0.038507
14.800000 -0.021378
14.850000 -0.011100
14.900000 -0.048784
14.950000 -0.089895
15.000000 -0.083043
15.050000 -0.079617
15.100000 -0.110451
15.150000 -0.131006
15.200000 -0.107024
15.250000 -0.069340
15.300000 -0.031655
15.350000 0.012882
15.400000 0.053992
15.450000 0.095103
15.500000 0.143065
15.550000 0.211583
15.600000 0.276675
15.650000 0.334915
15.700000 0.369174
15.750000 0.396581
15.800000 0.396582
15.850000 0.362323
15.900000 0.300656
15.950000 0.262972
16.000000 0.215010
16.050000 0.139640
16.100000 0.053992
16.150000 -0.021377
16.200000 -0.103599
16.250000 -0.165264
16.300000 -0.182394
16.350000 -0.196098
16.400000 -0.233783
16.450000 -0.257763
16.500000 -0.261190
16.550000 -0.271467
16.600000 -0.285171
16.650000 -0.309152
16.700000 -0.357115
16.750000 -0.408503
16.800000 -0.435910
16.850000 -0.470169
16.900000 -0.524984
16.950000 -0.562668
17.000000 -0.559243
17.050000 -0.559242
17.100000 -0.548965
17.150000 -0.528409
17.200000 -0.524983
17.250000 -0.521557
17.300000 -0.504428
17.350000 -0.501002
17.400000 -0.524983
17.450000 -0.555816
17.500000 -0.590075
17.550000 -0.624334
17.600000 -0.641463
17.650000 -0.624334
17.700000 -0.593501
17.750000 -0.531835
17.800000 -0.449614
17.850000 -0.370818
17.900000 -0.295449
17.950000 -0.206375
18.000000 -0.131006
18.050000 -0.065914
18.100000 0.012881
18.150000 0.081399
18.200000 0.081400
18.250000 0.057418
18.300000 0.040289
18.350000 0.006030
18.400000 -0.035081
18.450000 -0.072766
18.500000 -0.148136
18.550000 -0.240635
18.600000 -0.288597
18.650000 -0.309152
18.700000 -0.336560
18.750000 -0.350263
18.800000 -0.329707
18.850000 -0.322855
18.900000 -0.316004
18.950000 -0.285171
19.000000 -0.271467
19.050000 -0.281745
19.100000 -0.305726
19.150000 -0.336559
19.200000 -0.370818
19.250000 -0.408503
19.300000 -0.456466
19.350000 -0.504428
19.400000 -0.480447
19.450000 -0.422206
19.500000 -0.387948
19.550000 -0.339985
19.600000 -0.223505
19.650000 -0.086469
19.700000 0.006030
19.750000 0.084825
19.800000 0.167046
19.850000 0.215009
19.900000 0.218435
19.950000 0.194454
20.000000 0.136214
20.050000 0.047140
20.100000 -0.038507
20.150000 -0.124154
20.200000 -0.209801
20.250000 -0.268042
20.300000 -0.305726
20.350000 -0.353688
20.400000 -0.394799
20.450000 -0.422206
20.500000 -0.459892
20.550000 -0.535260
20.600000 -0.614056
20.650000 -0.682574
20.700000 -0.764795
20.750000 -0.870998
20.800000 -0.936090
20.850000 -0.942942
20.900000 -0.912109
20.950000 -0.857295
21.000000 -0.757943
21.050000 -0.610630
21.100000 -0.456465
21.150000 -0.353689
21.200000 -0.298875
21.250000 -0.244060
21.300000 -0.216654
21.350000 -0.254338
21.400000 -0.312578
21.450000 -0.370819
21.500000 -0.456466
21.550000 -0.538687
21.600000 -0.566094
21.650000 -0.559242
21.700000 -0.535261
21.750000 -0.449614
21.800000 -0.322855
21.850000 -0.216653
21.900000 -0.131006
21.950000 -0.052210
22.000000 -0.017951
22.050000 -0.045359
22.100000 -0.103599
22.150000 -0.213227
22.200000 -0.357115
22.250000 -0.501002
22.300000 -0.644889
22.350000 -0.775073
22.400000 -0.881276
22.450000 -0.949793
22.500000 -0.977201
22.550000 -0.963497
22.600000 -0.922387
22.650000 -0.867572
22.700000 -0.771648
22.750000 -0.662018
22.800000 -0.579797
22.850000 -0.504428
22.900000 -0.422206
22.950000 -0.370818
23.000000 -0.353689
23.050000 -0.343411
23.100000 -0.350263
23.150000 -0.381096
23.200000 -0.394800
23.250000 -0.398225
23.300000 -0.411929
23.350000 -0.432484
23.400000 -0.435910
23.450000 -0.432485
23.500000 -0.435910
23.550000 -0.463317
23.600000 -0.504428
23.650000 -0.542112
23.700000 -0.586649
23.750000 -0.624333
23.800000 -0.631186
23.850000 -0.603778
23.900000 -0.590075
23.950000 -0.583223
24.000000 -0.528409
24.050000 -0.459891
24.100000 -0.408503
24.150000 -0.363967
24.200000 -0.312578
24.250000 -0.309152
24.300000 -0.336559
24.350000 -0.381096
24.400000 -0.453040
24.450000 -0.548965
24.500000 -0.631186
24.550000 -0.686000
24.600000 -0.730537
24.650000 -0.757944
24.700000 -0.761370
24.750000 -0.747666
24.800000 -0.713407
24.850000 -0.655167
24.900000 -0.610630
24.950000 -0.600353
25.000000 -0.607204
25.050000 -0.627760
25.100000 -0.689426
25.150000 -0.785351
25.200000 -0.867572
25.250000 -0.949794
25.300000 -1.059422
25.350000 -1.162199
25.400000 -1.237568
25.450000 -1.299235
25.500000 -1.343771
25.550000 -1.360900
25.600000 -1.326641
25.650000 -1.234143
25.700000 -1.114236
25.750000 -0.973774
25.800000 -0.788777
25.850000 -0.579798
25.900000 -0.398226
25.950000 -0.244060
26.000000 -0.120728
26.050000 -0.069340
26.100000 -0.093321
26.150000 -0.134432
26.200000 -0.213227
26.250000 -0.363967
26.300000 -0.531835
26.350000 -0.668871
26.400000 -0.833314
26.450000 -0.980626
26.500000 -1.042293
26.550000 -1.045719
26.600000 -1.035441
26.650000 -0.970348
26.700000 -0.867572
26.750000 -0.785351
26.800000 -0.727110
26.850000 -0.672297
26.900000 -0.655167
26.950000 -0.662018
27.000000 -0.686000
27.050000 -0.737388
27.100000 -0.785351
27.150000 -0.812758
27.200000 -0.853868
27.250000 -0.888128
27.300000 -0.857295
27.350000 -0.795628
27.400000 -0.764796
27.450000 -0.713408
27.500000 -0.617482
27.550000 -0.528409
27.600000 -0.487299
27.650000 -0.453040
27.700000 -0.418781
27.750000 -0.398225
27.800000 -0.391374
27.850000 -0.405077
27.900000 -0.459891
27.950000 -0.507853
28.000000 -0.514706
28.050000 -0.518132
28.100000 -0.583223
28.150000 -0.699703
28.200000 -0.795629
28.250000 -0.867572
28.300000 -0.939516
28.350000 -1.011460
28.400000 -1.055997
28.450000 -1.090255
28.500000 -1.121088
28.550000 -1.134792
28.600000 -1.121088
28.650000 -1.066274
28.700000 -0.990905
28.750000 -0.918961
28.800000 -0.819609
28.850000 -0.651741
28.900000 -0.477021
28.950000 -0.343411
29.000000 -0.216653
29.050000 -0.093321
29.100000 -0.004248
29.150000 0.060844
29.200000 0.095103
29.250000 0.067695
29.300000 -0.011099
29.350000 -0.089895
29.400000 -0.189246
29.450000 -0.353689
29.500000 -0.542113
29.550000 -0.716833
29.600000 -0.853868
29.650000 -0.970349
29.700000 -1.069700
29.750000 -1.145069
29.800000 -1.186180
29.850000 -1.175902
29.900000 -1.138217
29.950000 -1.079977
30.000000 -0.980626
30.050000 -0.864146
30.100000 -0.781925
30.150000 -0.716833
30.200000 -0.638037
30.250000 -0.576372
30.300000 -0.572946
30.350000 -0.603778
30.400000 -0.624334
30.450000 -0.631185
30.500000 -0.638037
30.550000 -0.655167
30.600000 -0.686000
30.650000 -0.692852
30.700000 -0.672297
30.750000 -0.658593
30.800000 -0.658593
30.850000 -0.658593
30.900000 -0.668871
30.950000 -0.696278
31.000000 -0.727111
31.050000 -0.764795
31.100000 -0.833313
31.150000 -0.918960
31.200000 -0.984052
31.250000 -1.014885
31.300000 -1.018312
31.350000 -1.008034
31.400000 -0.997756
31.450000 -0.966923
31.500000 -0.925812
31.550000 -0.891554
31.600000 -0.864146
31.650000 -0.847017
31.700000 -0.870998
31.750000 -0.905257
31.800000 -0.908683
31.850000 -0.922387
31.900000 -0.956645
31.950000 -0.977201
32.000000 -0.987478
32.050000 -1.011460
32.100000 -1.038866
32.150000 -1.055997
32.200000 -1.086829
32.250000 -1.114236
32.300000 -1.155347
32.350000 -1.217013
32.400000 -1.258123
32.450000 -1.292382
32.500000 -1.367752
32.550000 -1.419141
32.600000 -1.388307
32.650000 -1.330068
32.700000 -1.306086
32.750000 -1.247846
32.800000 -1.131366
32.850000 -1.028589
32.900000 -0.960071
32.950000 -0.888127
33.000000 -0.829887
33.050000 -0.802480
33.100000 -0.792202
33.150000 -0.792203
33.200000 -0.847017
33.250000 -0.932664
33.300000 -0.997756
33.350000 -1.038867
33.400000 -1.069700
33.450000 -1.083403
33.500000 -1.066274
33.550000 -1.049144
33.600000 -1.008034
33.650000 -0.946368
33.700000 -0.898405
33.750000 -0.860720
33.800000 -0.809332
33.850000 -0.778499
33.900000 -0.795628
33.950000 -0.816183
34.000000 -0.812758
34.050000 -0.833313
34.100000 -0.888127
34.150000 -0.929238
34.200000 -0.939516
34.250000 -0.963497
34.300000 -1.011460
34.350000 -1.055996
34.400000 -1.076552
34.450000 -1.086829
34.500000 -1.117662
34.550000 -1.131366
34.600000 -1.124514
34.650000 -1.103959
34.700000 -1.076552
34.750000 -1.042292
34.800000 -1.008034
34.850000 -0.966923
34.900000 -0.901831
34.950000 -0.833313
35.000000 -0.799054
35.050000 -0.778499
35.100000 -0.771647
35.150000 -0.778499
35.200000 -0.792203
35.250000 -0.826461
35.300000 -0.894979
35.350000 -0.966923
35.400000 -1.018312
35.450000 -1.062848
35.500000 -1.114236
35.550000 -1.151921
35.600000 -1.175902
35.650000 -1.189606
35.700000 -1.175902
35.750000 -1.145069
35.800000 -1.110811
35.850000 -1.059422
35.900000 -1.011459
35.950000 -0.973775
36.000000 -0.953220
36.050000 -0.936090
36.100000 -0.918961
36.150000 -0.898405
36.200000 -0.888128
36.250000 -0.888127
36.300000 -0.881275
36.350000 -0.847017
36.400000 -0.771647
36.450000 -0.658593
36.500000 -0.552391
36.550000 -0.463317
36.600000 -0.387948
36.650000 -0.322855
36.700000 -0.319430
36.750000 -0.360541
36.800000 -0.418781
36.850000 -0.511280
36.900000 -0.668871
36.950000 -0.874424
37.000000 -1.059422
37.050000 -1.199883
37.100000 -1.309512
37.150000 -1.398586
37.200000 -1.432844
37.250000 -1.374604
37.300000 -1.258123
37.350000 -1.127940
37.400000 -0.977201
37.450000 -0.805906
37.500000 -0.648315
37.550000 -0.524984
37.600000 -0.422207
37.650000 -0.363966
37.700000 -0.391374
37.750000 -0.477021
37.800000 -0.583223
37.850000 -0.706556
37.900000 -0.894979
37.950000 -1.124514
38.000000 -1.326642
38.050000 -1.494510
38.100000 -1.658953
38.150000 -1.778859
38.200000 -1.813118
38.250000 -1.789137
38.300000 -1.748026
38.350000 -1.648675
38.400000 -1.521917
38.450000 -1.422567
38.500000 -1.357475
38.550000 -1.271827
38.600000 -1.203309
38.650000 -1.182755
38.700000 -1.206735
38.750000 -1.258123
38.800000 -1.312938
38.850000 -1.343771
38.900000 -1.374604
38.950000 -1.405437
39.000000 -1.415715
39.050000 -1.391734
39.100000 -1.367753
39.150000 -1.350623
39.200000 -1.306086
39.250000 -1.264976
39.300000 -1.254698
39.350000 -1.244420
39.400000 -1.213587
39.450000 -1.196457
39.500000 -1.196457
39.550000 -1.169051
39.600000 -1.124514
39.650000 -1.107385
39.700000 -1.093681
39.750000 -1.066274
39.800000 -1.052570
39.850000 -1.055996
39.900000 -1.042292
39.950000 -1.042292
40.000000 -1.073125
40.050000 -1.103959
40.100000 -1.114236
40.150000 -1.134792
40.200000 -1.162199
40.250000 -1.165624
40.300000 -1.165624
40.350000 -1.162199
40.400000 -1.141643
40.450000 -1.121088
40.500000 -1.110811
40.550000 -1.100533
40.600000 -1.079977
40.650000 -1.062847
40.700000 -1.045719
40.750000 -1.018312
40.800000 -0.987478
40.850000 -0.942942
40.900000 -0.908683
40.950000 -0.901831
41.000000 -0.901831
41.050000 -0.891553
41.100000 -0.905257
41.150000 -0.963497
41.200000 -1.021737
41.250000 -1.083403
41.300000 -1.175903
41.350000 -1.285531
41.400000 -1.381456
41.450000 -1.463677
41.500000 -1.511639
41.550000 -1.511640
41.600000 -1.484232
41.650000 -1.432844
41.700000 -1.330068
41.750000 -1.206735
41.800000 -1.073126
41.850000 -0.915535
41.900000 -0.744241
41.950000 -0.614056
42.000000 -0.507853
42.050000 -0.394799
42.100000 -0.295449
42.150000 -0.216653
42.200000 -0.161839
42.250000 -0.154987
42.300000 -0.178968
42.350000 -0.206375
42.400000 -0.271468
42.450000 -0.370818
42.500000 -0.459891
42.550000 -0.542112
42.600000 -0.662018
42.650000 -0.778499
42.700000 -0.853869
42.750000 -0.929238
42.800000 -0.994330
42.850000 -1.025163
42.900000 -1.035440
42.950000 -1.049144
43.000000 -1.032015
43.050000 -0.984053
43.100000 -0.946367
43.150000 -0.915535
43.200000 -0.898406
43.250000 -0.881276
43.300000 -0.884702
43.350000 -0.905257
43.400000 -0.942942
43.450000 -0.994331
43.500000 -1.052570
43.550000 -1.107384
43.600000 -1.158773
43.650000 -1.193031
43.700000 -1.217013
43.750000 -1.247846
43.800000 -1.264975
43.850000 -1.258123
43.900000 -1.261549
43.950000 -1.292382
44.000000 -1.299234
44.050000 -1.292382
44.100000 -1.302660
44.150000 -1.309512
44.200000 -1.288957
44.250000 -1.271827
44.300000 -1.254697
44.350000 -1.199883
44.400000 -1.138218
44.450000 -1.083403
44.500000 -1.001182
44.550000 -0.901831
44.600000 -0.829887
44.650000 -0.775073
44.700000 -0.713407
44.750000 -0.675722
44.800000 -0.672296
44.850000 -0.675722
44.900000 -0.699704
44.950000 -0.730536
45.000000 -0.751092
45.050000 -0.785351
45.100000 -0.850443
45.150000 -0.877850
45.200000 -0.853869
45.250000 -0.843591
45.300000 -0.840166
45.350000 -0.802480
45.400000 -0.751091
45.450000 -0.692852
45.500000 -0.638037
45.550000 -0.624334
45.600000 -0.655167
45.650000 -0.668870
45.700000 -0.655167
45.750000 -0.686000
45.800000 -0.751092
45.850000 -0.799055
45.900000 -0.826461
45.950000 -0.847017
46.000000 -0.860720
46.050000 -0.870999
46.100000 -0.881275
46.150000 -0.877850
46.200000 -0.888127
46.250000 -0.942942
46.300000 -1.025163
46.350000 -1.121088
46.400000 -1.234142
46.450000 -1.333493
46.500000 -1.412288
46.550000 -1.494510
46.600000 -1.545898
46.650000 -1.511640
46.700000 -1.425992
46.750000 -1.340345
46.800000 -1.213587
46.850000 -1.042292
46.900000 -0.888128
46.950000 -0.768221
47.000000 -0.644889
47.050000 -0.562668
47.100000 -0.552390
47.150000 -0.579798
47.200000 -0.617482
47.250000 -0.686000
47.300000 -0.775073
47.350000 -0.860720
47.400000 -0.929238
47.450000 -0.977200
47.500000 -1.018312
47.550000 -1.038866
47.600000 -1.032015
47.650000 -1.014885
47.700000 -0.987478
47.750000 -0.960071
47.800000 -0.918960
47.850000 -0.867572
47.900000 -0.826462
47.950000 -0.799054
48.000000 -0.768222
48.050000 -0.737389
48.100000 -0.723685
48.150000 -0.733962
48.200000 -0.768222
48.250000 -0.802480
48.300000 -0.836739
48.350000 -0.894979
48.400000 -0.966923
48.450000 -1.042293
48.500000 -1.110811
48.550000 -1.155347
48.600000 -1.169050
48.650000 -1.172476
48.700000 -1.151921
48.750000 -1.066274
48.800000 -0.946368
48.850000 -0.853869
48.900000 -0.799055
48.950000 -0.733962
49.000000 -0.675722
49.050000 -0.665445
49.100000 -0.696277
49.150000 -0.730537
49.200000 -0.785351
49.250000 -0.864147
49.300000 -0.939516
49.350000 -0.987479
49.400000 -1.021737
49.450000 -1.069699
49.500000 -1.121088
49.550000 -1.138217
49.600000 -1.121088
49.650000 -1.097107
49.700000 -1.062848
49.750000 -1.008034
49.800000 -0.953220
49.850000 -0.915535
49.900000 -0.888128
49.950000 -0.860721
50.000000 -0.836739
50.050000 -0.816184
50.100000 -0.802480
50.150000 -0.768222
50.200000 -0.703129
50.250000 -0.665445
50.300000 -0.662019
50.350000 -0.627759
50.400000 -0.559242
50.450000 -0.535261
50.500000 -0.552390
50.550000 -0.545538
50.600000 -0.535261
50.650000 -0.548965
50.700000 -0.586649
50.750000 -0.620909
50.800000 -0.675722
50.850000 -0.733963
50.900000 -0.775073
50.950000 -0.812758
51.000000 -0.847016
51.050000 -0.870998
51.100000 -0.891553
51.150000 -0.908682
51.200000 -0.888128
51.250000 -0.850443
51.300000 -0.840165
51.350000 -0.847017
51.400000 -0.840165
51.450000 -0.829888
51.500000 -0.843591
51.550000 -0.864147
51.600000 -0.874424
51.650000 -0.894979
51.700000 -0.925812
51.750000 -0.939516
51.800000 -0.922387
51.850000 -0.901831
51.900000 -0.884702
51.950000 -0.847017
52.000000 -0.781925
52.050000 -0.716833
52.100000 -0.651741
52.150000 -0.583223
52.200000 -0.524983
52.250000 -0.480446
52.300000 -0.453039
52.350000 -0.442762
52.400000 -0.470169
52.450000 -0.531834
52.500000 -0.614056
52.550000 -0.703130
52.600000 -0.799054
52.650000 -0.898405
52.700000 -0.984052
52.750000 -1.055996
52.800000 -1.114236
52.850000 -1.131366
52.900000 -1.097107
52.950000 -1.052570
53.000000 -0.980626
53.050000 -0.853869
53.100000 -0.709982
53.150000 -0.590075
53.200000 -0.470169
53.250000 -0.333134
53.300000 -0.213227
53.350000 -0.148135
53.400000 -0.120728
53.450000 -0.127580
53.500000 -0.172117
53.550000 -0.233783
53.600000 -0.309152
53.650000 -0.411928
53.700000 -0.548965
53.750000 -0.668871
53.800000 -0.751092
53.850000 -0.829888
53.900000 -0.918961
53.950000 -1.008034
54.000000 -1.066274
54.050000 -1.069699
54.100000 -1.049144
54.150000 -1.052570
54.200000 -1.062847
54.250000 -1.052570
54.300000 -1.021737
54.350000 -0.987478
54.400000 -0.942942
54.450000 -0.874424
54.500000 -0.819610
54.550000 -0.764795
54.600000 -0.692852
54.650000 -0.607205
54.700000 -0.559242
54.750000 -0.559242
54.800000 -0.566094
54.850000 -0.583224
54.900000 -0.627760
54.950000 -0.686000
55.000000 -0.751092
55.050000 -0.843591
55.100000 -0.953219
55.150000 -1.038867
55.200000 -1.093681
55.250000 -1.134792
55.300000 -1.155347
55.350000 -1.148495
55.400000 -1.124514
55.450000 -1.079977
55.500000 -1.025163
55.550000 -0.966923
55.600000 -0.901831
55.650000 -0.833314
55.700000 -0.775073
55.750000 -0.744240
55.800000 -0.751092
55.850000 -0.785350
55.900000 -0.816184
55.950000 -0.836739
56.000000 -0.860720
56.050000 -0.915534
56.100000 -0.994330
56.150000 -1.059422
56.200000 -1.097107
56.250000 -1.107384
56.300000 -1.121088
56.350000 -1.134792
56.400000 -1.131366
56.450000 -1.107385
56.500000 -1.093681
56.550000 -1.100532
56.600000 -1.110810
56.650000 -1.107384
56.700000 -1.103959
56.750000 -1.131366
56.800000 -1.169050
56.850000 -1.179328
56.900000 -1.165625
56.950000 -1.165625
57.000000 -1.148495
57.050000 -1.076552
57.100000 -0.990905
57.150000 -0.922387
57.200000 -0.850442
57.250000 -0.775073
57.300000 -0.737388
57.350000 -0.740815
57.400000 -0.744240
57.450000 -0.740814
57.500000 -0.781925
57.550000 -0.843591
57.600000 -0.864146
57.650000 -0.857294
57.700000 -0.870998
57.750000 -0.898406
57.800000 -0.877850
57.850000 -0.812758
57.900000 -0.744240
57.950000 -0.665445
58.000000 -0.583223
58.050000 -0.521557
58.100000 -0.466743
58.150000 -0.411929
58.200000 -0.391373
58.250000 -0.411928
58.300000 -0.442762
58.350000 -0.487298
58.400000 -0.548964
58.450000 -0.603779
58.500000 -0.651741
58.550000 -0.716833
58.600000 -0.775073
58.650000 -0.785351
58.700000 -0.740815
58.750000 -0.689426
58.800000 -0.627760
58.850000 -0.576372
58.900000 -0.521557
58.950000 -0.453040
59.000000 -0.377670
59.050000 -0.322856
59.100000 -0.319430
59.150000 -0.333133
59.200000 -0.350262
59.250000 -0.377670
59.300000 -0.411928
59.350000 -0.422206
59.400000 -0.405077
59.450000 -0.374244
59.500000 -0.336560
59.550000 -0.309152
59.600000 -0.295449
59.650000 -0.292023
59.700000 -0.316004
59.750000 -0.377670
59.800000 -0.470169
59.850000 -0.572945
59.900000 -0.727111
59.950000 -0.912109
60.000000 -1.069700
60.050000 -1.172476
60.100000 -1.261550
60.150000 -1.343771
60.200000 -1.381455
60.250000 -1.357474
60.300000 -1.282105
60.350000 -1.193032
60.400000 -1.110811
60.450000 -1.011460
60.500000 -0.898405
60.550000 -0.781925
60.600000 -0.686000
60.650000 -0.610631
60.700000 -0.552390
60.750000 -0.514706
60.800000 -0.490725
60.850000 -0.507854
60.900000 -0.552390
60.950000 -0.576372
61.000000 -0.593501
61.050000 -0.638038
61.100000 -0.703129
61.150000 -0.737388
61.200000 -0.730536
61.250000 -0.716833
61.300000 -0.709981
61.350000 -0.713407
61.400000 -0.723685
61.450000 -0.713407
61.500000 -0.696278
61.550000 -0.727111
61.600000 -0.788777
61.650000 -0.857295
61.700000 -0.949793
61.750000 -1.079978
61.800000 -1.186180
61.850000 -1.254697
61.900000 -1.319790
61.950000 -1.371178
62.000000 -1.374604
62.050000 -1.360900
62.100000 -1.340345
62.150000 -1.295809
62.200000 -1.227291
62.250000 -1.172476
62.300000 -1.138218
62.350000 -1.107384
62.400000 -1.073126
62.450000 -1.055996
62.500000 -1.076551
62.550000 -1.107385
62.600000 -1.121088
62.650000 -1.117662
62.700000 -1.134792
62.750000 -1.148496
62.800000 -1.134791
62.850000 -1.103959
62.900000 -1.086829
62.950000 -1.052570
63.000000 -0.987478
63.050000 -0.922386
63.100000 -0.860720
63.150000 -0.788777
63.200000 -0.709981
63.250000 -0.651741
63.300000 -0.607205
63.350000 -0.596927
63.400000 -0.624334
63.450000 -0.655167
63.500000 -0.672297
63.550000 -0.703129
63.600000 -0.757944
63.650000 -0.788777
63.700000 -0.805906
63.750000 -0.829888
63.800000 -0.843591
63.850000 -0.843591
63.900000 -0.860721
63.950000 -0.901831
64.000000 -0.915535
64.050000 -0.925812
64.100000 -0.973775
64.150000 -1.045718
64.200000 -1.073126
64.250000 -1.066274
64.300000 -1.083403
64.350000 -1.100533
64.400000 -1.066274
64.450000 -0.994330
64.500000 -0.939516
64.550000 -0.891554
64.600000 -0.802481
64.650000 -0.716833
64.700000 -0.675722
64.750000 -0.648315
64.800000 -0.607205
64.850000 -0.586649
64.900000 -0.590075
64.950000 -0.614057
65.000000 -0.648315
65.050000 -0.689426
65.100000 -0.740814
65.150000 -0.795628
65.200000 -0.826462
65.250000 -0.840165
65.300000 -0.881276
65.350000 -0.939516
65.400000 -0.970349
65.450000 -0.994330
65.500000 -1.055997
65.550000 -1.100533
65.600000 -1.114236
65.650000 -1.145069
65.700000 -1.189606
65.750000 -1.206735
65.800000 -1.220439
65.850000 -1.227291
65.900000 -1.196457
65.950000 -1.134791
66.000000 -1.076552
66.050000 -1.001182
66.100000 -0.908683
66.150000 -0.823035
66.200000 -0.744240
66.250000 -0.651741
66.300000 -0.586649
66.350000 -0.572945
66.400000 -0.593501
66.450000 -0.648315
66.500000 -0.740814
66.550000 -0.867572
66.600000 -1.004608
66.650000 -1.141643
66.700000 -1.275253
66.750000 -1.408863
66.800000 -1.528769
66.850000 -1.600713
66.900000 -1.628120
66.950000 -1.631545
67.000000 -1.600713
67.050000 -1.542472
67.100000 -1.480806
67.150000 -1.398585
67.200000 -1.295808
67.250000 -1.220439
67.300000 -1.162198
67.350000 -1.083404
67.400000 -0.990904
67.450000 -0.925813
67.500000 -0.874424
67.550000 -0.799054
67.600000 -0.740814
67.650000 -0.740814
67.700000 -0.747666
67.750000 -0.730536
67.800000 -0.733962
67.850000 -0.778499
67.900000 -0.840165
67.950000 -0.877850
68.000000 -0.918960
68.050000 -0.966923
68.100000 -1.004608
68.150000 -1.001182
68.200000 -0.956645
68.250000 -0.877850
68.300000 -0.778499
68.350000 -0.672297
68.400000 -0.555816
68.450000 -0.442761
68.500000 -0.353689
68.550000 -0.285171
68.600000 -0.220079
68.650000 -0.172116
68.700000 -0.168690
68.750000 -0.185820
68.800000 -0.202950
68.850000 -0.244060
68.900000 -0.312578
68.950000 -0.387947
69.000000 -0.453040
69.050000 -0.501002
69.100000 -0.542113
69.150000 -0.576371
69.200000 -0.614057
69.250000 -0.658593
69.300000 -0.720259
69.350000 -0.778499
69.400000 -0.809332
69.450000 -0.826462
69.500000 -0.850443
69.550000 -0.857295
69.600000 -0.847016
69.650000 -0.867573
69.700000 -0.905257
69.750000 -0.932664
69.800000 -0.963497
69.850000 -1.011459
69.900000 -1.055996
69.950000 -1.090255
70.000000 -1.114236
70.050000 -1.145069
70.100000 -1.172476
70.150000 -1.206735
70.200000 -1.230717
70.250000 -1.244420
70.300000 -1.264975
70.350000 -1.302660
70.400000 -1.333493
70.450000 -1.354049
70.500000 -1.381456
70.550000 -1.415714
70.600000 -1.432844
70.650000 -1.436270
70.700000 -1.443122
70.750000 -1.443122
70.800000 -1.408863
70.850000 -1.357475
70.900000 -1.288957
70.950000 -1.196457
71.000000 -1.083404
71.050000 -0.990904
71.100000 -0.929238
71.150000 -0.874424
71.200000 -0.829887
71.250000 -0.823036
71.300000 -0.836739
71.350000 -0.850443
71.400000 -0.864146
71.450000 -0.894979
71.500000 -0.925812
71.550000 -0.939516
71.600000 -0.942941
71.650000 -0.922386
71.700000 -0.901831
71.750000 -0.908683
71.800000 -0.888127
71.850000 -0.836739
71.900000 -0.853869
71.950000 -0.932664
72.000000 -0.963497
72.050000 -1.001182
72.100000 -1.134791
72.150000 -1.282105
72.200000 -1.357475
72.250000 -1.446548
72.300000 -1.569880
72.350000 -1.631546
72.400000 -1.638397
72.450000 -1.645249
72.500000 -1.617842
72.550000 -1.542472
72.600000 -1.456826
72.650000 -1.364326
72.700000 -1.261549
72.750000 -1.206735
72.800000 -1.179328
72.850000 -1.131365
72.900000 -1.100533
72.950000 -1.117662
73.000000 -1.141644
73.050000 -1.162199
73.100000 -1.196457
73.150000 -1.234142
73.200000 -1.268401
73.250000 -1.295808
73.300000 -1.312938
73.350000 -1.309512
73.400000 -1.312938
73.450000 -1.316364
73.500000 -1.295808
73.550000 -1.261549
73.600000 -1.227290
73.650000 -1.175902
73.700000 -1.124514
73.750000 -1.066273
73.800000 -1.004608
73.850000 -0.963498
73.900000 -0.942942
73.950000 -0.905257
74.000000 -0.864147
74.050000 -0.867572
74.100000 -0.884702
74.150000 -0.860720
74.200000 -0.853869
74.250000 -0.912109
74.300000 -0.970349
74.350000 -0.990905
74.400000 -1.014885
74.450000 -1.045719
74.500000 -1.069699
74.550000 -1.086829
74.600000 -1.083403
74.650000 -1.059422
74.700000 -1.062848
74.750000 -1.073126
74.800000 -1.032015
74.850000 -0.987479
74.900000 -1.001182
74.950000 -0.997756
75.000000 -0.939516
75.050000 -0.894980
75.100000 -0.888127
75.150000 -0.857294
75.200000 -0.826461
75.250000 -0.836739
75.300000 -0.847017
75.350000 -0.823036
75.400000 -0.809332
75.450000 -0.812758
75.500000 -0.823036
75.550000 -0.843591
75.600000 -0.874424
75.650000 -0.905257
75.700000 -0.922386
75.750000 -0.942941
75.800000 -0.977201
75.850000 -1.014885
75.900000 -1.038866
75.950000 -1.066274
76.000000 -1.100532
76.050000 -1.107385
76.100000 -1.086829
76.150000 -1.069699
76.200000 -1.055996
76.250000 -1.011460
76.300000 -0.963497
76.350000 -0.922386
76.400000 -0.853868
76.450000 -0.778499
76.500000 -0.737389
76.550000 -0.699703
76.600000 -0.620908
76.650000 -0.542112
76.700000 -0.497576
76.750000 -0.439336
76.800000 -0.363966
76.850000 -0.319430
76.900000 -0.292023
76.950000 -0.237209
77.000000 -0.172117
77.050000 -0.127580
77.100000 -0.127580
77.150000 -0.151561
77.200000 -0.185820
77.250000 -0.233782
77.300000 -0.319430
77.350000 -0.432484
77.400000 -0.538687
77.450000 -0.651741
77.500000 -0.781925
77.550000 -0.901831
77.600000 -0.977201
77.650000 -1.028589
77.700000 -1.083403
77.750000 -1.121088
77.800000 -1.117662
77.850000 -1.097107
77.900000 -1.079978
77.950000 -1.062848
78.000000 -1.025163
78.050000 -0.990905
78.100000 -0.984053
78.150000 -0.966923
78.200000 -0.901831
78.250000 -0.843591
78.300000 -0.823036
78.350000 -0.771647
78.400000 -0.662019
78.450000 -0.566094
78.500000 -0.514705
78.550000 -0.477020
78.600000 -0.446188
78.650000 -0.446187
78.700000 -0.473595
78.750000 -0.521557
78.800000 -0.586649
78.850000 -0.648316
78.900000 -0.699704
78.950000 -0.751092
79.000000 -0.775073
79.050000 -0.768222
79.100000 -0.744240
79.150000 -0.716833
79.200000 -0.662018
79.250000 -0.603778
79.300000 -0.569520
79.350000 -0.559242
79.400000 -0.562668
79.450000 -0.579797
79.500000 -0.631185
79.550000 -0.703130
79.600000 -0.785351
79.650000 -0.877849
79.700000 -0.970349
79.750000 -1.066274
79.800000 -1.158772
79.850000 -1.227290
79.900000 -1.247846
79.950000 -1.220439
80.000000 -1.165624
80.050000 -1.093681
80.100000 -1.011460
80.150000 -0.925813
80.200000 -0.826461
80.250000 -0.730537
80.300000 -0.644890
80.350000 -0.559242
80.400000 -0.466743
80.450000 -0.387947
80.500000 -0.339985
80.550000 -0.295449
80.600000 -0.247486
80.650000 -0.220079
80.700000 -0.206375
80.750000 -0.185820
80.800000 -0.165264
80.850000 -0.172117
80.900000 -0.196098
80.950000 -0.237208
81.000000 -0.309152
81.050000 -0.418780
81.100000 -0.562668
81.150000 -0.703130
81.200000 -0.812758
81.250000 -0.915534
81.300000 -1.025163
81.350000 -1.097107
81.400000 -1.124514
81.450000 -1.131366
81.500000 -1.114236
81.550000 -1.045718
81.600000 -0.966923
81.650000 -0.901831
81.700000 -0.836739
81.750000 -0.775073
81.800000 -0.737389
81.850000 -0.713407
81.900000 -0.709981
81.950000 -0.727111
82.000000 -0.744240
82.050000 -0.733962
82.100000 -0.733962
82.150000 -0.771647
82.200000 -0.812758
82.250000 -0.836739
82.300000 -0.860720
82.350000 -0.918961
82.400000 -0.997756
82.450000 -1.059422
82.500000 -1.131365
82.550000 -1.220439
82.600000 -1.288956
82.650000 -1.312938
82.700000 -1.336919
82.750000 -1.357474
82.800000 -1.330067
82.850000 -1.268401
82.900000 -1.213587
82.950000 -1.138217
83.000000 -1.018312
83.050000 -0.891553
83.100000 -0.778499
83.150000 -0.675723
83.200000 -0.579798
83.250000 -0.490724
83.300000 -0.384522
83.350000 -0.285171
83.400000 -0.226931
83.450000 -0.202950
83.500000 -0.158413
83.550000 -0.113876
83.600000 -0.117302
83.650000 -0.178968
83.700000 -0.268041
83.750000 -0.346837
83.800000 -0.432485
83.850000 -0.538687
83.900000 -0.655167
83.950000 -0.778499
84.000000 -0.884702
84.050000 -0.953219
84.100000 -0.997756
84.150000 -1.032015
84.200000 -1.042292
84.250000 -1.004608
84.300000 -0.949793
84.350000 -0.912109
84.400000 -0.877850
84.450000 -0.836739
84.500000 -0.799054
84.550000 -0.768222
84.600000 -0.747666
84.650000 -0.737388
84.700000 -0.740814
84.750000 -0.744240
84.800000 -0.754518
84.850000 -0.757944
84.900000 -0.761370
84.950000 -0.771648
85.000000 -0.778500
85.050000 -0.771647
85.100000 -0.764795
85.150000 -0.788777
85.200000 -0.816184
85.250000 -0.823035
85.300000 -0.843591
85.350000 -0.884702
85.400000 -0.908683
85.450000 -0.918960
85.500000 -0.942942
85.550000 -0.939516
85.600000 -0.894979
85.650000 -0.860721
85.700000 -0.860720
85.750000 -0.860720
85.800000 -0.850443
85.850000 -0.857294
85.900000 -0.898405
85.950000 -0.939516
86.000000 -0.960071
86.050000 -0.984053
86.100000 -1.028589
86.150000 -1.073126
86.200000 -1.066273
86.250000 -1.055996
86.300000 -1.079978
86.350000 -1.086829
86.400000 -1.032015
86.450000 -0.990904
86.500000 -0.990904
86.550000 -0.980626
86.600000 -0.942942
86.650000 -0.922386
86.700000 -0.932664
86.750000 -0.942942
86.800000 -0.922386
86.850000 -0.874424
86.900000 -0.853869
86.950000 -0.870998
87.000000 -0.853869
87.050000 -0.805906
87.100000 -0.788776
87.150000 -0.802480
87.200000 -0.792203
87.250000 -0.799055
87.300000 -0.853869
87.350000 -0.908683
87.400000 -0.966923
87.450000 -1.038867
87.500000 -1.103959
87.550000 -1.151922
87.600000 -1.217013
87.650000 -1.271827
87.700000 -1.285530
87.750000 -1.278679
87.800000 -1.261550
87.850000 -1.223864
87.900000 -1.186180
87.950000 -1.145069
88.000000 -1.100532
88.050000 -1.083403
88.100000 -1.086830
88.150000 -1.093681
88.200000 -1.114236
88.250000 -1.175903
88.300000 -1.220439
88.350000 -1.234142
88.400000 -1.230717
88.450000 -1.217013
88.500000 -1.172476
88.550000 -1.100533
88.600000 -1.004608
88.650000 -0.905257
88.700000 -0.812758
88.750000 -0.733963
88.800000 -0.682575
88.850000 -0.658593
88.900000 -0.644889
88.950000 -0.655167
89.000000 -0.709981
89.050000 -0.785351
89.100000 -0.850443
89.150000 -0.912109
89.200000 -0.963497
89.250000 -0.980627
89.300000 -0.973775
89.350000 -0.987479
89.400000 -1.011460
89.450000 -0.994330
89.500000 -0.942941
89.550000 -0.898405
89.600000 -0.860721
89.650000 -0.799054
89.700000 -0.733963
89.750000 -0.703129
89.800000 -0.689425
89.850000 -0.658593
89.900000 -0.634611
89.950000 -0.644889
90.000000 -0.679148
90.050000 -0.706556
90.100000 -0.733962
90.150000 -0.778499
90.200000 -0.836740
90.250000 -0.901831
90.300000 -0.942941
90.350000 -0.970349
90.400000 -0.984052
90.450000 -0.960072
90.500000 -0.942942
90.550000 -0.960071
90.600000 -0.949793
90.650000 -0.888128
90.700000 -0.853868
90.750000 -0.877850
90.800000 -0.877850
90.850000 -0.867572
90.900000 -0.894979
90.950000 -0.925812
91.000000 -0.912109
91.050000 -0.905257
91.100000 -0.942942
91.150000 -0.960071
91.200000 -0.942942
91.250000 -0.936090
91.300000 -0.960071
91.350000 -0.966923
91.400000 -0.960071
91.450000 -0.963497
91.500000 -0.960071
91.550000 -0.929238
91.600000 -0.877850
91.650000 -0.819610
91.700000 -0.751092
91.750000 -0.668871
91.800000 -0.603778
91.850000 -0.545539
91.900000 -0.504427
91.950000 -0.497576
92.000000 -0.497576
92.050000 -0.494150
92.100000 -0.514705
92.150000 -0.562668
92.200000 -0.610631
92.250000 -0.668871
92.300000 -0.740815
92.350000 -0.809332
92.400000 -0.860720
92.450000 -0.929238
92.500000 -0.990904
92.550000 -1.025163
92.600000 -1.055996
92.650000 -1.079977
92.700000 -1.083404
92.750000 -1.073126
92.800000 -1.059422
92.850000 -1.035441
92.900000 -1.021737
92.950000 -1.025163
93.000000 -1.025163
93.050000 -1.038866
93.100000 -1.097106
93.150000 -1.155347
93.200000 -1.189606
93.250000 -1.251271
93.300000 -1.312938
93.350000 -1.302660
93.400000 -1.240994
93.450000 -1.189605
93.500000 -1.131365
93.550000 -1.028589
93.600000 -0.908682
93.650000 -0.805906
93.700000 -0.723685
93.750000 -0.641463
93.800000 -0.562668
93.850000 -0.521557
93.900000 -0.535261
93.950000 -0.593501
94.000000 -0.658592
94.050000 -0.733963
94.100000 -0.809332
94.150000 -0.905257
94.200000 -1.011460
94.250000 -1.103958
94.300000 -1.175902
94.350000 -1.213587
94.400000 -1.217013
94.450000 -1.206736
94.500000 -1.196457
94.550000 -1.151921
94.600000 -1.049144
94.650000 -0.963497
94.700000 -0.918960
94.750000 -0.870998
94.800000 -0.809332
94.850000 -0.775073
94.900000 -0.768221
94.950000 -0.771647
95.000000 -0.802481
95.050000 -0.853868
95.100000 -0.884701
95.150000 -0.894979
95.200000 -0.888127
95.250000 -0.874424
95.300000 -0.877850
95.350000 -0.898406
95.400000 -0.908683
95.450000 -0.922386
95.500000 -0.984052
95.550000 -1.069700
95.600000 -1.155347
95.650000 -1.247846
95.700000 -1.354049
95.750000 -1.436270
95.800000 -1.480806
95.850000 -1.511639
95.900000 -1.518491
95.950000 -1.470529
96.000000 -1.367752
96.050000 -1.251272
96.100000 -1.148496
96.150000 -1.038867
96.200000 -0.912109
96.250000 -0.812758
96.300000 -0.754518
96.350000 -0.706556
96.400000 -0.675722
96.450000 -0.706555
96.500000 -0.757944
96.550000 -0.795628
96.600000 -0.860720
96.650000 -0.973774
96.700000 -1.066274
96.750000 -1.134792
96.800000 -1.234143
96.850000 -1.336919
96.900000 -1.395159
96.950000 -1.436270
97.000000 -1.477381
97.050000 -1.477381
97.100000 -1.432844
97.150000 -1.378030
97.200000 -1.309512
97.250000 -1.223864
97.300000 -1.145069
97.350000 -1.073126
97.400000 -0.987479
97.450000 -0.949794
97.500000 -0.963497
97.550000 -0.980627
97.600000 -0.994330
97.650000 -1.049144
97.700000 -1.107384
97.750000 -1.155347
97.800000 -1.217013
97.850000 -1.275253
97.900000 -1.299234
97.950000 -1.309512
98.000000 -1.295809
98.050000 -1.223865
98.100000 -1.131366
98.150000 -1.032015
98.200000 -0.912109
98.250000 -0.781925
98.300000 -0.679149
98.350000 -0.579797
98.400000 -0.504427
98.450000 -0.497576
98.500000 -0.518131
98.550000 -0.521557
98.600000 -0.572946
98.650000 -0.689426
98.700000 -0.785351
98.750000 -0.864146
98.800000 -0.970349
98.850000 -1.069700
98.900000 -1.131366
98.950000 -1.172477
99.000000 -1.196457
99.050000 -1.210162
99.100000 -1.237568
99.150000 -1.251272
99.200000 -1.237568
99.250000 -1.230716
99.300000 -1.244420
99.350000 -1.247846
99.400000 -1.240994
99.450000 -1.258123
99.500000 -1.288957
99.550000 -1.299235
99.600000 -1.285531
99.650000 -1.264976
99.700000 -1.251272
99.750000 -1.220439
99.800000 -1.158773
99.850000 -1.083403
99.900000 -1.018311
99.950000 -0.956645
100.000000 -0.898405
100.050000 -0.853868
100.100000 -0.836739
100.150000 -0.850443
100.200000 -0.884701
100.250000 -0.939516
100.300000 -1.014886
100.350000 -1.103958
100.400000 -1.182754
100.450000 -1.247846
100.500000 -1.295808
100.550000 -1.330068
100.600000 -1.316364
100.650000 -1.251272
100.700000 -1.165624
100.750000 -1.093681
100.800000 -0.997756
100.850000 -0.860721
100.900000 -0.727110
100.950000 -0.634611
101.000000 -0.579798
101.050000 -0.552391
101.100000 -0.552390
101.150000 -0.559242
101.200000 -0.583223
101.250000 -0.638037
101.300000 -0.699703
101.350000 -0.733963
101.400000 -0.778499
101.450000 -0.823035
101.500000 -0.833314
101.550000 -0.836739
101.600000 -0.857295
101.650000 -0.853868
101.700000 -0.823035
101.750000 -0.816184
101.800000 -0.799054
101.850000 -0.730537
101.900000 -0.668870
101.950000 -0.638037
102.000000 -0.593501
102.050000 -0.538687
102.100000 -0.514706
102.150000 -0.524983
102.200000 -0.552390
102.250000 -0.593501
102.300000 -0.631186
102.350000 -0.679148
102.400000 -0.761369
102.450000 -0.829888
102.500000 -0.894979
102.550000 -0.984053
102.600000 -1.069699
102.650000 -1.124514
102.700000 -1.182754
102.750000 -1.261549
102.800000 -1.299234
102.850000 -1.295809
102.900000 -1.302660
102.950000 -1.312938
103.000000 -1.275253
103.050000 -1.220439
103.100000 -1.172476
103.150000 -1.124514
103.200000 -1.055996
103.250000 -0.984053
103.300000 -0.925813
103.350000 -0.874424
103.400000 -0.847017
103.450000 -0.857294
103.500000 -0.905257
103.550000 -0.984052
103.600000 -1.086829
103.650000 -1.193032
103.700000 -1.295809
103.750000 -1.388307
103.800000 -1.463677
103.850000 -1.532195
103.900000 -1.604139
103.950000 -1.631546
104.000000 -1.600713
104.050000 -1.539047
104.100000 -1.460251
104.150000 -1.347197
104.200000 -1.217013
104.250000 -1.097106
104.300000 -0.984052
104.350000 -0.891553
104.400000 -0.816184
104.450000 -0.737388
104.500000 -0.672297
104.550000 -0.679149
104.600000 -0.723684
104.650000 -0.747666
104.700000 -0.799054
104.750000 -0.922387
104.800000 -1.045718
104.850000 -1.121088
104.900000 -1.203309
104.950000 -1.299235
105.000000 -1.340345
105.050000 -1.319789
105.100000 -1.302660
105.150000 -1.288957
105.200000 -1.234143
105.250000 -1.169051
105.300000 -1.138218
105.350000 -1.127940
105.400000 -1.110810
105.450000 -1.103959
105.500000 -1.110810
105.550000 -1.114237
105.600000 -1.097107
105.650000 -1.079977
105.700000 -1.069700
105.750000 -1.035441
105.800000 -0.956645
105.850000 -0.874424
105.900000 -0.805906
105.950000 -0.713407
106.000000 -0.607204
106.050000 -0.535261
106.100000 -0.494151
106.150000 -0.453039
106.200000 -0.442762
106.250000 -0.490724
106.300000 -0.572946
106.350000 -0.662018
106.400000 -0.775073
106.450000 -0.894980
106.500000 -0.977201
106.550000 -1.028589
106.600000 -1.062848
106.650000 -1.069699
106.700000 -1.055996
106.750000 -1.021738
106.800000 -0.946367
106.850000 -0.881276
106.900000 -0.860721
106.950000 -0.853868
107.000000 -0.850442
107.050000 -0.877850
107.100000 -0.939516
107.150000 -1.001182
107.200000 -1.052570
107.250000 -1.100532
107.300000 -1.145070
107.350000 -1.162199
107.400000 -1.138217
107.450000 -1.086829
107.500000 -1.018311
107.550000 -0.925813
107.600000 -0.829888
107.650000 -0.757944
107.700000 -0.716833
107.750000 -0.703129
107.800000 -0.716833
107.850000 -0.751092
107.900000 -0.792202
107.950000 -0.843591
108.000000 -0.912109
108.050000 -0.970349
108.100000 -1.025163
108.150000 -1.083404
108.200000 -1.114236
108.250000 -1.114236
108.300000 -1.107385
108.350000 -1.079977
108.400000 -0.997756
108.450000 -0.898405
108.500000 -0.833313
108.550000 -0.778499
108.600000 -0.709981
108.650000 -0.655167
108.700000 -0.634611
108.750000 -0.638037
108.800000 -0.662018
108.850000 -0.682574
108.900000 -0.706556
108.950000 -0.740814
109.000000 -0.775073
109.050000 -0.781925
109.100000 -0.754518
109.150000 -0.727110
109.200000 -0.709981
109.250000 -0.662019
109.300000 -0.603778
109.350000 -0.559242
109.400000 -0.521558
109.450000 -0.480447
109.500000 -0.470169
109.550000 -0.490724
109.600000 -0.490724
109.650000 -0.497576
109.700000 -0.548965
109.750000 -0.627760
109.800000 -0.682574
109.850000 -0.723685
109.900000 -0.785351
109.950000 -0.870998
110.000000 -0.963498
110.050000 -1.035441
110.100000 -1.097107
110.150000 -1.169051
110.200000 -1.230717
110.250000 -1.251272
110.300000 -1.261549
110.350000 -1.244420
110.400000 -1.179328
110.450000 -1.100533
110.500000 -1.049144
110.550000 -0.990904
110.600000 -0.901831
110.650000 -0.843591
110.700000 -0.833314
110.750000 -0.840165
110.800000 -0.843591
110.850000 -0.843591
110.900000 -0.857294
110.950000 -0.870998
111.000000 -0.857295
111.050000 -0.812758
111.100000 -0.764796
111.150000 -0.720259
111.200000 -0.648315
111.250000 -0.559242
111.300000 -0.490725
111.350000 -0.459891
111.400000 -0.439336
111.450000 -0.442762
111.500000 -0.501002
111.550000 -0.593501
111.600000 -0.692852
111.650000 -0.792203
111.700000 -0.888128
111.750000 -0.977201
111.800000 -1.038867
111.850000 -1.083403
111.900000 -1.107384
111.950000 -1.103959
112.000000 -1.062848
112.050000 -1.008033
112.100000 -0.949793
112.150000 -0.884702
112.200000 -0.812757
112.250000 -0.747666
112.300000 -0.703129
112.350000 -0.675722
112.400000 -0.655167
112.450000 -0.651741
112.500000 -0.682574
112.550000 -0.730537
112.600000 -0.751092
112.650000 -0.757944
112.700000 -0.792202
112.750000 -0.850443
112.800000 -0.894979
112.850000 -0.936090
112.900000 -0.987479
112.950000 -1.021737
113.000000 -1.035440
113.050000 -1.062848
113.100000 -1.090255
113.150000 -1.083403
113.200000 -1.045718
113.250000 -0.994330
113.300000 -0.925812
113.350000 -0.843591
113.400000 -0.754518
113.450000 -0.648316
113.500000 -0.531835
113.550000 -0.435910
113.600000 -0.357115
113.650000 -0.285171
113.700000 -0.223505
113.750000 -0.178968
113.800000 -0.151561
113.850000 -0.141284
113.900000 -0.182394
113.950000 -0.237209
114.000000 -0.292022
114.050000 -0.360540
114.100000 -0.463317
114.150000 -0.552390
114.200000 -0.617483
114.250000 -0.696278
114.300000 -0.792203
114.350000 -0.867572
114.400000 -0.925812
114.450000 -0.970349
114.500000 -0.994330
114.550000 -0.977200
114.600000 -0.939516
114.650000 -0.881276
114.700000 -0.795628
114.750000 -0.699704
114.800000 -0.607205
114.850000 -0.521557
114.900000 -0.456465
114.950000 -0.405077
115.000000 -0.329707
115.050000 -0.274893
115.100000 -0.278319
115.150000 -0.298874
115.200000 -0.288597
115.250000 -0.309152
115.300000 -0.387948
115.350000 -0.453040
115.400000 -0.487298
115.450000 -0.548964
115.500000 -0.641463
115.550000 -0.692852
115.600000 -0.703129
115.650000 -0.709982
115.700000 -0.723684
115.750000 -0.703129
115.800000 -0.638038
115.850000 -0.572946
115.900000 -0.531835
115.950000 -0.483872
116.000000 -0.394799
116.050000 -0.302300
116.100000 -0.233783
116.150000 -0.185820
116.200000 -0.148135
116.250000 -0.137857
116.300000 -0.158413
116.350000 -0.196097
116.400000 -0.244060
116.450000 -0.298874
116.500000 -0.363967
116.550000 -0.432485
116.600000 -0.524983
116.650000 -0.624334
116.700000 -0.709981
116.750000 -0.788776
116.800000 -0.867573
116.850000 -0.942942
116.900000 -1.014886
116.950000 -1.086829
117.000000 -1.131366
117.050000 -1.148496
117.100000 -1.169051
117.150000 -1.203309
117.200000 -1.203309
117.250000 -1.175903
117.300000 -1.151921
117.350000 -1.114236
117.400000 -1.028589
117.450000 -0.942942
117.500000 -0.898405
117.550000 -0.860721
117.600000 -0.816184
117.650000 -0.792202
117.700000 -0.788776
117.750000 -0.802480
117.800000 -0.860721
117.850000 -0.946368
117.900000 -1.032015
117.950000 -1.114236
118.000000 -1.193031
118.050000 -1.254698
118.100000 -1.285530
118.150000 -1.282105
118.200000 -1.247846
118.250000 -1.210161
118.300000 -1.182754
118.350000 -1.124514
118.400000 -1.042292
118.450000 -0.963497
118.500000 -0.894979
118.550000 -0.805906
118.600000 -0.733963
118.650000 -0.713407
118.700000 -0.723685
118.750000 -0.733963
118.800000 -0.771647
118.850000 -0.853868
118.900000 -0.929238
118.950000 -0.980626
119.000000 -1.025163
119.050000 -1.073125
119.100000 -1.093681
119.150000 -1.086829
119.200000 -1.073126
119.250000 -1.045718
119.300000 -0.997756
119.350000 -0.949793
119.400000 -0.901831
119.450000 -0.857295
119.500000 -0.826462
119.550000 -0.823035
119.600000 -0.840165
119.650000 -0.874424
119.700000 -0.942942
119.750000 -1.032015
119.800000 -1.107385
119.850000 -1.134792
119.900000 -1.141643
119.950000 -1.172476
120.000000 -1.196457
120.050000 -1.172476
120.100000 -1.148495
120.150000 -1.158773
120.200000 -1.179329
120.250000 -1.172476
120.300000 -1.186180
120.350000 -1.220439
120.400000 -1.230716
120.450000 -1.210162
120.500000 -1.196458
120.550000 -1.179328
120.600000 -1.121088
120.650000 -1.028589
120.700000 -0.922386
120.750000 -0.809332
120.800000 -0.696278
120.850000 -0.600353
120.900000 -0.521557
120.950000 -0.466743
121.000000 -0.456465
121.050000 -0.487299
121.100000 -0.545538
121.150000 -0.624334
121.200000 -0.720259
121.250000 -0.819610
121.300000 -0.939516
121.350000 -1.045719
121.400000 -1.103959
121.450000 -1.127940
121.500000 -1.158773
121.550000 -1.179328
121.600000 -1.186180
121.650000 -1.175902
121.700000 -1.158773
121.750000 -1.151921
121.800000 -1.172477
121.850000 -1.203310
121.900000 -1.210161
121.950000 -1.196457
122.000000 -1.193032
122.050000 -1.182754
122.100000 -1.151921
122.150000 -1.110811
122.200000 -1.059422
122.250000 -0.997756
122.300000 -0.936090
122.350000 -0.891553
122.400000 -0.850443
122.450000 -0.812758
122.500000 -0.792202
122.550000 -0.799054
122.600000 -0.823036
122.650000 -0.870998
122.700000 -0.925812
122.750000 -0.977201
122.800000 -1.025163
122.850000 -1.069700
122.900000 -1.103959
122.950000 -1.148495
123.000000 -1.179328
123.050000 -1.175902
123.100000 -1.148496
123.150000 -1.124514
123.200000 -1.107384
123.250000 -1.083404
123.300000 -1.079977
123.350000 -1.073126
123.400000 -1.049144
123.450000 -1.021737
123.500000 -0.987478
123.550000 -0.932664
123.600000 -0.888128
123.650000 -0.850442
123.700000 -0.788777
123.750000 -0.730536
123.800000 -0.727111
123.850000 -0.740814
123.900000 -0.740814
123.950000 -0.757944
124.000000 -0.812758
124.050000 -0.857295
124.100000 -0.908683
124.150000 -0.963497
124.200000 -0.990904
124.250000 -0.973775
124.300000 -0.949793
124.350000 -0.915535
124.400000 -0.850443
124.450000 -0.775073
124.500000 -0.696277
124.550000 -0.600353
124.600000 -0.511279
124.650000 -0.453040
124.700000 -0.391374
124.750000 -0.343411
124.800000 -0.326282
124.850000 -0.333134
124.900000 -0.343411
124.950000 -0.353689
125.000000 -0.374244
125.050000 -0.391373
125.100000 -0.425632
125.150000 -0.473595
125.200000 -0.483873
125.250000 -0.487299
125.300000 -0.518132
125.350000 -0.566094
125.400000 -0.590075
125.450000 -0.627760
125.500000 -0.716833
125.550000 -0.805906
125.600000 -0.857295
125.650000 -0.912109
125.700000 -1.004608
125.750000 -1.086829
125.800000 -1.141643
125.850000 -1.186180
125.900000 -1.213587
125.950000 -1.203310
126.000000 -1.162199
126.050000 -1.121088
126.100000 -1.079978
126.150000 -1.035441
126.200000 -0.987478
126.250000 -0.949793
126.300000 -0.925813
126.350000 -0.894979
126.400000 -0.843591
126.450000 -0.778500
126.500000 -0.730537
126.550000 -0.696277
126.600000 -0.655167
126.650000 -0.593501
126.700000 -0.545538
126.750000 -0.518131
126.800000 -0.518132
126.850000 -0.552390
126.900000 -0.631186
126.950000 -0.720259
127.000000 -0.785351
127.050000 -0.874424
127.100000 -0.973775
127.150000 -1.025163
127.200000 -1.018311
127.250000 -0.997756
127.300000 -0.953219
127.350000 -0.857294
127.400000 -0.730536
127.450000 -0.617482
127.500000 -0.511279
127.550000 -0.405077
127.600000 -0.316004
127.650000 -0.261189
127.700000 -0.226931
127.750000 -0.233782
127.800000 -0.278319
127.850000 -0.319430
127.900000 -0.367392
127.950000 -0.442762
128.000000 -0.497576
128.050000 -0.542113
128.100000 -0.614057
128.150000 -0.692852
128.200000 -0.761370
128.250000 -0.850443
128.300000 -0.960071
128.350000 -1.038866
128.400000 -1.073125
128.450000 -1.103959
128.500000 -1.117662
128.550000 -1.086829
128.600000 -1.028589
128.650000 -0.960071
128.700000 -0.860720
128.750000 -0.744240
128.800000 -0.634612
128.850000 -0.528409
128.900000 -0.429059
128.950000 -0.391374
129.000000 -0.394799
129.050000 -0.405077
129.100000 -0.439336
129.150000 -0.511280
129.200000 -0.579797
129.250000 -0.617482
129.300000 -0.672297
129.350000 -0.723685
129.400000 -0.720259
129.450000 -0.668871
129.500000 -0.627760
129.550000 -0.583223
129.600000 -0.511280
129.650000 -0.446188
129.700000 -0.422207
129.750000 -0.432484
129.800000 -0.442762
129.850000 -0.480446
129.900000 -0.559242
129.950000 -0.668870
130.000000 -0.771647
130.050000 -0.881276
130.100000 -0.966923
130.150000 -1.021738
130.200000 -1.045719
130.250000 -1.049144
130.300000 -1.008034
130.350000 -0.929238
130.400000 -0.836739
130.450000 -0.757944
130.500000 -0.686000
130.550000 -0.603779
130.600000 -0.524983
130.650000 -0.490724
130.700000 -0.504428
130.750000 -0.542113
130.800000 -0.603779
130.850000 -0.696278
130.900000 -0.775073
130.950000 -0.823036
131.000000 -0.877850
131.050000 -0.929238
131.100000 -0.932664
131.150000 -0.888127
131.200000 -0.857294
131.250000 -0.836740
131.300000 -0.795628
131.350000 -0.768222
131.400000 -0.781925
131.450000 -0.805907
131.500000 -0.829888
131.550000 -0.874424
131.600000 -0.915534
131.650000 -0.936090
131.700000 -0.946367
131.750000 -0.946368
131.800000 -0.898405
131.850000 -0.829887
131.900000 -0.771647
131.950000 -0.696278
132.000000 -0.614056
132.050000 -0.566094
132.100000 -0.555816
132.150000 -0.548964
132.200000 -0.572946
132.250000 -0.648315
132.300000 -0.727111
132.350000 -0.799054
132.400000 -0.891553
132.450000 -0.990904
132.500000 -1.052571
132.550000 -1.083403
132.600000 -1.097107
132.650000 -1.103958
132.700000 -1.103959
132.750000 -1.090255
132.800000 -1.076551
132.850000 -1.066273
132.900000 -1.076551
132.950000 -1.066274
133.000000 -1.038867
133.050000 -1.008034
133.100000 -0.987479
133.150000 -0.963497
133.200000 -0.922386
133.250000 -0.857294
133.300000 -0.799055
133.350000 -0.727111
133.400000 -0.638037
133.450000 -0.545538
133.500000 -0.470169
133.550000 -0.415355
133.600000 -0.367392
133.650000 -0.339985
133.700000 -0.357114
133.750000 -0.401652
133.800000 -0.446187
133.850000 -0.507854
133.900000 -0.607205
133.950000 -0.706556
134.000000 -0.781925
134.050000 -0.853869
134.100000 -0.925812
134.150000 -0.956645
134.200000 -0.953219
134.250000 -0.946367
134.300000 -0.929238
134.350000 -0.898405
134.400000 -0.901831
134.450000 -0.942941
134.500000 -0.960071
134.550000 -0.946367
134.600000 -0.956645
134.650000 -0.966923
134.700000 -0.953220
134.750000 -0.936089
134.800000 -0.912109
134.850000 -0.853869
134.900000 -0.778499
134.950000 -0.733963
135.000000 -0.675722
135.050000 -0.600352
135.100000 -0.545538
135.150000 -0.528409
135.200000 -0.524983
135.250000 -0.542112
135.300000 -0.593501
135.350000 -0.679148
135.400000 -0.781925
135.450000 -0.881275
135.500000 -0.987478
135.550000 -1.093681
135.600000 -1.169050
135.650000 -1.220438
135.700000 -1.264976
135.750000 -1.309512
135.800000 -1.312938
135.850000 -1.288957
135.900000 -1.282105
135.950000 -1.275253
136.000000 -1.247846
136.050000 -1.220439
136.100000 -1.230717
136.150000 -1.247846
136.200000 -1.258123
136.250000 -1.292383
136.300000 -1.364327
136.350000 -1.419141
136.400000 -1.398585
136.450000 -1.333493
136.500000 -1.244420
136.550000 -1.127940
136.600000 -0.984052
136.650000 -0.812758
136.700000 -0.634611
136.750000 -0.453040
136.800000 -0.302300
136.850000 -0.213227
136.900000 -0.192672
136.950000 -0.226931
137.000000 -0.326282
137.050000 -0.494150
137.100000 -0.703130
137.150000 -0.925812
137.200000 -1.131365
137.250000 -1.299234
137.300000 -1.432844
137.350000 -1.515065
137.400000 -1.511639
137.450000 -1.412288
137.500000 -1.282105
137.550000 -1.138217
137.600000 -0.966922
137.650000 -0.795628
137.700000 -0.662019
137.750000 -0.572946
137.800000 -0.518132
137.850000 -0.507853
137.900000 -0.542112
137.950000 -0.586649
138.000000 -0.627760
138.050000 -0.679148
138.100000 -0.716833
138.150000 -0.716833
138.200000 -0.703129
138.250000 -0.703129
138.300000 -0.686000
138.350000 -0.648315
138.400000 -0.617482
138.450000 -0.624334
138.500000 -0.665444
138.550000 -0.713407
138.600000 -0.744240
138.650000 -0.805906
138.700000 -0.908683
138.750000 -0.984052
138.800000 -1.018311
138.850000 -1.035441
138.900000 -1.052570
138.950000 -1.021737
139.000000 -0.949794
139.050000 -0.891553
139.100000 -0.836740
139.150000 -0.761369
139.200000 -0.662019
139.250000 -0.566094
139.300000 -0.490725
139.350000 -0.466743
139.400000 -0.501002
139.450000 -0.559242
139.500000 -0.638038
139.550000 -0.751092
139.600000 -0.870998
139.650000 -0.963497
139.700000 -1.042293
139.750000 -1.103959
139.800000 -1.103959
139.850000 -1.052570
139.900000 -1.028589
139.950000 -1.021737
140.000000 -0.973775
140.050000 -0.881276
140.100000 -0.802480
140.150000 -0.751092
140.200000 -0.716833
140.250000 -0.696278
140.300000 -0.675722
140.350000 -0.682574
140.400000 -0.733963
140.450000 -0.778499
140.500000 -0.788777
140.550000 -0.823035
140.600000 -0.877850
140.650000 -0.912109
140.700000 -0.922386
140.750000 -0.946368
140.800000 -0.960071
140.850000 -0.949793
140.900000 -0.946368
140.950000 -0.942941
141.000000 -0.912109
141.050000 -0.881276
141.100000 -0.860721
141.150000 -0.823035
141.200000 -0.799054
141.250000 -0.788776
141.300000 -0.771647
141.350000 -0.744240
141.400000 -0.730537
141.450000 -0.733963
141.500000 -0.747666
141.550000 -0.757943
141.600000 -0.754518
141.650000 -0.747666
141.700000 -0.768222
141.750000 -0.785350
141.800000 -0.768222
141.850000 -0.764795
141.900000 -0.795628
141.950000 -0.812758
142.000000 -0.802480
142.050000 -0.829887
142.100000 -0.894979
142.150000 -0.953220
142.200000 -0.990905
142.250000 -1.042292
142.300000 -1.090255
142.350000 -1.121088
142.400000 -1.138218
142.450000 -1.127940
142.500000 -1.086829
142.550000 -1.052570
142.600000 -1.001182
142.650000 -0.901831
142.700000 -0.781925
142.750000 -0.648315
142.800000 -0.497576
142.850000 -0.360541
142.900000 -0.261189
142.950000 -0.168691
143.000000 -0.093321
143.050000 -0.065914
143.100000 -0.076192
143.150000 -0.096747
143.200000 -0.161839
143.250000 -0.257764
143.300000 -0.350263
143.350000 -0.442762
143.400000 -0.528409
143.450000 -0.583223
143.500000 -0.641464
143.550000 -0.716833
143.600000 -0.737388
143.650000 -0.696278
143.700000 -0.682574
143.750000 -0.696277
143.800000 -0.634611
143.850000 -0.548965
143.900000 -0.501002
143.950000 -0.449614
144.000000 -0.381095
144.050000 -0.350263
144.100000 -0.346837
144.150000 -0.339985
144.200000 -0.360541
144.250000 -0.439336
144.300000 -0.538687
144.350000 -0.641463
144.400000 -0.747667
144.450000 -0.857295
144.500000 -0.977201
144.550000 -1.117662
144.600000 -1.223865
144.650000 -1.282105
144.700000 -1.326642
144.750000 -1.350623
144.800000 -1.312938
144.850000 -1.227291
144.900000 -1.121088
144.950000 -1.018312
145.000000 -0.894979
145.050000 -0.751092
145.100000 -0.603779
145.150000 -0.473594
145.200000 -0.377670
145.250000 -0.339985
145.300000 -0.333134
145.350000 -0.357115
145.400000 -0.435910
145.450000 -0.566094
145.500000 -0.699703
145.550000 -0.816184
145.600000 -0.946368
145.650000 -1.069700
145.700000 -1.155347
145.750000 -1.213587
145.800000 -1.237569
145.850000 -1.210162
145.900000 -1.155347
145.950000 -1.097107
146.000000 -1.025163
146.050000 -0.939516
146.100000 -0.853869
146.150000 -0.771647
146.200000 -0.689425
146.250000 -0.644890
146.300000 -0.638038
146.350000 -0.617482
146.400000 -0.586649
146.450000 -0.600353
146.500000 -0.624334
146.550000 -0.620908
146.600000 -0.634612
146.650000 -0.679148
146.700000 -0.696278
146.750000 -0.692852
146.800000 -0.713408
146.850000 -0.723685
146.900000 -0.709981
146.950000 -0.723685
147.000000 -0.771648
147.050000 -0.799054
147.100000 -0.823035
147.150000 -0.867573
147.200000 -0.891553
147.250000 -0.891554
147.300000 -0.894979
147.350000 -0.901831
147.400000 -0.877850
147.450000 -0.840165
147.500000 -0.809332
147.550000 -0.768221
147.600000 -0.706555
147.650000 -0.665444
147.700000 -0.655167
147.750000 -0.672296
147.800000 -0.696277
147.850000 -0.723685
147.900000 -0.792203
147.950000 -0.888127
148.000000 -0.960071
148.050000 -1.001182
148.100000 -1.032015
148.150000 -1.055996
148.200000 -1.049144
148.250000 -1.028589
148.300000 -1.008034
148.350000 -0.984052
148.400000 -0.960071
148.450000 -0.953220
148.500000 -0.963497
148.550000 -0.984053
148.600000 -1.018312
148.650000 -1.059422
148.700000 -1.100533
148.750000 -1.134791
148.800000 -1.172477
148.850000 -1.199884
148.900000 -1.203310
148.950000 -1.189606
149.000000 -1.169051
149.050000 -1.138217
149.100000 -1.100533
149.150000 -1.042292
149.200000 -0.963497
149.250000 -0.843591
149.300000 -0.740815
149.350000 -0.679148
149.400000 -0.617482
149.450000 -0.555816
149.500000 -0.535261
149.550000 -0.545538
149.600000 -0.542113
149.650000 -0.552390
149.700000 -0.600352
149.750000 -0.644890
149.800000 -0.675722
149.850000 -0.720259
149.900000 -0.757943
149.950000 -0.747666
150.000000 -0.716833
150.050000 -0.672296
150.100000 -0.586650
150.150000 -0.483872
150.200000 -0.408503
150.250000 -0.339985
150.300000 -0.278319
150.350000 -0.257764
150.400000 -0.264615
150.450000 -0.268041
150.500000 -0.292023
150.550000 -0.353688
150.600000 -0.405077
150.650000 -0.453040
150.700000 -0.518131
150.750000 -0.562668
150.800000 -0.531835
150.850000 -0.473594
150.900000 -0.435910
150.950000 -0.398225
151.000000 -0.322855
151.050000 -0.257763
151.100000 -0.244060
151.150000 -0.254338
151.200000 -0.257764
151.250000 -0.264615
151.300000 -0.302300
151.350000 -0.374244
151.400000 -0.435910
151.450000 -0.501002
151.500000 -0.593501
151.550000 -0.682574
151.600000 -0.723685
151.650000 -0.771647
151.700000 -0.857295
151.750000 -0.901831
151.800000 -0.867572
151.850000 -0.823035
151.900000 -0.799054
151.950000 -0.768221
152.000000 -0.723685
152.050000 -0.679148
152.100000 -0.634612
152.150000 -0.607204
152.200000 -0.614057
152.250000 -0.617482
152.300000 -0.627760
152.350000 -0.668870
152.400000 -0.740814
152.450000 -0.826461
152.500000 -0.915535
152.550000 -0.987479
152.600000 -1.042293
152.650000 -1.090255
152.700000 -1.121088
152.750000 -1.093681
152.800000 -1.025164
152.850000 -0.942941
152.900000 -0.853869
152.950000 -0.754517
153.000000 -0.638037
153.050000 -0.535260
153.100000 -0.480446
153.150000 -0.453040
153.200000 -0.439336
153.250000 -0.487298
153.300000 -0.607204
153.350000 -0.723685
153.400000 -0.826461
153.450000 -0.953219
153.500000 -1.083403
153.550000 -1.145069
153.600000 -1.162199
153.650000 -1.155347
153.700000 -1.110811
153.750000 -1.032015
153.800000 -0.936090
153.850000 -0.819609
153.900000 -0.706555
153.950000 -0.655167
154.000000 -0.651741
154.050000 -0.672296
154.100000 -0.730536
154.150000 -0.843591
154.200000 -0.973775
154.250000 -1.093681
154.300000 -1.203310
154.350000 -1.285530
154.400000 -1.323216
154.450000 -1.302660
154.500000 -1.244420
154.550000 -1.175902
154.600000 -1.107385
154.650000 -1.025163
154.700000 -0.925812
154.750000 -0.816184
154.800000 -0.723685
154.850000 -0.658593
154.900000 -0.610631
154.950000 -0.590075
155.000000 -0.593501
155.050000 -0.610630
155.100000 -0.641464
155.150000 -0.668871
155.200000 -0.668870
155.250000 -0.641463
155.300000 -0.631186
155.350000 -0.614056
155.400000 -0.545539
155.450000 -0.453040
155.500000 -0.387947
155.550000 -0.336559
155.600000 -0.288597
155.650000 -0.281745
155.700000 -0.309152
155.750000 -0.346836
155.800000 -0.391374
155.850000 -0.456465
155.900000 -0.545539
155.950000 -0.614057
156.000000 -0.665444
156.050000 -0.696278
156.100000 -0.709982
156.150000 -0.679149
156.200000 -0.617483
156.250000 -0.562668
156.300000 -0.518131
156.350000 -0.483873
156.400000 -0.483872
156.450000 -0.514706
156.500000 -0.562668
156.550000 -0.638037
156.600000 -0.751092
156.650000 -0.881275
156.700000 -1.008033
156.750000 -1.145069
156.800000 -1.275253
156.850000 -1.360901
156.900000 -1.408863
156.950000 -1.429418
157.000000 -1.395159
157.050000 -1.302661
157.100000 -1.193031
157.150000 -1.076551
157.200000 -0.942941
157.250000 -0.805906
157.300000 -0.723685
157.350000 -0.689426
157.400000 -0.665444
157.450000 -0.655167
157.500000 -0.703129
157.550000 -0.812758
157.600000 -0.932664
157.650000 -1.025163
157.700000 -1.110811
157.750000 -1.186180
157.800000 -1.217013
157.850000 -1.175902
157.900000 -1.103959
157.950000 -1.028589
158.000000 -0.929238
158.050000 -0.809332
158.100000 -0.703129
158.150000 -0.596927
158.200000 -0.487298
158.250000 -0.415354
158.300000 -0.394800
158.350000 -0.377670
158.400000 -0.350262
158.450000 -0.370818
158.500000 -0.429058
158.550000 -0.480446
158.600000 -0.542113
158.650000 -0.641464
158.700000 -0.771647
158.750000 -0.881276
158.800000 -0.977201
158.850000 -1.079977
158.900000 -1.162199
158.950000 -1.193032
159.000000 -1.186180
159.050000 -1.186180
159.100000 -1.179328
159.150000 -1.134792
159.200000 -1.069699
159.250000 -1.004608
159.300000 -0.936090
159.350000 -0.877850
159.400000 -0.843591
159.450000 -0.819610
159.500000 -0.812758
159.550000 -0.850443
159.600000 -0.918961
159.650000 -0.970349
159.700000 -1.004608
159.750000 -1.045719
159.800000 -1.079977
159.850000 -1.073126
159.900000 -1.062848
159.950000 -1.069700
160.000000 -1.045718
160.050000 -1.004608
160.100000 -1.004608
160.150000 -1.021738
160.200000 -0.994330
160.250000 -0.946368
160.300000 -0.929238
160.350000 -0.912109
160.400000 -0.877850
160.450000 -0.843591
160.500000 -0.823035
160.550000 -0.781925
160.600000 -0.713407
160.650000 -0.641463
160.700000 -0.596927
160.750000 -0.576371
160.800000 -0.572946
160.850000 -0.572946
160.900000 -0.579798
160.950000 -0.603779
161.000000 -0.638038
161.050000 -0.675722
161.100000 -0.737389
161.150000 -0.819609
161.200000 -0.853869
161.250000 -0.860720
161.300000 -0.874424
161.350000 -0.881276
161.400000 -0.836739
161.450000 -0.799054
161.500000 -0.812757
161.550000 -0.836739
161.600000 -0.833313
161.650000 -0.860720
161.700000 -0.929238
161.750000 -1.004607
161.800000 -1.073126
161.850000 -1.148495
161.900000 -1.227290
161.950000 -1.288957
162.000000 -1.319790
162.050000 -1.323216
162.100000 -1.312938
162.150000 -1.292382
162.200000 -1.254698
162.250000 -1.199883
162.300000 -1.162199
162.350000 -1.151921
162.400000 -1.145070
162.450000 -1.145069
162.500000 -1.179328
162.550000 -1.227291
162.600000 -1.261549
162.650000 -1.271827
162.700000 -1.275253
162.750000 -1.261550
162.800000 -1.227291
162.850000 -1.186180
162.900000 -1.131365
162.950000 -1.059422
163.000000 -0.977201
163.050000 -0.870998
163.100000 -0.754517
163.150000 -0.638037
163.200000 -0.535261
163.250000 -0.470169
163.300000 -0.446188
163.350000 -0.446188
163.400000 -0.446187
163.450000 -0.504428
163.500000 -0.651741
163.550000 -0.823036
163.600000 -0.970349
163.650000 -1.110810
163.700000 -1.237568
163.750000 -1.343771
163.800000 -1.422566
163.850000 -1.446548
163.900000 -1.395159
163.950000 -1.299234
164.000000 -1.199884
164.050000 -1.090255
164.100000 -0.960071
164.150000 -0.847017
164.200000 -0.764796
164.250000 -0.723685
164.300000 -0.733963
164.350000 -0.775073
164.400000 -0.826461
164.450000 -0.891554
164.500000 -0.960071
164.550000 -1.001182
164.600000 -1.011460
164.650000 -0.977201
164.700000 -0.905257
164.750000 -0.857294
164.800000 -0.809332
164.850000 -0.720259
164.900000 -0.641463
164.950000 -0.617482
165.000000 -0.600352
165.050000 -0.562668
165.100000 -0.586649
165.150000 -0.665444
165.200000 -0.737388
165.250000 -0.778499
165.300000 -0.829887
165.350000 -0.857295
165.400000 -0.829888
165.450000 -0.771647
165.500000 -0.703129
165.550000 -0.607204
165.600000 -0.490725
165.650000 -0.367392
165.700000 -0.254338
165.750000 -0.154987
165.800000 -0.079617
165.850000 -0.048784
165.900000 -0.059062
165.950000 -0.089895
166.000000 -0.131006
166.050000 -0.182394
166.100000 -0.257764
166.150000 -0.333133
166.200000 -0.387948
166.250000 -0.449614
166.300000 -0.528409
166.350000 -0.590075
166.400000 -0.620908
166.450000 -0.631186
166.500000 -0.641463
166.550000 -0.648315
166.600000 -0.638038
166.650000 -0.617483
166.700000 -0.590075
166.750000 -0.548964
166.800000 -0.514705
166.850000 -0.507854
166.900000 -0.542113
166.950000 -0.600353
167.000000 -0.662019
167.050000 -0.727111
167.100000 -0.799054
167.150000 -0.867573
167.200000 -0.922386
167.250000 -0.932664
167.300000 -0.929238
167.350000 -0.898405
167.400000 -0.799055
167.450000 -0.648315
167.500000 -0.511280
167.550000 -0.408503
167.600000 -0.312578
167.650000 -0.240634
167.700000 -0.247486
167.750000 -0.319430
167.800000 -0.408503
167.850000 -0.518132
167.900000 -0.689426
167.950000 -0.898405
168.000000 -1.097107
168.050000 -1.251272
168.100000 -1.360901
168.150000 -1.446548
168.200000 -1.484233
168.250000 -1.470529
168.300000 -1.432844
168.350000 -1.398585
168.400000 -1.354048
168.450000 -1.309512
168.500000 -1.271827
168.550000 -1.240994
168.600000 -1.230717
168.650000 -1.264976
168.700000 -1.295809
168.750000 -1.285531
168.800000 -1.292382
168.850000 -1.316364
168.900000 -1.288957
168.950000 -1.189606
169.000000 -1.076552
169.050000 -0.960071
169.100000 -0.823035
169.150000 -0.692852
169.200000 -0.610630
169.250000 -0.572945
169.300000 -0.552390
169.350000 -0.566094
169.400000 -0.620908
169.450000 -0.706555
169.500000 -0.805906
169.550000 -0.891553
169.600000 -0.949793
169.650000 -0.994330
169.700000 -1.032015
169.750000 -1.055996
169.800000 -1.049144
169.850000 -1.008034
169.900000 -0.956646
169.950000 -0.918961
170.000000 -0.891554
170.050000 -0.881276
170.100000 -0.908682
170.150000 -0.953220
170.200000 -0.987478
170.250000 -1.021737
170.300000 -1.086829
170.350000 -1.151921
170.400000 -1.175902
170.450000 -1.179328
170.500000 -1.182754
170.550000 -1.148495
170.600000 -1.055996
170.650000 -0.932664
170.700000 -0.809332
170.750000 -0.682574
170.800000 -0.531835
170.850000 -0.370818
170.900000 -0.247486
170.950000 -0.178969
171.000000 -0.131006
171.050000 -0.107024
171.100000 -0.141284
171.150000 -0.220079
171.200000 -0.302301
171.250000 -0.425632
171.300000 -0.572946
171.350000 -0.692852
171.400000 -0.781925
171.450000 -0.870998
171.500000 -0.942942
171.550000 -0.970349
171.600000 -0.956646
171.650000 -0.925813
171.700000 -0.867572
171.750000 -0.812758
171.800000 -0.795629
171.850000 -0.799054
171.900000 -0.795628
171.950000 -0.812758
172.000000 -0.864146
172.050000 -0.922386
172.100000 -0.970349
172.150000 -1.008034
172.200000 -1.042292
172.250000 -1.076551
172.300000 -1.114237
172.350000 -1.134792
172.400000 -1.107385
172.450000 -1.066273
172.500000 -1.035441
172.550000 -1.011460
172.600000 -0.980627
172.650000 -0.956645
172.700000 -0.942941
172.750000 -0.939516
172.800000 -0.946368
172.850000 -0.949794
172.900000 -0.939516
172.950000 -0.918961
173.000000 -0.894979
173.050000 -0.826461
173.100000 -0.730536
173.150000 -0.641463
173.200000 -0.545539
173.250000 -0.408502
173.300000 -0.268042
173.350000 -0.148135
173.400000 -0.055637
173.450000 0.002604
173.500000 0.036863
173.550000 0.023159
173.600000 -0.079617
173.650000 -0.247486
173.700000 -0.408503
173.750000 -0.583223
173.800000 -0.799054
173.850000 -1.004608
173.900000 -1.172477
173.950000 -1.323215
174.000000 -1.443122
174.050000 -1.494510
174.100000 -1.515066
174.150000 -1.521917
174.200000 -1.480807
174.250000 -1.419141
174.300000 -1.354049
174.350000 -1.275254
174.400000 -1.179328
174.450000 -1.086829
174.500000 -0.994330
174.550000 -0.905257
174.600000 -0.850442
174.650000 -0.816183
174.700000 -0.795628
174.750000 -0.792202
174.800000 -0.805906
174.850000 -0.833313
174.900000 -0.894979
174.950000 -0.973775
175.000000 -1.042293
175.050000 -1.103958
175.100000 -1.179328
175.150000 -1.234142
175.200000 -1.234143
175.250000 -1.210161
175.300000 -1.179328
175.350000 -1.127939
175.400000 -1.076551
175.450000 -1.021738
175.500000 -0.953219
175.550000 -0.888127
175.600000 -0.826462
175.650000 -0.740814
175.700000 -0.665445
175.750000 -0.627760
175.800000 -0.572946
175.850000 -0.483873
175.900000 -0.429058
175.950000 -0.405077
176.000000 -0.350262
176.050000 -0.312578
176.100000 -0.316004
176.150000 -0.322856
176.200000 -0.329707
176.250000 -0.387948
176.300000 -0.473595
176.350000 -0.545539
176.400000 -0.648315
176.450000 -0.781925
176.500000 -0.898406
176.550000 -0.977201
176.600000 -1.035441
176.650000 -1.073125
176.700000 -1.117662
176.750000 -1.155347
176.800000 -1.131366
176.850000 -1.079978
176.900000 -1.073125
176.950000 -1.076551
177.000000 -1.045718
177.050000 -0.997756
177.100000 -0.960071
177.150000 -0.912108
177.200000 -0.840165
177.250000 -0.744240
177.300000 -0.631186
177.350000 -0.518132
177.400000 -0.394800
177.450000 -0.271467
177.500000 -0.175542
177.550000 -0.120728
177.600000 -0.096747
177.650000 -0.134432
177.700000 -0.244061
177.750000 -0.381096
177.800000 -0.531835
177.850000 -0.723685
177.900000 -0.922387
177.950000 -1.079977
178.000000 -1.210161
178.050000 -1.312938
178.100000 -1.343771
178.150000 -1.336919
178.200000 -1.312938
178.250000 -1.258123
178.300000 -1.179328
178.350000 -1.117662
178.400000 -1.076552
178.450000 -1.055996
178.500000 -1.083404
178.550000 -1.145070
178.600000 -1.182754
178.650000 -1.217013
178.700000 -1.258124
178.750000 -1.264976
178.800000 -1.227291
178.850000 -1.186179
178.900000 -1.127940
178.950000 -1.018312
179.000000 -0.898405
179.050000 -0.792202
179.100000 -0.696277
179.150000 -0.634611
179.200000 -0.593501
179.250000 -0.566093
179.300000 -0.552390
179.350000 -0.576371
179.400000 -0.644890
179.450000 -0.733963
179.500000 -0.826462
179.550000 -0.888127
179.600000 -0.939516
179.650000 -0.973774
179.700000 -0.963497
179.750000 -0.912109
179.800000 -0.853869
179.850000 -0.778499
179.900000 -0.692851
179.950000 -0.603779
180.000000 -0.507853
180.050000 -0.394799
180.100000 -0.333133
180.150000 -0.322856
180.200000 -0.298875
180.250000 -0.292022
180.300000 -0.353689
180.350000 -0.425632
180.400000 -0.470169
180.450000 -0.538687
180.500000 -0.631186
180.550000 -0.675722
180.600000 -0.686000
180.650000 -0.679148
180.700000 -0.641463
180.750000 -0.579798
180.800000 -0.524983
180.850000 -0.463318
180.900000 -0.411929
180.950000 -0.405077
181.000000 -0.422207
181.050000 -0.439335
181.100000 -0.507853
181.150000 -0.631186
181.200000 -0.744240
181.250000 -0.857294
181.300000 -1.004608
181.350000 -1.141643
181.400000 -1.213587
181.450000 -1.240994
181.500000 -1.230717
181.550000 -1.172476
181.600000 -1.093680
181.650000 -1.001182
181.700000 -0.870998
181.750000 -0.751092
181.800000 -0.696277
181.850000 -0.655167
181.900000 -0.600353
181.950000 -0.579797
182.000000 -0.610630
182.050000 -0.638037
182.100000 -0.662019
182.150000 -0.706556
182.200000 -0.727111
182.250000 -0.696278
182.300000 -0.662019
182.350000 -0.631186
182.400000 -0.562668
182.450000 -0.501002
182.500000 -0.449614
182.550000 -0.391373
182.600000 -0.343411
182.650000 -0.339986
182.700000 -0.353689
182.750000 -0.367392
182.800000 -0.394800
182.850000 -0.415355
182.900000 -0.432485
182.950000 -0.490724
183.000000 -0.569520
183.050000 -0.610631
183.100000 -0.644889
183.150000 -0.703130
183.200000 -0.757943
183.250000 -0.805906
183.300000 -0.877850
183.350000 -0.932664
183.400000 -0.966923
183.450000 -1.014886
183.500000 -1.045718
183.550000 -1.004607
183.600000 -0.929238
183.650000 -0.870998
183.700000 -0.788777
183.750000 -0.665445
183.800000 -0.548965
183.850000 -0.459891
183.900000 -0.367392
183.950000 -0.298874
184.000000 -0.278319
184.050000 -0.292022
184.100000 -0.374244
184.150000 -0.511280
184.200000 -0.638038
184.250000 -0.757943
184.300000 -0.905257
184.350000 -1.035441
184.400000 -1.097107
184.450000 -1.127940
184.500000 -1.124514
184.550000 -1.049144
184.600000 -0.929238
184.650000 -0.805906
184.700000 -0.675722
184.750000 -0.548964
184.800000 -0.453039
184.850000 -0.374244
184.900000 -0.316004
184.950000 -0.326282
185.000000 -0.387948
185.050000 -0.456466
185.100000 -0.569520
185.150000 -0.720259
185.200000 -0.836739
185.250000 -0.932664
185.300000 -1.052570
185.350000 -1.148495
185.400000 -1.179329
185.450000 -1.193032
185.500000 -1.199884
185.550000 -1.162198
185.600000 -1.093681
185.650000 -1.018312
185.700000 -0.936090
185.750000 -0.857295
185.800000 -0.802480
185.850000 -0.781924
185.900000 -0.799055
185.950000 -0.850443
186.000000 -0.925812
186.050000 -1.028589
186.100000 -1.162199
186.150000 -1.306086
186.200000 -1.429418
186.250000 -1.528769
186.300000 -1.597287
186.350000 -1.617842
186.400000 -1.607564
186.450000 -1.556176
186.500000 -1.432844
186.550000 -1.282104
186.600000 -1.127940
186.650000 -0.946368
186.700000 -0.778499
186.750000 -0.706555
186.800000 -0.686000
186.850000 -0.648316
186.900000 -0.658593
186.950000 -0.754518
187.000000 -0.850443
187.050000 -0.908683
187.100000 -0.990904
187.150000 -1.076551
187.200000 -1.090255
187.250000 -1.073125
187.300000 -1.066273
187.350000 -1.021738
187.400000 -0.929239
187.450000 -0.867572
187.500000 -0.836739
187.550000 -0.785350
187.600000 -0.737388
187.650000 -0.751092
187.700000 -0.805906
187.750000 -0.870998
187.800000 -0.949793
187.850000 -1.032015
187.900000 -1.103958
187.950000 -1.172476
188.000000 -1.213587
188.050000 -1.223865
188.100000 -1.227291
188.150000 -1.210161
188.200000 -1.141643
188.250000 -1.035441
188.300000 -0.946368
188.350000 -0.860720
188.400000 -0.754518
188.450000 -0.648315
188.500000 -0.562668
188.550000 -0.511279
188.600000 -0.477021
188.650000 -0.473594
188.700000 -0.507853
188.750000 -0.566094
188.800000 -0.607205
188.850000 -0.665445
188.900000 -0.781925
