fit_time[ns] Functional_fit[mV] Thermal_fit[mV]
3.550000 34.255368 31.607997
3.600000 34.212549 30.999485
3.650000 34.091158 30.402748
3.700000 33.881033 29.817542
3.750000 33.574683 29.243631
3.800000 33.167416 28.680785
3.850000 32.657390 28.128776
3.900000 32.045599 27.587384
3.950000 31.335787 27.056393
4.000000 30.534294 26.535590
4.050000 29.649844 26.024770
4.100000 28.693279 25.523730
4.150000 27.677242 25.032272
4.200000 26.615830 24.550203
4.250000 25.524208 24.077333
4.300000 24.418213 23.613477
4.350000 23.313943 23.158455
4.400000 22.227355 22.712088
4.450000 21.173866 22.274204
4.500000 20.167984 21.844633
4.550000 19.222960 21.423209
4.600000 18.350486 21.009770
4.650000 17.560431 20.604156
4.700000 16.860631 20.206212
4.750000 16.256736 19.815786
4.800000 15.752104 19.432728
4.850000 15.347764 19.056894
4.900000 15.042433 18.688139
4.950000 14.832588 18.326325
5.000000 14.712596 17.971315
5.050000 14.674890 17.622974
5.100000 14.710189 17.281171
5.150000 14.807761 16.945779
5.200000 14.955708 16.616671
5.250000 15.141283 16.293725
5.300000 15.351218 15.976819
5.350000 15.572053 15.665837
5.400000 15.790475 15.360661
5.450000 15.993636 15.061181
5.500000 16.169460 14.767283
5.550000 16.306918 14.478860
5.600000 16.396283 14.195806
5.650000 16.429336 13.918017
5.700000 16.399537 13.645390
5.750000 16.302151 13.377826
5.800000 16.134328 13.115226
5.850000 15.895130 12.857496
5.900000 15.585516 12.604541
5.950000 15.208280 12.356269
6.000000 14.767938 12.112590
6.050000 14.270589 11.873416
6.100000 13.723722 11.638660
6.150000 13.136009 11.408238
6.200000 12.517062 11.182066
6.250000 11.877178 10.960064
6.300000 11.227068 10.742151
6.350000 10.577582 10.528249
6.400000 9.939442 10.318283
6.450000 9.322971 10.112176
6.500000 8.737852 9.909856
6.550000 8.192896 9.711250
6.600000 7.695843 9.516288
6.650000 7.253187 9.324901
6.700000 6.870045 9.137020
6.750000 6.550050 8.952580
6.800000 6.295294 8.771514
6.850000 6.106304 8.593761
6.900000 5.982056 8.419255
6.950000 5.920035 8.247938
7.000000 5.916318 8.079747
7.050000 5.965702 7.914625
7.100000 6.061856 7.752513
7.150000 6.197495 7.593356
7.200000 6.364578 7.437096
7.250000 6.554521 7.283681
7.300000 6.758416 7.133056
7.350000 6.967258 6.985169
7.400000 7.172164 6.839969
7.450000 7.364592 6.697406
7.500000 7.536539 6.557430
7.550000 7.680731 6.419992
7.600000 7.790784 6.285047
7.650000 7.861340 6.152546
7.700000 7.888183 6.022444
7.750000 7.868316 5.894697
7.800000 7.800009 5.769261
7.850000 7.682817 5.646093
7.900000 7.517563 5.525150
7.950000 7.306293 5.406392
8.000000 7.052199 5.289777
8.050000 6.759520 5.175266
8.100000 6.433409 5.062820
8.150000 6.079795 4.952401
8.200000 5.705216 4.843970
8.250000 5.316645 4.737493
8.300000 4.921309 4.632931
8.350000 4.526509 4.530250
8.400000 4.139432 4.429416
8.450000 3.766977 4.330393
8.500000 3.415593 4.233149
8.550000 3.091126 4.137651
8.600000 2.798685 4.043867
8.650000 2.542531 3.951765
8.700000 2.325989 3.861314
8.750000 2.151383 3.772484
8.800000 2.019999 3.685245
8.850000 1.932069 3.599568
8.900000 1.886791 3.515424
8.950000 1.882366 3.432786
9.000000 1.916060 3.351625
9.050000 1.984291 3.271915
9.100000 2.082734 3.193628
9.150000 2.206440 3.116740
9.200000 2.349968 3.041224
9.250000 2.507534 2.967055
9.300000 2.673153 2.894209
9.350000 2.840794 2.822662
9.400000 3.004527 2.752389
9.450000 3.158667 2.683368
9.500000 3.297909 2.615576
9.550000 3.417452 2.548991
9.600000 3.513101 2.483590
9.650000 3.581365 2.419352
9.700000 3.619524 2.356257
9.750000 3.625683 2.294282
9.800000 3.598797 2.233408
9.850000 3.538687 2.173615
9.900000 3.446020 2.114883
9.950000 3.322277 2.057193
10.000000 3.169704 2.000526
10.050000 2.991235 1.944864
10.100000 2.790410 1.890188
10.150000 2.571272 1.836481
10.200000 2.338262 1.783725
10.250000 2.096095 1.731902
10.300000 1.849644 1.680997
10.350000 1.603811 1.630992
10.400000 1.363409 1.581871
10.450000 1.133044 1.533619
10.500000 0.917005 1.486219
10.550000 0.719163 1.439656
10.600000 0.542887 1.393916
10.650000 0.390965 1.348983
10.700000 0.265553 1.304843
10.750000 0.168128 1.261481
10.800000 0.099471 1.218884
10.850000 0.059654 1.177038
10.900000 0.048058 1.135929
10.950000 0.063398 1.095545
11.000000 0.103770 1.055871
11.050000 0.166708 1.016896
11.100000 0.249256 0.978607
11.150000 0.348051 0.940991
11.200000 0.459411 0.904037
11.250000 0.579436 0.867732
11.300000 0.704105 0.832066
11.350000 0.829378 0.797026
11.400000 0.951295 0.762601
11.450000 1.066073 0.728781
11.500000 1.170194 0.695555
11.550000 1.260486 0.662912
11.600000 1.334198 0.630841
11.650000 1.389052 0.599333
11.700000 1.423296 0.568377
11.750000 1.435733 0.537964
11.800000 1.425740 0.508083
11.850000 1.393273 0.478726
11.900000 1.338854 0.449883
11.950000 1.263549 0.421545
12.000000 1.168929 0.393702
12.050000 1.057023 0.366347
12.100000 0.930257 0.339471
12.150000 0.791387 0.313064
12.200000 0.643422 0.287118
12.250000 0.489551 0.261627
12.300000 0.333053 0.236580
12.350000 0.177219 0.211971
12.400000 0.025268 0.187792
12.450000 -0.119726 0.164034
12.500000 -0.254916 0.140692
12.550000 -0.377740 0.117756
12.600000 -0.485980 0.095221
12.650000 -0.577814 0.073078
12.700000 -0.651849 0.051321
12.750000 -0.707149 0.029944
12.800000 -0.743249 0.008939
12.850000 -0.760156 -0.011700
12.900000 -0.758341 -0.031980
12.950000 -0.738719 -0.051907
13.000000 -0.702615 -0.071487
13.050000 -0.651727 -0.090726
13.100000 -0.588075 -0.109631
13.150000 -0.513943 -0.128206
13.200000 -0.431822 -0.146459
13.250000 -0.344343 -0.164395
13.300000 -0.254207 -0.182019
13.350000 -0.164120 -0.199337
13.400000 -0.076726 -0.216353
13.450000 0.005456 -0.233075
13.500000 0.080094 -0.249506
13.550000 0.145096 -0.265652
13.600000 0.198653 -0.281518
13.650000 0.239284 -0.297109
13.700000 0.265858 -0.312429
13.750000 0.277625 -0.327483
13.800000 0.274216 -0.342277
13.850000 0.255652 -0.356814
13.900000 0.222334 -0.371100
13.950000 0.175022 -0.385138
14.000000 0.114815 -0.398932
14.050000 0.043110 -0.412488
14.100000 -0.038431 -0.425809
14.150000 -0.127932 -0.438900
14.200000 -0.223354 -0.451764
14.250000 -0.322545 -0.464406
14.300000 -0.423298 -0.476829
14.350000 -0.523405 -0.489037
14.400000 -0.620715 -0.501034
14.450000 -0.713179 -0.512824
14.500000 -0.798908 -0.524410
14.550000 -0.876207 -0.535796
14.600000 -0.943618 -0.546985
14.650000 -0.999954 -0.557981
14.700000 -1.044315 -0.568788
14.750000 -1.076111 -0.579407
14.800000 -1.095071 -0.589844
14.850000 -1.101236 -0.600100
14.900000 -1.094962 -0.610179
14.950000 -1.076896 -0.620085
15.000000 -1.047961 -0.629820
15.050000 -1.009324 -0.639387
15.100000 -0.962364 -0.648789
15.150000 -0.908634 -0.658029
15.200000 -0.849819 -0.667110
15.250000 -0.787692 -0.676034
15.300000 -0.724067 -0.684805
15.350000 -0.660758 -0.693425
15.400000 -0.599529 -0.701896
15.450000 -0.542056 -0.710221
15.500000 -0.489885 -0.718404
15.550000 -0.444397 -0.726445
15.600000 -0.406778 -0.734348
15.650000 -0.377994 -0.742116
15.700000 -0.358769 -0.749749
15.750000 -0.349575 -0.757252
15.800000 -0.350625 -0.764625
15.850000 -0.361871 -0.771872
15.900000 -0.383012 -0.778994
15.950000 -0.413508 -0.785994
16.000000 -0.452593 -0.792874
16.050000 -0.499305 -0.799636
16.100000 -0.552507 -0.806281
16.150000 -0.610924 -0.812812
16.200000 -0.673175 -0.819232
16.250000 -0.737807 -0.825541
16.300000 -0.803338 -0.831742
16.350000 -0.868287 -0.837837
16.400000 -0.931216 -0.843827
16.450000 -0.990763 -0.849714
16.500000 -1.045671 -0.855500
16.550000 -1.094824 -0.861188
16.600000 -1.137263 -0.866777
16.650000 -1.172214 -0.872271
16.700000 -1.199100 -0.877671
16.750000 -1.217550 -0.882979
16.800000 -1.227408 -0.888195
16.850000 -1.228729 -0.893322
16.900000 -1.221775 -0.898362
16.950000 -1.207007 -0.903315
17.000000 -1.185064 -0.908183
17.050000 -1.156748 -0.912968
17.100000 -1.123001 -0.917672
17.150000 -1.084877 -0.922294
17.200000 -1.043515 -0.926838
17.250000 -1.000111 -0.931304
17.300000 -0.955884 -0.935694
17.350000 -0.912047 -0.940009
17.400000 -0.869778 -0.944249
17.450000 -0.830192 -0.948418
17.500000 -0.794314 -0.952515
17.550000 -0.763054 -0.956542
17.600000 -0.737190 -0.960501
17.650000 -0.717349 -0.964392
17.700000 -0.703998 -0.968216
17.750000 -0.697429 -0.971975
17.800000 -0.697763 -0.975670
17.850000 -0.704947 -0.979302
17.900000 -0.718756 -0.982872
17.950000 -0.738807 -0.986381
18.000000 -0.764569 -0.989830
18.050000 -0.795379 -0.993221
18.100000 -0.830462 -0.996553
18.150000 -0.868950 -0.999829
18.200000 -0.909909 -1.003049
18.250000 -0.952361 -1.006214
18.300000 -0.995306 -1.009325
18.350000 -1.037756 -1.012383
18.400000 -1.078748 -1.015389
18.450000 -1.117376 -1.018344
18.500000 -1.152809 -1.021248
18.550000 -1.184307 -1.024103
18.600000 -1.211243 -1.026910
18.650000 -1.233113 -1.029668
18.700000 -1.249546 -1.032380
18.750000 -1.260312 -1.035045
18.800000 -1.265324 -1.037665
18.850000 -1.264635 -1.040241
18.900000 -1.258441 -1.042773
18.950000 -1.247064 -1.045261
19.000000 -1.230948 -1.047708
19.050000 -1.210644 -1.050112
19.100000 -1.186795 -1.052476
19.150000 -1.160116 -1.054800
19.200000 -1.131378 -1.057084
19.250000 -1.101385 -1.059330
19.300000 -1.070957 -1.061537
19.350000 -1.040905 -1.063706
19.400000 -1.012016 -1.065839
19.450000 -0.985031 -1.067936
19.500000 -0.960628 -1.069997
19.550000 -0.939408 -1.072023
19.600000 -0.921881 -1.074015
19.650000 -0.908454 -1.075972
19.700000 -0.899425 -1.077897
19.750000 -0.894975 -1.079789
19.800000 -0.895172 -1.081649
19.850000 -0.899964 -1.083477
19.900000 -0.909186 -1.085274
19.950000 -0.922568 -1.087041
20.000000 -0.939741 -1.088778
20.050000 -0.960251 -1.090485
20.100000 -0.983567 -1.092163
20.150000 -1.009101 -1.093813
20.200000 -1.036221 -1.095435
20.250000 -1.064267 -1.097030
20.300000 -1.092570 -1.098597
20.350000 -1.120465 -1.100138
20.400000 -1.147311 -1.101653
20.450000 -1.172505 -1.103142
20.500000 -1.195497 -1.104606
20.550000 -1.215798 -1.106045
20.600000 -1.232998 -1.107460
20.650000 -1.246769 -1.108851
20.700000 -1.256874 -1.110218
20.750000 -1.263171 -1.111562
20.800000 -1.265612 -1.112883
20.850000 -1.264247 -1.114182
20.900000 -1.259216 -1.115459
20.950000 -1.250747 -1.116715
21.000000 -1.239148 -1.117949
21.050000 -1.224797 -1.119162
21.100000 -1.208132 -1.120355
21.150000 -1.189637 -1.121527
21.200000 -1.169835 -1.122680
21.250000 -1.149267 -1.123813
21.300000 -1.128482 -1.124927
21.350000 -1.108025 -1.126023
21.400000 -1.088419 -1.127099
21.450000 -1.070157 -1.128158
21.500000 -1.053688 -1.129199
21.550000 -1.039409 -1.130222
21.600000 -1.027652 -1.131228
21.650000 -1.018683 -1.132216
21.700000 -1.012690 -1.133189
21.750000 -1.009787 -1.134144
21.800000 -1.010008 -1.135084
21.850000 -1.013307 -1.136008
21.900000 -1.019567 -1.136916
21.950000 -1.028596 -1.137808
22.000000 -1.040139 -1.138686
22.050000 -1.053883 -1.139549
22.100000 -1.069468 -1.140397
22.150000 -1.086493 -1.141231
22.200000 -1.104533 -1.142051
22.250000 -1.123142 -1.142857
22.300000 -1.141870 -1.143650
22.350000 -1.160274 -1.144429
22.400000 -1.177925 -1.145195
22.450000 -1.194423 -1.145948
22.500000 -1.209402 -1.146689
22.550000 -1.222542 -1.147417
22.600000 -1.233574 -1.148132
22.650000 -1.242284 -1.148836
22.700000 -1.248523 -1.149528
22.750000 -1.252201 -1.150208
22.800000 -1.253296 -1.150876
22.850000 -1.251849 -1.151534
22.900000 -1.247961 -1.152180
22.950000 -1.241793 -1.152815
23.000000 -1.233557 -1.153440
23.050000 -1.223513 -1.154054
23.100000 -1.211958 -1.154658
23.150000 -1.199223 -1.155252
23.200000 -1.185658 -1.155835
23.250000 -1.171629 -1.156409
23.300000 -1.157505 -1.156973
23.350000 -1.143649 -1.157528
23.400000 -1.130411 -1.158073
23.450000 -1.118118 -1.158610
23.500000 -1.107067 -1.159137
23.550000 -1.097520 -1.159655
23.600000 -1.089693 -1.160165
23.650000 -1.083759 -1.160666
23.700000 -1.079838 -1.161158
23.750000 -1.078000 -1.161643
23.800000 -1.078259 -1.162119
23.850000 -1.080581 -1.162587
23.900000 -1.084878 -1.163047
23.950000 -1.091016 -1.163500
24.000000 -1.098820 -1.163945
24.050000 -1.108075 -1.164382
24.100000 -1.118535 -1.164812
24.150000 -1.129929 -1.165235
24.200000 -1.141969 -1.165651
24.250000 -1.154354 -1.166060
24.300000 -1.166784 -1.166461
24.350000 -1.178961 -1.166857
24.400000 -1.190600 -1.167245
24.450000 -1.201434 -1.167627
24.500000 -1.211222 -1.168003
24.550000 -1.219753 -1.168372
24.600000 -1.226851 -1.168735
24.650000 -1.232377 -1.169092
24.700000 -1.236237 -1.169443
24.750000 -1.238375 -1.169788
24.800000 -1.238783 -1.170128
24.850000 -1.237493 -1.170461
24.900000 -1.234578 -1.170789
24.950000 -1.230151 -1.171112
25.000000 -1.224358 -1.171429
25.050000 -1.217376 -1.171741
25.100000 -1.209410 -1.172047
25.150000 -1.200683 -1.172349
25.200000 -1.191431 -1.172645
25.250000 -1.181900 -1.172936
25.300000 -1.172338 -1.173223
25.350000 -1.162989 -1.173505
25.400000 -1.154084 -1.173781
25.450000 -1.145841 -1.174054
25.500000 -1.138458 -1.174322
25.550000 -1.132105 -1.174585
25.600000 -1.126925 -1.174844
25.650000 -1.123029 -1.175098
25.700000 -1.120493 -1.175349
25.750000 -1.119359 -1.175595
25.800000 -1.119634 -1.175837
25.850000 -1.121288 -1.176074
25.900000 -1.124260 -1.176308
25.950000 -1.128456 -1.176538
26.000000 -1.133754 -1.176765
26.050000 -1.140007 -1.176987
26.100000 -1.147048 -1.177206
26.150000 -1.154693 -1.177420
26.200000 -1.162747 -1.177632
26.250000 -1.171009 -1.177840
26.300000 -1.179276 -1.178044
26.350000 -1.187350 -1.178245
26.400000 -1.195040 -1.178443
26.450000 -1.202170 -1.178637
26.500000 -1.208579 -1.178828
26.550000 -1.214130 -1.179016
26.600000 -1.218706 -1.179200
26.650000 -1.222218 -1.179382
26.700000 -1.224607 -1.179560
26.750000 -1.225840 -1.179736
26.800000 -1.225912 -1.179909
26.850000 -1.224851 -1.180078
26.900000 -1.222709 -1.180245
26.950000 -1.219563 -1.180409
27.000000 -1.215516 -1.180571
27.050000 -1.210689 -1.180729
27.100000 -1.205219 -1.180885
27.150000 -1.199259 -1.181039
27.200000 -1.192969 -1.181190
27.250000 -1.186514 -1.181338
27.300000 -1.180059 -1.181484
27.350000 -1.173768 -1.181627
27.400000 -1.167796 -1.181768
27.450000 -1.162286 -1.181907
27.500000 -1.157369 -1.182043
27.550000 -1.153158 -1.182177
27.600000 -1.149745 -1.182309
27.650000 -1.147202 -1.182439
27.700000 -1.145579 -1.182566
27.750000 -1.144898 -1.182692
27.800000 -1.145163 -1.182815
27.850000 -1.146350 -1.182936
27.900000 -1.148415 -1.183055
27.950000 -1.151293 -1.183172
28.000000 -1.154900 -1.183287
28.050000 -1.159134 -1.183401
28.100000 -1.163883 -1.183512
28.150000 -1.169022 -1.183622
28.200000 -1.174419 -1.183729
28.250000 -1.179939 -1.183835
28.300000 -1.185446 -1.183939
28.350000 -1.190807 -1.184042
28.400000 -1.195895 -1.184143
28.450000 -1.200594 -1.184242
28.500000 -1.204797 -1.184339
28.550000 -1.208413 -1.184435
28.600000 -1.211367 -1.184529
28.650000 -1.213602 -1.184621
28.700000 -1.215080 -1.184712
28.750000 -1.215780 -1.184802
28.800000 -1.215703 -1.184890
28.850000 -1.214869 -1.184976
28.900000 -1.213316 -1.185062
28.950000 -1.211098 -1.185145
29.000000 -1.208285 -1.185228
29.050000 -1.204959 -1.185308
29.100000 -1.201216 -1.185388
29.150000 -1.197157 -1.185466
29.200000 -1.192891 -1.185543
29.250000 -1.188529 -1.185619
29.300000 -1.184181 -1.185693
29.350000 -1.179957 -1.185766
29.400000 -1.175961 -1.185838
29.450000 -1.172286 -1.185909
29.500000 -1.169021 -1.185979
29.550000 -1.166237 -1.186047
29.600000 -1.163998 -1.186114
29.650000 -1.162347 -1.186180
29.700000 -1.161317 -1.186246
29.750000 -1.160921 -1.186309
29.800000 -1.161158 -1.186372
29.850000 -1.162012 -1.186434
29.900000 -1.163451 -1.186495
29.950000 -1.165430 -1.186555
30.000000 -1.167889 -1.186614
30.050000 -1.170762 -1.186671
30.100000 -1.173969 -1.186728
30.150000 -1.177428 -1.186784
30.200000 -1.181048 -1.186839
30.250000 -1.184740 -1.186893
30.300000 -1.188412 -1.186947
30.350000 -1.191975 -1.186999
30.400000 -1.195346 -1.187050
30.450000 -1.198445 -1.187101
30.500000 -1.201204 -1.187151
30.550000 -1.203562 -1.187199
30.600000 -1.205471 -1.187247
30.650000 -1.206893 -1.187295
30.700000 -1.207804 -1.187341
30.750000 -1.208193 -1.187387
30.800000 -1.208062 -1.187432
30.850000 -1.207426 -1.187476
30.900000 -1.206311 -1.187520
30.950000 -1.204756 -1.187562
31.000000 -1.202808 -1.187604
31.050000 -1.200524 -1.187646
31.100000 -1.197968 -1.187686
31.150000 -1.195210 -1.187726
31.200000 -1.192322 -1.187766
31.250000 -1.189379 -1.187804
31.300000 -1.186456 -1.187842
31.350000 -1.183625 -1.187880
31.400000 -1.180955 -1.187917
31.450000 -1.178509 -1.187953
31.500000 -1.176345 -1.187988
31.550000 -1.174510 -1.188023
31.600000 -1.173045 -1.188058
31.650000 -1.171979 -1.188091
31.700000 -1.171330 -1.188125
31.750000 -1.171109 -1.188157
31.800000 -1.171311 -1.188190
31.850000 -1.171926 -1.188221
31.900000 -1.172930 -1.188252
31.950000 -1.174291 -1.188283
32.000000 -1.175971 -1.188313
32.050000 -1.177921 -1.188343
32.100000 -1.180089 -1.188372
32.150000 -1.182419 -1.188400
32.200000 -1.184850 -1.188428
32.250000 -1.187321 -1.188456
32.300000 -1.189771 -1.188483
32.350000 -1.192141 -1.188510
32.400000 -1.194374 -1.188536
32.450000 -1.196420 -1.188562
32.500000 -1.198232 -1.188588
32.550000 -1.199770 -1.188613
32.600000 -1.201003 -1.188637
32.650000 -1.201908 -1.188661
32.700000 -1.202468 -1.188685
32.750000 -1.202677 -1.188709
32.800000 -1.202539 -1.188732
32.850000 -1.202063 -1.188754
32.900000 -1.201269 -1.188776
32.950000 -1.200183 -1.188798
33.000000 -1.198838 -1.188820
33.050000 -1.197273 -1.188841
33.100000 -1.195531 -1.188862
33.150000 -1.193660 -1.188882
33.200000 -1.191708 -1.188902
33.250000 -1.189725 -1.188922
33.300000 -1.187763 -1.188942
33.350000 -1.185868 -1.188961
33.400000 -1.184087 -1.188980
33.450000 -1.182462 -1.188998
33.500000 -1.181030 -1.189016
33.550000 -1.179823 -1.189034
33.600000 -1.178867 -1.189052
33.650000 -1.178181 -1.189069
33.700000 -1.177777 -1.189086
33.750000 -1.177659 -1.189103
33.800000 -1.177826 -1.189119
33.850000 -1.178267 -1.189136
33.900000 -1.178968 -1.189152
33.950000 -1.179906 -1.189167
34.000000 -1.181053 -1.189183
34.050000 -1.182378 -1.189198
34.100000 -1.183844 -1.189213
34.150000 -1.185414 -1.189227
34.200000 -1.187047 -1.189242
34.250000 -1.188702 -1.189256
34.300000 -1.190337 -1.189270
34.350000 -1.191914 -1.189283
34.400000 -1.193395 -1.189297
34.450000 -1.194746 -1.189310
34.500000 -1.195936 -1.189323
34.550000 -1.196939 -1.189336
34.600000 -1.197736 -1.189349
34.650000 -1.198310 -1.189361
34.700000 -1.198653 -1.189373
34.750000 -1.198760 -1.189385
34.800000 -1.198634 -1.189397
34.850000 -1.198283 -1.189409
34.900000 -1.197721 -1.189420
34.950000 -1.196965 -1.189431
35.000000 -1.196039 -1.189442
35.050000 -1.194968 -1.189453
35.100000 -1.193783 -1.189464
35.150000 -1.192515 -1.189474
35.200000 -1.191198 -1.189485
35.250000 -1.189864 -1.189495
35.300000 -1.188547 -1.189505
35.350000 -1.187281 -1.189515
35.400000 -1.186094 -1.189524
35.450000 -1.185016 -1.189534
35.500000 -1.184070 -1.189543
35.550000 -1.183277 -1.189552
35.600000 -1.182655 -1.189561
35.650000 -1.182216 -1.189570
35.700000 -1.181966 -1.189579
35.750000 -1.181909 -1.189587
35.800000 -1.182042 -1.189596
35.850000 -1.182359 -1.189604
35.900000 -1.182847 -1.189612
35.950000 -1.183493 -1.189620
36.000000 -1.184277 -1.189628
36.050000 -1.185177 -1.189636
36.100000 -1.186170 -1.189644
36.150000 -1.187228 -1.189651
36.200000 -1.188325 -1.189659
36.250000 -1.189433 -1.189666
36.300000 -1.190525 -1.189673
36.350000 -1.191575 -1.189680
36.400000 -1.192556 -1.189687
36.450000 -1.193448 -1.189694
36.500000 -1.194230 -1.189700
36.550000 -1.194885 -1.189707
36.600000 -1.195399 -1.189714
36.650000 -1.195763 -1.189720
36.700000 -1.195971 -1.189726
36.750000 -1.196021 -1.189732
36.800000 -1.195915 -1.189738
36.850000 -1.195659 -1.189744
36.900000 -1.195263 -1.189750
36.950000 -1.194739 -1.189756
37.000000 -1.194102 -1.189762
37.050000 -1.193371 -1.189767
37.100000 -1.192565 -1.189773
37.150000 -1.191707 -1.189778
37.200000 -1.190819 -1.189783
37.250000 -1.189922 -1.189788
37.300000 -1.189040 -1.189794
37.350000 -1.188194 -1.189799
37.400000 -1.187404 -1.189804
37.450000 -1.186689 -1.189808
37.500000 -1.186065 -1.189813
37.550000 -1.185546 -1.189818
37.600000 -1.185142 -1.189823
37.650000 -1.184862 -1.189827
37.700000 -1.184709 -1.189832
37.750000 -1.184686 -1.189836
37.800000 -1.184790 -1.189840
37.850000 -1.185016 -1.189845
37.900000 -1.185357 -1.189849
37.950000 -1.185802 -1.189853
38.000000 -1.186337 -1.189857
38.050000 -1.186949 -1.189861
38.100000 -1.187621 -1.189865
38.150000 -1.188334 -1.189869
38.200000 -1.189071 -1.189873
38.250000 -1.189813 -1.189876
38.300000 -1.190543 -1.189880
38.350000 -1.191241 -1.189884
38.400000 -1.191892 -1.189887
38.450000 -1.192481 -1.189891
38.500000 -1.192994 -1.189894
38.550000 -1.193421 -1.189897
38.600000 -1.193753 -1.189901
38.650000 -1.193983 -1.189904
38.700000 -1.194108 -1.189907
38.750000 -1.194128 -1.189910
38.800000 -1.194043 -1.189914
38.850000 -1.193858 -1.189917
38.900000 -1.193579 -1.189920
38.950000 -1.193216 -1.189923
39.000000 -1.192779 -1.189925
39.050000 -1.192281 -1.189928
39.100000 -1.191734 -1.189931
39.150000 -1.191154 -1.189934
39.200000 -1.190555 -1.189937
39.250000 -1.189953 -1.189939
39.300000 -1.189362 -1.189942
39.350000 -1.188798 -1.189945
39.400000 -1.188273 -1.189947
39.450000 -1.187799 -1.189950
39.500000 -1.187388 -1.189952
39.550000 -1.187048 -1.189955
39.600000 -1.186787 -1.189957
39.650000 -1.186609 -1.189959
39.700000 -1.186516 -1.189962
39.750000 -1.186511 -1.189964
39.800000 -1.186591 -1.189966
39.850000 -1.186752 -1.189968
39.900000 -1.186989 -1.189970
39.950000 -1.187295 -1.189972
40.000000 -1.187661 -1.189975
40.050000 -1.188077 -1.189977
40.100000 -1.188531 -1.189979
40.150000 -1.189012 -1.189981
40.200000 -1.189508 -1.189983
40.250000 -1.190005 -1.189985
40.300000 -1.190492 -1.189986
40.350000 -1.190956 -1.189988
40.400000 -1.191388 -1.189990
40.450000 -1.191777 -1.189992
40.500000 -1.192114 -1.189994
40.550000 -1.192392 -1.189995
40.600000 -1.192606 -1.189997
40.650000 -1.192751 -1.189999
40.700000 -1.192825 -1.190000
40.750000 -1.192829 -1.190002
40.800000 -1.192763 -1.190004
40.850000 -1.192630 -1.190005
40.900000 -1.192435 -1.190007
40.950000 -1.192184 -1.190008
41.000000 -1.191885 -1.190010
41.050000 -1.191545 -1.190011
41.100000 -1.191174 -1.190013
41.150000 -1.190782 -1.190014
41.200000 -1.190379 -1.190016
41.250000 -1.189975 -1.190017
41.300000 -1.189580 -1.190018
41.350000 -1.189203 -1.190020
41.400000 -1.188854 -1.190021
41.450000 -1.188541 -1.190022
41.500000 -1.188271 -1.190023
41.550000 -1.188049 -1.190025
41.600000 -1.187880 -1.190026
41.650000 -1.187767 -1.190027
41.700000 -1.187712 -1.190028
41.750000 -1.187716 -1.190030
41.800000 -1.187776 -1.190031
41.850000 -1.187890 -1.190032
41.900000 -1.188056 -1.190033
41.950000 -1.188266 -1.190034
42.000000 -1.188516 -1.190035
42.050000 -1.188798 -1.190036
42.100000 -1.189106 -1.190037
42.150000 -1.189430 -1.190038
42.200000 -1.189763 -1.190039
42.250000 -1.190096 -1.190040
42.300000 -1.190421 -1.190041
42.350000 -1.190730 -1.190042
42.400000 -1.191016 -1.190043
42.450000 -1.191272 -1.190044
42.500000 -1.191494 -1.190045
42.550000 -1.191675 -1.190046
42.600000 -1.191812 -1.190047
42.650000 -1.191903 -1.190048
42.700000 -1.191947 -1.190048
42.750000 -1.191943 -1.190049
42.800000 -1.191893 -1.190050
42.850000 -1.191798 -1.190051
42.900000 -1.191662 -1.190052
42.950000 -1.191489 -1.190052
43.000000 -1.191284 -1.190053
43.050000 -1.191053 -1.190054
43.100000 -1.190801 -1.190055
43.150000 -1.190537 -1.190055
43.200000 -1.190265 -1.190056
43.250000 -1.189994 -1.190057
43.300000 -1.189730 -1.190058
43.350000 -1.189479 -1.190058
43.400000 -1.189248 -1.190059
43.450000 -1.189041 -1.190060
43.500000 -1.188863 -1.190060
43.550000 -1.188718 -1.190061
43.600000 -1.188609 -1.190061
43.650000 -1.188538 -1.190062
43.700000 -1.188506 -1.190063
43.750000 -1.188513 -1.190063
43.800000 -1.188558 -1.190064
43.850000 -1.188639 -1.190065
43.900000 -1.188754 -1.190065
43.950000 -1.188899 -1.190066
44.000000 -1.189069 -1.190066
44.050000 -1.189261 -1.190067
44.100000 -1.189469 -1.190067
44.150000 -1.189688 -1.190068
44.200000 -1.189911 -1.190068
44.250000 -1.190134 -1.190069
44.300000 -1.190351 -1.190069
44.350000 -1.190557 -1.190070
44.400000 -1.190746 -1.190070
44.450000 -1.190915 -1.190071
44.500000 -1.191061 -1.190071
44.550000 -1.191178 -1.190072
44.600000 -1.191267 -1.190072
44.650000 -1.191324 -1.190073
44.700000 -1.191349 -1.190073
44.750000 -1.191342 -1.190073
44.800000 -1.191304 -1.190074
44.850000 -1.191237 -1.190074
44.900000 -1.191142 -1.190075
44.950000 -1.191023 -1.190075
45.000000 -1.190883 -1.190076
45.050000 -1.190725 -1.190076
45.100000 -1.190555 -1.190076
45.150000 -1.190377 -1.190077
45.200000 -1.190194 -1.190077
45.250000 -1.190013 -1.190077
45.300000 -1.189836 -1.190078
45.350000 -1.189669 -1.190078
45.400000 -1.189515 -1.190078
45.450000 -1.189379 -1.190079
45.500000 -1.189262 -1.190079
45.550000 -1.189168 -1.190079
45.600000 -1.189098 -1.190080
45.650000 -1.189053 -1.190080
45.700000 -1.189035 -1.190080
45.750000 -1.189043 -1.190081
45.800000 -1.189076 -1.190081
45.850000 -1.189133 -1.190081
45.900000 -1.189213 -1.190082
45.950000 -1.189312 -1.190082
46.000000 -1.189429 -1.190082
46.050000 -1.189559 -1.190083
46.100000 -1.189700 -1.190083
46.150000 -1.189847 -1.190083
46.200000 -1.189997 -1.190083
46.250000 -1.190146 -1.190084
46.300000 -1.190291 -1.190084
46.350000 -1.190428 -1.190084
46.400000 -1.190553 -1.190084
46.450000 -1.190665 -1.190085
46.500000 -1.190760 -1.190085
46.550000 -1.190836 -1.190085
46.600000 -1.190893 -1.190085
46.650000 -1.190929 -1.190086
46.700000 -1.190943 -1.190086
46.750000 -1.190935 -1.190086
46.800000 -1.190907 -1.190086
46.850000 -1.190859 -1.190086
46.900000 -1.190794 -1.190087
46.950000 -1.190712 -1.190087
47.000000 -1.190616 -1.190087
47.050000 -1.190509 -1.190087
47.100000 -1.190394 -1.190087
47.150000 -1.190274 -1.190088
47.200000 -1.190151 -1.190088
47.250000 -1.190029 -1.190088
47.300000 -1.189911 -1.190088
47.350000 -1.189800 -1.190088
47.400000 -1.189698 -1.190089
47.450000 -1.189608 -1.190089
47.500000 -1.189531 -1.190089
47.550000 -1.189470 -1.190089
47.600000 -1.189425 -1.190089
47.650000 -1.189398 -1.190089
47.700000 -1.189388 -1.190090
47.750000 -1.189395 -1.190090
47.800000 -1.189419 -1.190090
47.850000 -1.189460 -1.190090
47.900000 -1.189515 -1.190090
47.950000 -1.189583 -1.190090
48.000000 -1.189663 -1.190091
48.050000 -1.189751 -1.190091
48.100000 -1.189846 -1.190091
48.150000 -1.189945 -1.190091
48.200000 -1.190046 -1.190091
48.250000 -1.190146 -1.190091
48.300000 -1.190242 -1.190091
48.350000 -1.190333 -1.190091
48.400000 -1.190416 -1.190092
48.450000 -1.190490 -1.190092
48.500000 -1.190552 -1.190092
48.550000 -1.190602 -1.190092
48.600000 -1.190638 -1.190092
48.650000 -1.190660 -1.190092
48.700000 -1.190668 -1.190092
48.750000 -1.190661 -1.190092
48.800000 -1.190640 -1.190093
48.850000 -1.190607 -1.190093
48.900000 -1.190561 -1.190093
48.950000 -1.190505 -1.190093
49.000000 -1.190439 -1.190093
49.050000 -1.190367 -1.190093
49.100000 -1.190289 -1.190093
49.150000 -1.190208 -1.190093
49.200000 -1.190125 -1.190093
49.250000 -1.190044 -1.190094
49.300000 -1.189965 -1.190094
49.350000 -1.189891 -1.190094
49.400000 -1.189824 -1.190094
49.450000 -1.189764 -1.190094
49.500000 -1.189714 -1.190094
49.550000 -1.189674 -1.190094
49.600000 -1.189645 -1.190094
49.650000 -1.189628 -1.190094
49.700000 -1.189623 -1.190094
49.750000 -1.189629 -1.190094
49.800000 -1.189647 -1.190094
49.850000 -1.189676 -1.190095
49.900000 -1.189714 -1.190095
49.950000 -1.189761 -1.190095
50.000000 -1.189815 -1.190095
50.050000 -1.189875 -1.190095
50.100000 -1.189939 -1.190095
50.150000 -1.190006 -1.190095
50.200000 -1.190073 -1.190095
50.250000 -1.190140 -1.190095
50.300000 -1.190204 -1.190095
50.350000 -1.190265 -1.190095
50.400000 -1.190320 -1.190095
50.450000 -1.190368 -1.190095
50.500000 -1.190409 -1.190095
50.550000 -1.190441 -1.190096
50.600000 -1.190464 -1.190096
50.650000 -1.190478 -1.190096
50.700000 -1.190482 -1.190096
50.750000 -1.190476 -1.190096
50.800000 -1.190461 -1.190096
50.850000 -1.190437 -1.190096
50.900000 -1.190406 -1.190096
50.950000 -1.190367 -1.190096
51.000000 -1.190323 -1.190096
51.050000 -1.190273 -1.190096
51.100000 -1.190221 -1.190096
51.150000 -1.190166 -1.190096
51.200000 -1.190111 -1.190096
51.250000 -1.190056 -1.190096
51.300000 -1.190004 -1.190096
51.350000 -1.189955 -1.190096
51.400000 -1.189910 -1.190096
51.450000 -1.189871 -1.190097
51.500000 -1.189838 -1.190097
51.550000 -1.189812 -1.190097
51.600000 -1.189794 -1.190097
51.650000 -1.189783 -1.190097
51.700000 -1.189781 -1.190097
51.750000 -1.189786 -1.190097
51.800000 -1.189799 -1.190097
51.850000 -1.189819 -1.190097
51.900000 -1.189845 -1.190097
51.950000 -1.189877 -1.190097
52.000000 -1.189914 -1.190097
52.050000 -1.189955 -1.190097
52.100000 -1.189998 -1.190097
52.150000 -1.190043 -1.190097
52.200000 -1.190088 -1.190097
52.250000 -1.190133 -1.190097
52.300000 -1.190176 -1.190097
52.350000 -1.190216 -1.190097
52.400000 -1.190252 -1.190097
52.450000 -1.190284 -1.190097
52.500000 -1.190311 -1.190097
52.550000 -1.190332 -1.190097
52.600000 -1.190346 -1.190097
52.650000 -1.190355 -1.190097
52.700000 -1.190356 -1.190097
52.750000 -1.190352 -1.190098
52.800000 -1.190341 -1.190098
52.850000 -1.190324 -1.190098
52.900000 -1.190302 -1.190098
52.950000 -1.190276 -1.190098
53.000000 -1.190246 -1.190098
53.050000 -1.190212 -1.190098
53.100000 -1.190177 -1.190098
53.150000 -1.190140 -1.190098
53.200000 -1.190103 -1.190098
53.250000 -1.190066 -1.190098
53.300000 -1.190031 -1.190098
53.350000 -1.189999 -1.190098
53.400000 -1.189969 -1.190098
53.450000 -1.189943 -1.190098
53.500000 -1.189922 -1.190098
53.550000 -1.189905 -1.190098
53.600000 -1.189893 -1.190098
53.650000 -1.189887 -1.190098
53.700000 -1.189886 -1.190098
53.750000 -1.189890 -1.190098
53.800000 -1.189899 -1.190098
53.850000 -1.189913 -1.190098
53.900000 -1.189932 -1.190098
53.950000 -1.189954 -1.190098
54.000000 -1.189979 -1.190098
54.050000 -1.190006 -1.190098
54.100000 -1.190035 -1.190098
54.150000 -1.190066 -1.190098
54.200000 -1.190096 -1.190098
54.250000 -1.190126 -1.190098
54.300000 -1.190155 -1.190098
54.350000 -1.190181 -1.190098
54.400000 -1.190205 -1.190098
54.450000 -1.190226 -1.190098
54.500000 -1.190244 -1.190098
54.550000 -1.190257 -1.190098
54.600000 -1.190266 -1.190098
54.650000 -1.190271 -1.190098
54.700000 -1.190272 -1.190098
54.750000 -1.190268 -1.190098
54.800000 -1.190261 -1.190098
54.850000 -1.190249 -1.190098
54.900000 -1.190234 -1.190098
54.950000 -1.190216 -1.190098
55.000000 -1.190195 -1.190098
55.050000 -1.190172 -1.190098
55.100000 -1.190148 -1.190099
55.150000 -1.190124 -1.190099
55.200000 -1.190099 -1.190099
55.250000 -1.190074 -1.190099
55.300000 -1.190051 -1.190099
55.350000 -1.190029 -1.190099
55.400000 -1.190010 -1.190099
55.450000 -1.189993 -1.190099
55.500000 -1.189979 -1.190099
55.550000 -1.189968 -1.190099
55.600000 -1.189961 -1.190099
55.650000 -1.189957 -1.190099
55.700000 -1.189957 -1.190099
55.750000 -1.189960 -1.190099
55.800000 -1.189966 -1.190099
55.850000 -1.189976 -1.190099
55.900000 -1.189989 -1.190099
55.950000 -1.190004 -1.190099
56.000000 -1.190021 -1.190099
56.050000 -1.190039 -1.190099
56.100000 -1.190059 -1.190099
56.150000 -1.190079 -1.190099
56.200000 -1.190100 -1.190099
56.250000 -1.190120 -1.190099
56.300000 -1.190139 -1.190099
56.350000 -1.190157 -1.190099
56.400000 -1.190173 -1.190099
56.450000 -1.190186 -1.190099
56.500000 -1.190198 -1.190099
56.550000 -1.190206 -1.190099
56.600000 -1.190212 -1.190099
56.650000 -1.190215 -1.190099
56.700000 -1.190215 -1.190099
56.750000 -1.190212 -1.190099
56.800000 -1.190207 -1.190099
56.850000 -1.190199 -1.190099
56.900000 -1.190188 -1.190099
56.950000 -1.190176 -1.190099
57.000000 -1.190162 -1.190099
57.050000 -1.190147 -1.190099
57.100000 -1.190130 -1.190099
57.150000 -1.190114 -1.190099
57.200000 -1.190097 -1.190099
57.250000 -1.190081 -1.190099
57.300000 -1.190065 -1.190099
57.350000 -1.190051 -1.190099
57.400000 -1.190038 -1.190099
57.450000 -1.190027 -1.190099
57.500000 -1.190017 -1.190099
57.550000 -1.190011 -1.190099
57.600000 -1.190006 -1.190099
57.650000 -1.190004 -1.190099
57.700000 -1.190004 -1.190099
57.750000 -1.190006 -1.190099
57.800000 -1.190011 -1.190099
57.850000 -1.190018 -1.190099
57.900000 -1.190026 -1.190099
57.950000 -1.190037 -1.190099
58.000000 -1.190048 -1.190099
58.050000 -1.190061 -1.190099
58.100000 -1.190074 -1.190099
58.150000 -1.190088 -1.190099
58.200000 -1.190102 -1.190099
58.250000 -1.190115 -1.190099
58.300000 -1.190128 -1.190099
58.350000 -1.190139 -1.190099
58.400000 -1.190150 -1.190099
58.450000 -1.190159 -1.190099
58.500000 -1.190166 -1.190099
58.550000 -1.190172 -1.190099
58.600000 -1.190176 -1.190099
58.650000 -1.190177 -1.190099
58.700000 -1.190177 -1.190099
58.750000 -1.190175 -1.190099
58.800000 -1.190171 -1.190099
58.850000 -1.190165 -1.190099
58.900000 -1.190158 -1.190099
58.950000 -1.190150 -1.190099
59.000000 -1.190140 -1.190099
59.050000 -1.190130 -1.190099
59.100000 -1.190119 -1.190099
59.150000 -1.190108 -1.190099
59.200000 -1.190096 -1.190099
59.250000 -1.190086 -1.190099
59.300000 -1.190075 -1.190099
59.350000 -1.190066 -1.190099
59.400000 -1.190057 -1.190099
59.450000 -1.190050 -1.190099
59.500000 -1.190044 -1.190099
59.550000 -1.190039 -1.190099
59.600000 -1.190036 -1.190099
59.650000 -1.190035 -1.190099
59.700000 -1.190035 -1.190099
59.750000 -1.190037 -1.190099
59.800000 -1.190041 -1.190099
59.850000 -1.190045 -1.190099
59.900000 -1.190051 -1.190099
59.950000 -1.190058 -1.190099
60.000000 -1.190066 -1.190099
60.050000 -1.190075 -1.190099
60.100000 -1.190084 -1.190099
60.150000 -1.190093 -1.190099
60.200000 -1.190102 -1.190099
60.250000 -1.190111 -1.190099
60.300000 -1.190119 -1.190099
60.350000 -1.190127 -1.190099
60.400000 -1.190134 -1.190099
60.450000 -1.190140 -1.190099
60.500000 -1.190145 -1.190099
60.550000 -1.190148 -1.190099
60.600000 -1.190151 -1.190099
60.650000 -1.190152 -1.190099
60.700000 -1.190151 -1.190099
60.750000 -1.190150 -1.190099
60.800000 -1.190147 -1.190099
60.850000 -1.190143 -1.190099
60.900000 -1.190138 -1.190099
60.950000 -1.190132 -1.190099
61.000000 -1.190126 -1.190099
61.050000 -1.190119 -1.190099
61.100000 -1.190111 -1.190099
61.150000 -1.190104 -1.190099
61.200000 -1.190096 -1.190099
61.250000 -1.190089 -1.190099
61.300000 -1.190082 -1.190099
61.350000 -1.190076 -1.190099
61.400000 -1.190070 -1.190099
61.450000 -1.190066 -1.190099
61.500000 -1.190062 -1.190099
61.550000 -1.190059 -1.190099
61.600000 -1.190057 -1.190099
61.650000 -1.190056 -1.190099
61.700000 -1.190057 -1.190099
61.750000 -1.190058 -1.190099
61.800000 -1.190060 -1.190099
61.850000 -1.190064 -1.190099
61.900000 -1.190068 -1.190099
61.950000 -1.190072 -1.190099
62.000000 -1.190078 -1.190099
62.050000 -1.190084 -1.190099
62.100000 -1.190090 -1.190099
62.150000 -1.190096 -1.190099
62.200000 -1.190102 -1.190099
62.250000 -1.190108 -1.190099
62.300000 -1.190114 -1.190099
62.350000 -1.190119 -1.190099
62.400000 -1.190123 -1.190099
62.450000 -1.190127 -1.190099
62.500000 -1.190130 -1.190099
62.550000 -1.190133 -1.190099
62.600000 -1.190134 -1.190099
62.650000 -1.190135 -1.190099
62.700000 -1.190134 -1.190099
62.750000 -1.190133 -1.190099
62.800000 -1.190131 -1.190099
62.850000 -1.190128 -1.190099
62.900000 -1.190125 -1.190099
62.950000 -1.190121 -1.190099
63.000000 -1.190117 -1.190099
63.050000 -1.190112 -1.190099
63.100000 -1.190107 -1.190099
63.150000 -1.190102 -1.190099
63.200000 -1.190097 -1.190099
63.250000 -1.190092 -1.190099
63.300000 -1.190087 -1.190099
63.350000 -1.190083 -1.190099
63.400000 -1.190079 -1.190099
63.450000 -1.190076 -1.190099
63.500000 -1.190074 -1.190099
63.550000 -1.190072 -1.190099
63.600000 -1.190071 -1.190099
63.650000 -1.190070 -1.190099
63.700000 -1.190071 -1.190099
63.750000 -1.190072 -1.190099
63.800000 -1.190073 -1.190099
63.850000 -1.190076 -1.190099
63.900000 -1.190078 -1.190099
63.950000 -1.190082 -1.190099
64.000000 -1.190085 -1.190099
64.050000 -1.190089 -1.190099
64.100000 -1.190093 -1.190099
64.150000 -1.190098 -1.190099
64.200000 -1.190102 -1.190099
64.250000 -1.190106 -1.190099
64.300000 -1.190109 -1.190099
64.350000 -1.190113 -1.190099
64.400000 -1.190116 -1.190099
64.450000 -1.190118 -1.190099
64.500000 -1.190120 -1.190099
64.550000 -1.190122 -1.190099
64.600000 -1.190123 -1.190099
64.650000 -1.190123 -1.190099
64.700000 -1.190123 -1.190099
64.750000 -1.190122 -1.190099
64.800000 -1.190120 -1.190099
64.850000 -1.190119 -1.190099
64.900000 -1.190116 -1.190099
64.950000 -1.190114 -1.190099
65.000000 -1.190111 -1.190099
65.050000 -1.190107 -1.190099
65.100000 -1.190104 -1.190099
65.150000 -1.190101 -1.190099
65.200000 -1.190097 -1.190099
65.250000 -1.190094 -1.190099
65.300000 -1.190091 -1.190099
65.350000 -1.190088 -1.190099
65.400000 -1.190086 -1.190099
65.450000 -1.190084 -1.190099
65.500000 -1.190082 -1.190099
65.550000 -1.190081 -1.190099
65.600000 -1.190080 -1.190099
65.650000 -1.190080 -1.190099
65.700000 -1.190080 -1.190099
65.750000 -1.190081 -1.190099
65.800000 -1.190082 -1.190099
65.850000 -1.190084 -1.190099
65.900000 -1.190086 -1.190099
65.950000 -1.190088 -1.190099
66.000000 -1.190090 -1.190099
66.050000 -1.190093 -1.190099
66.100000 -1.190096 -1.190099
66.150000 -1.190098 -1.190099
66.200000 -1.190101 -1.190099
66.250000 -1.190104 -1.190099
66.300000 -1.190106 -1.190099
66.350000 -1.190109 -1.190099
66.400000 -1.190111 -1.190099
66.450000 -1.190112 -1.190099
66.500000 -1.190114 -1.190099
66.550000 -1.190115 -1.190099
66.600000 -1.190115 -1.190099
66.650000 -1.190115 -1.190099
66.700000 -1.190115 -1.190099
66.750000 -1.190114 -1.190099
66.800000 -1.190113 -1.190099
66.850000 -1.190112 -1.190099
66.900000 -1.190110 -1.190099
66.950000 -1.190109 -1.190099
67.000000 -1.190107 -1.190099
67.050000 -1.190104 -1.190099
67.100000 -1.190102 -1.190099
67.150000 -1.190100 -1.190099
67.200000 -1.190098 -1.190099
67.250000 -1.190096 -1.190099
67.300000 -1.190093 -1.190099
67.350000 -1.190092 -1.190099
67.400000 -1.190090 -1.190099
67.450000 -1.190089 -1.190099
67.500000 -1.190088 -1.190099
67.550000 -1.190087 -1.190099
67.600000 -1.190086 -1.190099
67.650000 -1.190086 -1.190099
67.700000 -1.190087 -1.190099
67.750000 -1.190087 -1.190099
67.800000 -1.190088 -1.190099
67.850000 -1.190089 -1.190099
67.900000 -1.190090 -1.190099
67.950000 -1.190092 -1.190099
68.000000 -1.190094 -1.190099
68.050000 -1.190095 -1.190099
68.100000 -1.190097 -1.190099
68.150000 -1.190099 -1.190099
68.200000 -1.190101 -1.190099
68.250000 -1.190103 -1.190099
68.300000 -1.190104 -1.190099
68.350000 -1.190106 -1.190099
68.400000 -1.190107 -1.190099
68.450000 -1.190108 -1.190099
68.500000 -1.190109 -1.190099
68.550000 -1.190110 -1.190099
68.600000 -1.190110 -1.190099
68.650000 -1.190110 -1.190099
68.700000 -1.190110 -1.190099
68.750000 -1.190109 -1.190099
68.800000 -1.190109 -1.190099
68.850000 -1.190108 -1.190099
68.900000 -1.190107 -1.190099
68.950000 -1.190105 -1.190099
69.000000 -1.190104 -1.190099
69.050000 -1.190103 -1.190099
69.100000 -1.190101 -1.190099
69.150000 -1.190100 -1.190099
69.200000 -1.190098 -1.190099
69.250000 -1.190097 -1.190099
69.300000 -1.190095 -1.190099
69.350000 -1.190094 -1.190099
69.400000 -1.190093 -1.190099
69.450000 -1.190092 -1.190099
69.500000 -1.190091 -1.190099
69.550000 -1.190091 -1.190099
69.600000 -1.190091 -1.190099
69.650000 -1.190091 -1.190099
69.700000 -1.190091 -1.190099
69.750000 -1.190091 -1.190099
69.800000 -1.190092 -1.190099
69.850000 -1.190093 -1.190099
69.900000 -1.190093 -1.190099
69.950000 -1.190094 -1.190099
70.000000 -1.190096 -1.190099
70.050000 -1.190097 -1.190099
70.100000 -1.190098 -1.190099
70.150000 -1.190099 -1.190099
70.200000 -1.190101 -1.190099
70.250000 -1.190102 -1.190099
70.300000 -1.190103 -1.190099
70.350000 -1.190104 -1.190099
70.400000 -1.190105 -1.190099
70.450000 -1.190105 -1.190099
70.500000 -1.190106 -1.190099
70.550000 -1.190106 -1.190099
70.600000 -1.190106 -1.190099
70.650000 -1.190107 -1.190099
70.700000 -1.190106 -1.190099
70.750000 -1.190106 -1.190099
70.800000 -1.190106 -1.190099
70.850000 -1.190105 -1.190099
70.900000 -1.190104 -1.190099
70.950000 -1.190103 -1.190099
71.000000 -1.190102 -1.190099
71.050000 -1.190101 -1.190099
71.100000 -1.190100 -1.190099
71.150000 -1.190099 -1.190099
71.200000 -1.190098 -1.190099
71.250000 -1.190097 -1.190099
71.300000 -1.190096 -1.190099
71.350000 -1.190096 -1.190099
71.400000 -1.190095 -1.190099
71.450000 -1.190094 -1.190099
71.500000 -1.190094 -1.190099
71.550000 -1.190094 -1.190099
71.600000 -1.190094 -1.190099
71.650000 -1.190094 -1.190099
71.700000 -1.190094 -1.190099
71.750000 -1.190094 -1.190099
71.800000 -1.190094 -1.190099
71.850000 -1.190095 -1.190099
71.900000 -1.190095 -1.190099
71.950000 -1.190096 -1.190099
72.000000 -1.190097 -1.190099
72.050000 -1.190098 -1.190099
72.100000 -1.190099 -1.190099
72.150000 -1.190099 -1.190099
72.200000 -1.190100 -1.190099
72.250000 -1.190101 -1.190099
72.300000 -1.190102 -1.190099
72.350000 -1.190102 -1.190099
72.400000 -1.190103 -1.190099
72.450000 -1.190103 -1.190099
72.500000 -1.190104 -1.190099
72.550000 -1.190104 -1.190099
72.600000 -1.190104 -1.190099
72.650000 -1.190104 -1.190099
72.700000 -1.190104 -1.190099
72.750000 -1.190104 -1.190099
72.800000 -1.190103 -1.190099
72.850000 -1.190103 -1.190099
72.900000 -1.190103 -1.190099
72.950000 -1.190102 -1.190099
73.000000 -1.190101 -1.190099
73.050000 -1.190101 -1.190099
73.100000 -1.190100 -1.190099
73.150000 -1.190099 -1.190099
73.200000 -1.190099 -1.190099
73.250000 -1.190098 -1.190099
73.300000 -1.190097 -1.190099
73.350000 -1.190097 -1.190099
73.400000 -1.190096 -1.190099
73.450000 -1.190096 -1.190099
73.500000 -1.190096 -1.190099
73.550000 -1.190096 -1.190099
73.600000 -1.190095 -1.190099
73.650000 -1.190095 -1.190099
73.700000 -1.190096 -1.190099
73.750000 -1.190096 -1.190099
73.800000 -1.190096 -1.190099
73.850000 -1.190096 -1.190099
73.900000 -1.190097 -1.190099
73.950000 -1.190097 -1.190099
74.000000 -1.190098 -1.190099
74.050000 -1.190098 -1.190099
74.100000 -1.190099 -1.190099
74.150000 -1.190099 -1.190099
74.200000 -1.190100 -1.190099
74.250000 -1.190101 -1.190099
74.300000 -1.190101 -1.190099
74.350000 -1.190101 -1.190099
74.400000 -1.190102 -1.190099
74.450000 -1.190102 -1.190099
74.500000 -1.190102 -1.190099
74.550000 -1.190103 -1.190099
74.600000 -1.190103 -1.190099
74.650000 -1.190103 -1.190099
74.700000 -1.190102 -1.190099
74.750000 -1.190102 -1.190099
74.800000 -1.190102 -1.190099
74.850000 -1.190102 -1.190099
74.900000 -1.190101 -1.190099
74.950000 -1.190101 -1.190099
75.000000 -1.190101 -1.190099
75.050000 -1.190100 -1.190099
75.100000 -1.190100 -1.190099
75.150000 -1.190099 -1.190099
75.200000 -1.190099 -1.190099
75.250000 -1.190098 -1.190099
75.300000 -1.190098 -1.190099
75.350000 -1.190098 -1.190099
75.400000 -1.190097 -1.190099
75.450000 -1.190097 -1.190099
75.500000 -1.190097 -1.190099
75.550000 -1.190097 -1.190099
75.600000 -1.190097 -1.190099
75.650000 -1.190097 -1.190099
75.700000 -1.190097 -1.190099
75.750000 -1.190097 -1.190099
75.800000 -1.190097 -1.190099
75.850000 -1.190097 -1.190099
75.900000 -1.190098 -1.190099
75.950000 -1.190098 -1.190099
76.000000 -1.190098 -1.190099
76.050000 -1.190099 -1.190099
76.100000 -1.190099 -1.190099
76.150000 -1.190099 -1.190099
76.200000 -1.190100 -1.190099
76.250000 -1.190100 -1.190099
76.300000 -1.190101 -1.190099
76.350000 -1.190101 -1.190099
76.400000 -1.190101 -1.190099
76.450000 -1.190101 -1.190099
76.500000 -1.190101 -1.190099
76.550000 -1.190101 -1.190099
76.600000 -1.190102 -1.190099
76.650000 -1.190102 -1.190099
76.700000 -1.190101 -1.190099
76.750000 -1.190101 -1.190099
76.800000 -1.190101 -1.190099
76.850000 -1.190101 -1.190099
76.900000 -1.190101 -1.190099
76.950000 -1.190100 -1.190099
77.000000 -1.190100 -1.190099
77.050000 -1.190100 -1.190099
77.100000 -1.190100 -1.190099
77.150000 -1.190099 -1.190099
77.200000 -1.190099 -1.190099
77.250000 -1.190099 -1.190099
77.300000 -1.190098 -1.190099
77.350000 -1.190098 -1.190099
77.400000 -1.190098 -1.190099
77.450000 -1.190098 -1.190099
77.500000 -1.190098 -1.190099
77.550000 -1.190098 -1.190099
77.600000 -1.190098 -1.190099
77.650000 -1.190098 -1.190099
77.700000 -1.190098 -1.190099
77.750000 -1.190098 -1.190099
77.800000 -1.190098 -1.190099
77.850000 -1.190098 -1.190099
77.900000 -1.190098 -1.190099
77.950000 -1.190098 -1.190099
78.000000 -1.190099 -1.190099
78.050000 -1.190099 -1.190099
78.100000 -1.190099 -1.190099
78.150000 -1.190099 -1.190099
78.200000 -1.190100 -1.190099
78.250000 -1.190100 -1.190099
78.300000 -1.190100 -1.190099
78.350000 -1.190100 -1.190099
78.400000 -1.190101 -1.190099
78.450000 -1.190101 -1.190099
78.500000 -1.190101 -1.190099
78.550000 -1.190101 -1.190099
78.600000 -1.190101 -1.190099
78.650000 -1.190101 -1.190099
78.700000 -1.190101 -1.190099
78.750000 -1.190101 -1.190099
78.800000 -1.190101 -1.190099
78.850000 -1.190100 -1.190099
78.900000 -1.190100 -1.190099
78.950000 -1.190100 -1.190099
79.000000 -1.190100 -1.190099
79.050000 -1.190100 -1.190099
79.100000 -1.190099 -1.190099
79.150000 -1.190099 -1.190099
79.200000 -1.190099 -1.190099
79.250000 -1.190099 -1.190099
79.300000 -1.190099 -1.190099
79.350000 -1.190099 -1.190099
79.400000 -1.190098 -1.190099
79.450000 -1.190098 -1.190099
79.500000 -1.190098 -1.190099
79.550000 -1.190098 -1.190099
79.600000 -1.190098 -1.190099
79.650000 -1.190098 -1.190099
79.700000 -1.190098 -1.190099
79.750000 -1.190098 -1.190099
79.800000 -1.190098 -1.190099
79.850000 -1.190099 -1.190099
79.900000 -1.190099 -1.190099
79.950000 -1.190099 -1.190099
80.000000 -1.190099 -1.190099
80.050000 -1.190099 -1.190099
80.100000 -1.190099 -1.190099
80.150000 -1.190099 -1.190099
80.200000 -1.190100 -1.190099
80.250000 -1.190100 -1.190099
80.300000 -1.190100 -1.190099
80.350000 -1.190100 -1.190099
80.400000 -1.190100 -1.190099
80.450000 -1.190100 -1.190099
80.500000 -1.190100 -1.190099
80.550000 -1.190100 -1.190099
80.600000 -1.190100 -1.190099
80.650000 -1.190100 -1.190099
80.700000 -1.190100 -1.190099
80.750000 -1.190100 -1.190099
80.800000 -1.190100 -1.190099
80.850000 -1.190100 -1.190099
80.900000 -1.190100 -1.190099
80.950000 -1.190100 -1.190099
81.000000 -1.190100 -1.190099
81.050000 -1.190100 -1.190099
81.100000 -1.190099 -1.190099
81.150000 -1.190099 -1.190099
81.200000 -1.190099 -1.190099
81.250000 -1.190099 -1.190099
81.300000 -1.190099 -1.190099
81.350000 -1.190099 -1.190099
81.400000 -1.190099 -1.190099
81.450000 -1.190099 -1.190099
81.500000 -1.190099 -1.190099
81.550000 -1.190099 -1.190099
81.600000 -1.190099 -1.190099
81.650000 -1.190099 -1.190099
81.700000 -1.190099 -1.190099
81.750000 -1.190099 -1.190099
81.800000 -1.190099 -1.190099
81.850000 -1.190099 -1.190099
81.900000 -1.190099 -1.190099
81.950000 -1.190099 -1.190099
82.000000 -1.190099 -1.190099
82.050000 -1.190099 -1.190099
82.100000 -1.190099 -1.190099
82.150000 -1.190099 -1.190099
82.200000 -1.190100 -1.190099
82.250000 -1.190100 -1.190099
82.300000 -1.190100 -1.190099
82.350000 -1.190100 -1.190099
82.400000 -1.190100 -1.190099
82.450000 -1.190100 -1.190099
82.500000 -1.190100 -1.190099
82.550000 -1.190100 -1.190099
82.600000 -1.190100 -1.190099
82.650000 -1.190100 -1.190099
82.700000 -1.190100 -1.190099
82.750000 -1.190100 -1.190099
82.800000 -1.190100 -1.190099
82.850000 -1.190100 -1.190099
82.900000 -1.190100 -1.190099
82.950000 -1.190100 -1.190099
83.000000 -1.190100 -1.190099
83.050000 -1.190099 -1.190099
83.100000 -1.190099 -1.190099
83.150000 -1.190099 -1.190099
83.200000 -1.190099 -1.190099
83.250000 -1.190099 -1.190099
83.300000 -1.190099 -1.190099
83.350000 -1.190099 -1.190099
83.400000 -1.190099 -1.190099
83.450000 -1.190099 -1.190099
83.500000 -1.190099 -1.190099
83.550000 -1.190099 -1.190099
83.600000 -1.190099 -1.190099
83.650000 -1.190099 -1.190099
83.700000 -1.190099 -1.190099
83.750000 -1.190099 -1.190099
83.800000 -1.190099 -1.190099
83.850000 -1.190099 -1.190099
83.900000 -1.190099 -1.190099
83.950000 -1.190099 -1.190099
84.000000 -1.190099 -1.190099
84.050000 -1.190099 -1.190099
84.100000 -1.190099 -1.190099
84.150000 -1.190099 -1.190099
84.200000 -1.190100 -1.190099
84.250000 -1.190100 -1.190099
84.300000 -1.190100 -1.190099
84.350000 -1.190100 -1.190099
84.400000 -1.190100 -1.190099
84.450000 -1.190100 -1.190099
84.500000 -1.190100 -1.190099
84.550000 -1.190100 -1.190099
84.600000 -1.190100 -1.190099
84.650000 -1.190100 -1.190099
84.700000 -1.190100 -1.190099
84.750000 -1.190100 -1.190099
84.800000 -1.190100 -1.190099
84.850000 -1.190100 -1.190099
84.900000 -1.190100 -1.190099
84.950000 -1.190100 -1.190099
85.000000 -1.190099 -1.190099
85.050000 -1.190099 -1.190099
85.100000 -1.190099 -1.190099
85.150000 -1.190099 -1.190099
85.200000 -1.190099 -1.190099
85.250000 -1.190099 -1.190099
85.300000 -1.190099 -1.190099
85.350000 -1.190099 -1.190099
85.400000 -1.190099 -1.190099
85.450000 -1.190099 -1.190099
85.500000 -1.190099 -1.190099
85.550000 -1.190099 -1.190099
85.600000 -1.190099 -1.190099
85.650000 -1.190099 -1.190099
85.700000 -1.190099 -1.190099
85.750000 -1.190099 -1.190099
85.800000 -1.190099 -1.190099
85.850000 -1.190099 -1.190099
85.900000 -1.190099 -1.190099
85.950000 -1.190099 -1.190099
86.000000 -1.190099 -1.190099
86.050000 -1.190099 -1.190099
86.100000 -1.190099 -1.190099
86.150000 -1.190099 -1.190099
86.200000 -1.190099 -1.190099
86.250000 -1.190100 -1.190099
86.300000 -1.190100 -1.190099
86.350000 -1.190100 -1.190099
86.400000 -1.190100 -1.190099
86.450000 -1.190100 -1.190099
86.500000 -1.190100 -1.190099
86.550000 -1.190100 -1.190099
86.600000 -1.190100 -1.190099
86.650000 -1.190100 -1.190099
86.700000 -1.190100 -1.190099
86.750000 -1.190100 -1.190099
86.800000 -1.190100 -1.190099
86.850000 -1.190100 -1.190099
86.900000 -1.190100 -1.190099
86.950000 -1.190099 -1.190099
87.000000 -1.190099 -1.190099
87.050000 -1.190099 -1.190099
87.100000 -1.190099 -1.190099
87.150000 -1.190099 -1.190099
87.200000 -1.190099 -1.190099
87.250000 -1.190099 -1.190099
87.300000 -1.190099 -1.190099
87.350000 -1.190099 -1.190099
87.400000 -1.190099 -1.190099
87.450000 -1.190099 -1.190099
87.500000 -1.190099 -1.190099
87.550000 -1.190099 -1.190099
87.600000 -1.190099 -1.190099
87.650000 -1.190099 -1.190099
87.700000 -1.190099 -1.190099
87.750000 -1.190099 -1.190099
87.800000 -1.190099 -1.190099
87.850000 -1.190099 -1.190099
87.900000 -1.190099 -1.190099
87.950000 -1.190099 -1.190099
88.000000 -1.190099 -1.190099
88.050000 -1.190099 -1.190099
88.100000 -1.190099 -1.190099
88.150000 -1.190099 -1.190099
88.200000 -1.190099 -1.190099
88.250000 -1.190099 -1.190099
88.300000 -1.190099 -1.190099
88.350000 -1.190100 -1.190099
88.400000 -1.190100 -1.190099
88.450000 -1.190100 -1.190099
88.500000 -1.190100 -1.190099
88.550000 -1.190100 -1.190099
88.600000 -1.190100 -1.190099
88.650000 -1.190100 -1.190099
88.700000 -1.190100 -1.190099
88.750000 -1.190100 -1.190099
88.800000 -1.190100 -1.190099
88.850000 -1.190099 -1.190099
88.900000 -1.190099 -1.190099
88.950000 -1.190099 -1.190099
89.000000 -1.190099 -1.190099
89.050000 -1.190099 -1.190099
89.100000 -1.190099 -1.190099
89.150000 -1.190099 -1.190099
89.200000 -1.190099 -1.190099
89.250000 -1.190099 -1.190099
89.300000 -1.190099 -1.190099
89.350000 -1.190099 -1.190099
89.400000 -1.190099 -1.190099
89.450000 -1.190099 -1.190099
89.500000 -1.190099 -1.190099
89.550000 -1.190099 -1.190099
89.600000 -1.190099 -1.190099
89.650000 -1.190099 -1.190099
89.700000 -1.190099 -1.190099
89.750000 -1.190099 -1.190099
89.800000 -1.190099 -1.190099
89.850000 -1.190099 -1.190099
89.900000 -1.190099 -1.190099
89.950000 -1.190099 -1.190099
90.000000 -1.190099 -1.190099
90.050000 -1.190099 -1.190099
90.100000 -1.190099 -1.190099
90.150000 -1.190099 -1.190099
90.200000 -1.190099 -1.190099
90.250000 -1.190099 -1.190099
90.300000 -1.190099 -1.190099
90.350000 -1.190099 -1.190099
90.400000 -1.190099 -1.190099
90.450000 -1.190099 -1.190099
90.500000 -1.190099 -1.190099
90.550000 -1.190099 -1.190099
90.600000 -1.190099 -1.190099
90.650000 -1.190099 -1.190099
90.700000 -1.190099 -1.190099
90.750000 -1.190099 -1.190099
90.800000 -1.190099 -1.190099
90.850000 -1.190099 -1.190099
90.900000 -1.190099 -1.190099
90.950000 -1.190099 -1.190099
91.000000 -1.190099 -1.190099
91.050000 -1.190099 -1.190099
91.100000 -1.190099 -1.190099
91.150000 -1.190099 -1.190099
91.200000 -1.190099 -1.190099
91.250000 -1.190099 -1.190099
91.300000 -1.190099 -1.190099
91.350000 -1.190099 -1.190099
91.400000 -1.190099 -1.190099
91.450000 -1.190099 -1.190099
91.500000 -1.190099 -1.190099
91.550000 -1.190099 -1.190099
91.600000 -1.190099 -1.190099
91.650000 -1.190099 -1.190099
91.700000 -1.190099 -1.190099
91.750000 -1.190099 -1.190099
91.800000 -1.190099 -1.190099
91.850000 -1.190099 -1.190099
91.900000 -1.190099 -1.190099
91.950000 -1.190099 -1.190099
92.000000 -1.190099 -1.190099
92.050000 -1.190099 -1.190099
92.100000 -1.190099 -1.190099
92.150000 -1.190099 -1.190099
92.200000 -1.190099 -1.190099
92.250000 -1.190099 -1.190099
92.300000 -1.190099 -1.190099
92.350000 -1.190099 -1.190099
92.400000 -1.190099 -1.190099
92.450000 -1.190099 -1.190099
92.500000 -1.190099 -1.190099
92.550000 -1.190099 -1.190099
92.600000 -1.190099 -1.190099
92.650000 -1.190099 -1.190099
92.700000 -1.190099 -1.190099
92.750000 -1.190099 -1.190099
92.800000 -1.190099 -1.190099
92.850000 -1.190099 -1.190099
92.900000 -1.190099 -1.190099
92.950000 -1.190099 -1.190099
93.000000 -1.190099 -1.190099
93.050000 -1.190099 -1.190099
93.100000 -1.190099 -1.190099
93.150000 -1.190099 -1.190099
93.200000 -1.190099 -1.190099
93.250000 -1.190099 -1.190099
93.300000 -1.190099 -1.190099
93.350000 -1.190099 -1.190099
93.400000 -1.190099 -1.190099
93.450000 -1.190099 -1.190099
93.500000 -1.190099 -1.190099
93.550000 -1.190099 -1.190099
93.600000 -1.190099 -1.190099
93.650000 -1.190099 -1.190099
93.700000 -1.190099 -1.190099
93.750000 -1.190099 -1.190099
93.800000 -1.190099 -1.190099
93.850000 -1.190099 -1.190099
93.900000 -1.190099 -1.190099
93.950000 -1.190099 -1.190099
94.000000 -1.190099 -1.190099
94.050000 -1.190099 -1.190099
94.100000 -1.190099 -1.190099
94.150000 -1.190099 -1.190099
94.200000 -1.190099 -1.190099
94.250000 -1.190099 -1.190099
94.300000 -1.190099 -1.190099
94.350000 -1.190099 -1.190099
94.400000 -1.190099 -1.190099
94.450000 -1.190099 -1.190099
94.500000 -1.190099 -1.190099
94.550000 -1.190099 -1.190099
94.600000 -1.190099 -1.190099
94.650000 -1.190099 -1.190099
94.700000 -1.190099 -1.190099
94.750000 -1.190099 -1.190099
94.800000 -1.190099 -1.190099
94.850000 -1.190099 -1.190099
94.900000 -1.190099 -1.190099
94.950000 -1.190099 -1.190099
95.000000 -1.190099 -1.190099
95.050000 -1.190099 -1.190099
95.100000 -1.190099 -1.190099
95.150000 -1.190099 -1.190099
95.200000 -1.190099 -1.190099
95.250000 -1.190099 -1.190099
95.300000 -1.190099 -1.190099
95.350000 -1.190099 -1.190099
95.400000 -1.190099 -1.190099
95.450000 -1.190099 -1.190099
95.500000 -1.190099 -1.190099
95.550000 -1.190099 -1.190099
95.600000 -1.190099 -1.190099
95.650000 -1.190099 -1.190099
95.700000 -1.190099 -1.190099
95.750000 -1.190099 -1.190099
95.800000 -1.190099 -1.190099
95.850000 -1.190099 -1.190099
95.900000 -1.190099 -1.190099
95.950000 -1.190099 -1.190099
96.000000 -1.190099 -1.190099
96.050000 -1.190099 -1.190099
96.100000 -1.190099 -1.190099
96.150000 -1.190099 -1.190099
96.200000 -1.190099 -1.190099
96.250000 -1.190099 -1.190099
96.300000 -1.190099 -1.190099
96.350000 -1.190099 -1.190099
96.400000 -1.190099 -1.190099
96.450000 -1.190099 -1.190099
96.500000 -1.190099 -1.190099
96.550000 -1.190099 -1.190099
96.600000 -1.190099 -1.190099
96.650000 -1.190099 -1.190099
96.700000 -1.190099 -1.190099
96.750000 -1.190099 -1.190099
96.800000 -1.190099 -1.190099
96.850000 -1.190099 -1.190099
96.900000 -1.190099 -1.190099
96.950000 -1.190099 -1.190099
97.000000 -1.190099 -1.190099
97.050000 -1.190099 -1.190099
97.100000 -1.190099 -1.190099
97.150000 -1.190099 -1.190099
97.200000 -1.190099 -1.190099
97.250000 -1.190099 -1.190099
97.300000 -1.190099 -1.190099
97.350000 -1.190099 -1.190099
97.400000 -1.190099 -1.190099
97.450000 -1.190099 -1.190099
97.500000 -1.190099 -1.190099
97.550000 -1.190099 -1.190099
97.600000 -1.190099 -1.190099
97.650000 -1.190099 -1.190099
97.700000 -1.190099 -1.190099
97.750000 -1.190099 -1.190099
97.800000 -1.190099 -1.190099
97.850000 -1.190099 -1.190099
97.900000 -1.190099 -1.190099
97.950000 -1.190099 -1.190099
98.000000 -1.190099 -1.190099
98.050000 -1.190099 -1.190099
98.100000 -1.190099 -1.190099
98.150000 -1.190099 -1.190099
98.200000 -1.190099 -1.190099
98.250000 -1.190099 -1.190099
98.300000 -1.190099 -1.190099
98.350000 -1.190099 -1.190099
98.400000 -1.190099 -1.190099
98.450000 -1.190099 -1.190099
98.500000 -1.190099 -1.190099
98.550000 -1.190099 -1.190099
98.600000 -1.190099 -1.190099
98.650000 -1.190099 -1.190099
98.700000 -1.190099 -1.190099
98.750000 -1.190099 -1.190099
98.800000 -1.190099 -1.190099
98.850000 -1.190099 -1.190099
98.900000 -1.190099 -1.190099
98.950000 -1.190099 -1.190099
99.000000 -1.190099 -1.190099
99.050000 -1.190099 -1.190099
99.100000 -1.190099 -1.190099
99.150000 -1.190099 -1.190099
99.200000 -1.190099 -1.190099
99.250000 -1.190099 -1.190099
99.300000 -1.190099 -1.190099
99.350000 -1.190099 -1.190099
99.400000 -1.190099 -1.190099
99.450000 -1.190099 -1.190099
99.500000 -1.190099 -1.190099
99.550000 -1.190099 -1.190099
99.600000 -1.190099 -1.190099
99.650000 -1.190099 -1.190099
99.700000 -1.190099 -1.190099
99.750000 -1.190099 -1.190099
99.800000 -1.190099 -1.190099
99.850000 -1.190099 -1.190099
99.900000 -1.190099 -1.190099
99.950000 -1.190099 -1.190099
100.000000 -1.190099 -1.190099
100.050000 -1.190099 -1.190099
100.100000 -1.190099 -1.190099
100.150000 -1.190099 -1.190099
100.200000 -1.190099 -1.190099
100.250000 -1.190099 -1.190099
100.300000 -1.190099 -1.190099
100.350000 -1.190099 -1.190099
100.400000 -1.190099 -1.190099
100.450000 -1.190099 -1.190099
100.500000 -1.190099 -1.190099
100.550000 -1.190099 -1.190099
100.600000 -1.190099 -1.190099
100.650000 -1.190099 -1.190099
100.700000 -1.190099 -1.190099
100.750000 -1.190099 -1.190099
100.800000 -1.190099 -1.190099
100.850000 -1.190099 -1.190099
100.900000 -1.190099 -1.190099
100.950000 -1.190099 -1.190099
101.000000 -1.190099 -1.190099
101.050000 -1.190099 -1.190099
101.100000 -1.190099 -1.190099
101.150000 -1.190099 -1.190099
101.200000 -1.190099 -1.190099
101.250000 -1.190099 -1.190099
101.300000 -1.190099 -1.190099
101.350000 -1.190099 -1.190099
101.400000 -1.190099 -1.190099
101.450000 -1.190099 -1.190099
101.500000 -1.190099 -1.190099
101.550000 -1.190099 -1.190099
101.600000 -1.190099 -1.190099
101.650000 -1.190099 -1.190099
101.700000 -1.190099 -1.190099
101.750000 -1.190099 -1.190099
101.800000 -1.190099 -1.190099
101.850000 -1.190099 -1.190099
101.900000 -1.190099 -1.190099
101.950000 -1.190099 -1.190099
102.000000 -1.190099 -1.190099
102.050000 -1.190099 -1.190099
102.100000 -1.190099 -1.190099
102.150000 -1.190099 -1.190099
102.200000 -1.190099 -1.190099
102.250000 -1.190099 -1.190099
102.300000 -1.190099 -1.190099
102.350000 -1.190099 -1.190099
102.400000 -1.190099 -1.190099
102.450000 -1.190099 -1.190099
102.500000 -1.190099 -1.190099
102.550000 -1.190099 -1.190099
102.600000 -1.190099 -1.190099
102.650000 -1.190099 -1.190099
102.700000 -1.190099 -1.190099
102.750000 -1.190099 -1.190099
102.800000 -1.190099 -1.190099
102.850000 -1.190099 -1.190099
102.900000 -1.190099 -1.190099
102.950000 -1.190099 -1.190099
103.000000 -1.190099 -1.190099
103.050000 -1.190099 -1.190099
103.100000 -1.190099 -1.190099
103.150000 -1.190099 -1.190099
103.200000 -1.190099 -1.190099
103.250000 -1.190099 -1.190099
103.300000 -1.190099 -1.190099
103.350000 -1.190099 -1.190099
103.400000 -1.190099 -1.190099
103.450000 -1.190099 -1.190099
103.500000 -1.190099 -1.190099
103.550000 -1.190099 -1.190099
103.600000 -1.190099 -1.190099
103.650000 -1.190099 -1.190099
103.700000 -1.190099 -1.190099
103.750000 -1.190099 -1.190099
103.800000 -1.190099 -1.190099
103.850000 -1.190099 -1.190099
103.900000 -1.190099 -1.190099
103.950000 -1.190099 -1.190099
104.000000 -1.190099 -1.190099
104.050000 -1.190099 -1.190099
104.100000 -1.190099 -1.190099
104.150000 -1.190099 -1.190099
104.200000 -1.190099 -1.190099
104.250000 -1.190099 -1.190099
104.300000 -1.190099 -1.190099
104.350000 -1.190099 -1.190099
104.400000 -1.190099 -1.190099
104.450000 -1.190099 -1.190099
104.500000 -1.190099 -1.190099
104.550000 -1.190099 -1.190099
104.600000 -1.190099 -1.190099
104.650000 -1.190099 -1.190099
104.700000 -1.190099 -1.190099
104.750000 -1.190099 -1.190099
104.800000 -1.190099 -1.190099
104.850000 -1.190099 -1.190099
104.900000 -1.190099 -1.190099
104.950000 -1.190099 -1.190099
105.000000 -1.190099 -1.190099
105.050000 -1.190099 -1.190099
105.100000 -1.190099 -1.190099
105.150000 -1.190099 -1.190099
105.200000 -1.190099 -1.190099
105.250000 -1.190099 -1.190099
105.300000 -1.190099 -1.190099
105.350000 -1.190099 -1.190099
105.400000 -1.190099 -1.190099
105.450000 -1.190099 -1.190099
105.500000 -1.190099 -1.190099
105.550000 -1.190099 -1.190099
105.600000 -1.190099 -1.190099
105.650000 -1.190099 -1.190099
105.700000 -1.190099 -1.190099
105.750000 -1.190099 -1.190099
105.800000 -1.190099 -1.190099
105.850000 -1.190099 -1.190099
105.900000 -1.190099 -1.190099
105.950000 -1.190099 -1.190099
106.000000 -1.190099 -1.190099
106.050000 -1.190099 -1.190099
106.100000 -1.190099 -1.190099
106.150000 -1.190099 -1.190099
106.200000 -1.190099 -1.190099
106.250000 -1.190099 -1.190099
106.300000 -1.190099 -1.190099
106.350000 -1.190099 -1.190099
106.400000 -1.190099 -1.190099
106.450000 -1.190099 -1.190099
106.500000 -1.190099 -1.190099
106.550000 -1.190099 -1.190099
106.600000 -1.190099 -1.190099
106.650000 -1.190099 -1.190099
106.700000 -1.190099 -1.190099
106.750000 -1.190099 -1.190099
106.800000 -1.190099 -1.190099
106.850000 -1.190099 -1.190099
106.900000 -1.190099 -1.190099
106.950000 -1.190099 -1.190099
107.000000 -1.190099 -1.190099
107.050000 -1.190099 -1.190099
107.100000 -1.190099 -1.190099
107.150000 -1.190099 -1.190099
107.200000 -1.190099 -1.190099
107.250000 -1.190099 -1.190099
107.300000 -1.190099 -1.190099
107.350000 -1.190099 -1.190099
107.400000 -1.190099 -1.190099
107.450000 -1.190099 -1.190099
107.500000 -1.190099 -1.190099
107.550000 -1.190099 -1.190099
107.600000 -1.190099 -1.190099
107.650000 -1.190099 -1.190099
107.700000 -1.190099 -1.190099
107.750000 -1.190099 -1.190099
107.800000 -1.190099 -1.190099
107.850000 -1.190099 -1.190099
107.900000 -1.190099 -1.190099
107.950000 -1.190099 -1.190099
108.000000 -1.190099 -1.190099
108.050000 -1.190099 -1.190099
108.100000 -1.190099 -1.190099
108.150000 -1.190099 -1.190099
108.200000 -1.190099 -1.190099
108.250000 -1.190099 -1.190099
108.300000 -1.190099 -1.190099
108.350000 -1.190099 -1.190099
108.400000 -1.190099 -1.190099
108.450000 -1.190099 -1.190099
108.500000 -1.190099 -1.190099
108.550000 -1.190099 -1.190099
108.600000 -1.190099 -1.190099
108.650000 -1.190099 -1.190099
108.700000 -1.190099 -1.190099
108.750000 -1.190099 -1.190099
108.800000 -1.190099 -1.190099
108.850000 -1.190099 -1.190099
108.900000 -1.190099 -1.190099
108.950000 -1.190099 -1.190099
109.000000 -1.190099 -1.190099
109.050000 -1.190099 -1.190099
109.100000 -1.190099 -1.190099
109.150000 -1.190099 -1.190099
109.200000 -1.190099 -1.190099
109.250000 -1.190099 -1.190099
109.300000 -1.190099 -1.190099
109.350000 -1.190099 -1.190099
109.400000 -1.190099 -1.190099
109.450000 -1.190099 -1.190099
109.500000 -1.190099 -1.190099
109.550000 -1.190099 -1.190099
109.600000 -1.190099 -1.190099
109.650000 -1.190099 -1.190099
109.700000 -1.190099 -1.190099
109.750000 -1.190099 -1.190099
109.800000 -1.190099 -1.190099
109.850000 -1.190099 -1.190099
109.900000 -1.190099 -1.190099
109.950000 -1.190099 -1.190099
110.000000 -1.190099 -1.190099
110.050000 -1.190099 -1.190099
110.100000 -1.190099 -1.190099
110.150000 -1.190099 -1.190099
110.200000 -1.190099 -1.190099
110.250000 -1.190099 -1.190099
110.300000 -1.190099 -1.190099
110.350000 -1.190099 -1.190099
110.400000 -1.190099 -1.190099
110.450000 -1.190099 -1.190099
110.500000 -1.190099 -1.190099
110.550000 -1.190099 -1.190099
110.600000 -1.190099 -1.190099
110.650000 -1.190099 -1.190099
110.700000 -1.190099 -1.190099
110.750000 -1.190099 -1.190099
110.800000 -1.190099 -1.190099
110.850000 -1.190099 -1.190099
110.900000 -1.190099 -1.190099
110.950000 -1.190099 -1.190099
111.000000 -1.190099 -1.190099
111.050000 -1.190099 -1.190099
111.100000 -1.190099 -1.190099
111.150000 -1.190099 -1.190099
111.200000 -1.190099 -1.190099
111.250000 -1.190099 -1.190099
111.300000 -1.190099 -1.190099
111.350000 -1.190099 -1.190099
111.400000 -1.190099 -1.190099
111.450000 -1.190099 -1.190099
111.500000 -1.190099 -1.190099
111.550000 -1.190099 -1.190099
111.600000 -1.190099 -1.190099
111.650000 -1.190099 -1.190099
111.700000 -1.190099 -1.190099
111.750000 -1.190099 -1.190099
111.800000 -1.190099 -1.190099
111.850000 -1.190099 -1.190099
111.900000 -1.190099 -1.190099
111.950000 -1.190099 -1.190099
112.000000 -1.190099 -1.190099
112.050000 -1.190099 -1.190099
112.100000 -1.190099 -1.190099
112.150000 -1.190099 -1.190099
112.200000 -1.190099 -1.190099
112.250000 -1.190099 -1.190099
112.300000 -1.190099 -1.190099
112.350000 -1.190099 -1.190099
112.400000 -1.190099 -1.190099
112.450000 -1.190099 -1.190099
112.500000 -1.190099 -1.190099
112.550000 -1.190099 -1.190099
112.600000 -1.190099 -1.190099
112.650000 -1.190099 -1.190099
112.700000 -1.190099 -1.190099
112.750000 -1.190099 -1.190099
112.800000 -1.190099 -1.190099
112.850000 -1.190099 -1.190099
112.900000 -1.190099 -1.190099
112.950000 -1.190099 -1.190099
113.000000 -1.190099 -1.190099
113.050000 -1.190099 -1.190099
113.100000 -1.190099 -1.190099
113.150000 -1.190099 -1.190099
113.200000 -1.190099 -1.190099
113.250000 -1.190099 -1.190099
113.300000 -1.190099 -1.190099
113.350000 -1.190099 -1.190099
113.400000 -1.190099 -1.190099
113.450000 -1.190099 -1.190099
113.500000 -1.190099 -1.190099
113.550000 -1.190099 -1.190099
113.600000 -1.190099 -1.190099
113.650000 -1.190099 -1.190099
113.700000 -1.190099 -1.190099
113.750000 -1.190099 -1.190099
113.800000 -1.190099 -1.190099
113.850000 -1.190099 -1.190099
113.900000 -1.190099 -1.190099
113.950000 -1.190099 -1.190099
114.000000 -1.190099 -1.190099
114.050000 -1.190099 -1.190099
114.100000 -1.190099 -1.190099
114.150000 -1.190099 -1.190099
114.200000 -1.190099 -1.190099
114.250000 -1.190099 -1.190099
114.300000 -1.190099 -1.190099
114.350000 -1.190099 -1.190099
114.400000 -1.190099 -1.190099
114.450000 -1.190099 -1.190099
114.500000 -1.190099 -1.190099
114.550000 -1.190099 -1.190099
114.600000 -1.190099 -1.190099
114.650000 -1.190099 -1.190099
114.700000 -1.190099 -1.190099
114.750000 -1.190099 -1.190099
114.800000 -1.190099 -1.190099
114.850000 -1.190099 -1.190099
114.900000 -1.190099 -1.190099
114.950000 -1.190099 -1.190099
115.000000 -1.190099 -1.190099
115.050000 -1.190099 -1.190099
115.100000 -1.190099 -1.190099
115.150000 -1.190099 -1.190099
115.200000 -1.190099 -1.190099
115.250000 -1.190099 -1.190099
115.300000 -1.190099 -1.190099
115.350000 -1.190099 -1.190099
115.400000 -1.190099 -1.190099
115.450000 -1.190099 -1.190099
115.500000 -1.190099 -1.190099
115.550000 -1.190099 -1.190099
115.600000 -1.190099 -1.190099
115.650000 -1.190099 -1.190099
115.700000 -1.190099 -1.190099
115.750000 -1.190099 -1.190099
115.800000 -1.190099 -1.190099
115.850000 -1.190099 -1.190099
115.900000 -1.190099 -1.190099
115.950000 -1.190099 -1.190099
116.000000 -1.190099 -1.190099
116.050000 -1.190099 -1.190099
116.100000 -1.190099 -1.190099
116.150000 -1.190099 -1.190099
116.200000 -1.190099 -1.190099
116.250000 -1.190099 -1.190099
116.300000 -1.190099 -1.190099
116.350000 -1.190099 -1.190099
116.400000 -1.190099 -1.190099
116.450000 -1.190099 -1.190099
116.500000 -1.190099 -1.190099
116.550000 -1.190099 -1.190099
116.600000 -1.190099 -1.190099
116.650000 -1.190099 -1.190099
116.700000 -1.190099 -1.190099
116.750000 -1.190099 -1.190099
116.800000 -1.190099 -1.190099
116.850000 -1.190099 -1.190099
116.900000 -1.190099 -1.190099
116.950000 -1.190099 -1.190099
117.000000 -1.190099 -1.190099
117.050000 -1.190099 -1.190099
117.100000 -1.190099 -1.190099
117.150000 -1.190099 -1.190099
117.200000 -1.190099 -1.190099
117.250000 -1.190099 -1.190099
117.300000 -1.190099 -1.190099
117.350000 -1.190099 -1.190099
117.400000 -1.190099 -1.190099
117.450000 -1.190099 -1.190099
117.500000 -1.190099 -1.190099
117.550000 -1.190099 -1.190099
117.600000 -1.190099 -1.190099
117.650000 -1.190099 -1.190099
117.700000 -1.190099 -1.190099
117.750000 -1.190099 -1.190099
117.800000 -1.190099 -1.190099
117.850000 -1.190099 -1.190099
117.900000 -1.190099 -1.190099
117.950000 -1.190099 -1.190099
118.000000 -1.190099 -1.190099
118.050000 -1.190099 -1.190099
118.100000 -1.190099 -1.190099
118.150000 -1.190099 -1.190099
118.200000 -1.190099 -1.190099
118.250000 -1.190099 -1.190099
118.300000 -1.190099 -1.190099
118.350000 -1.190099 -1.190099
118.400000 -1.190099 -1.190099
118.450000 -1.190099 -1.190099
118.500000 -1.190099 -1.190099
118.550000 -1.190099 -1.190099
118.600000 -1.190099 -1.190099
118.650000 -1.190099 -1.190099
118.700000 -1.190099 -1.190099
118.750000 -1.190099 -1.190099
118.800000 -1.190099 -1.190099
118.850000 -1.190099 -1.190099
118.900000 -1.190099 -1.190099
118.950000 -1.190099 -1.190099
119.000000 -1.190099 -1.190099
119.050000 -1.190099 -1.190099
119.100000 -1.190099 -1.190099
119.150000 -1.190099 -1.190099
119.200000 -1.190099 -1.190099
119.250000 -1.190099 -1.190099
119.300000 -1.190099 -1.190099
119.350000 -1.190099 -1.190099
119.400000 -1.190099 -1.190099
119.450000 -1.190099 -1.190099
119.500000 -1.190099 -1.190099
119.550000 -1.190099 -1.190099
119.600000 -1.190099 -1.190099
119.650000 -1.190099 -1.190099
119.700000 -1.190099 -1.190099
119.750000 -1.190099 -1.190099
119.800000 -1.190099 -1.190099
119.850000 -1.190099 -1.190099
119.900000 -1.190099 -1.190099
119.950000 -1.190099 -1.190099
120.000000 -1.190099 -1.190099
120.050000 -1.190099 -1.190099
120.100000 -1.190099 -1.190099
120.150000 -1.190099 -1.190099
120.200000 -1.190099 -1.190099
120.250000 -1.190099 -1.190099
120.300000 -1.190099 -1.190099
120.350000 -1.190099 -1.190099
120.400000 -1.190099 -1.190099
120.450000 -1.190099 -1.190099
120.500000 -1.190099 -1.190099
120.550000 -1.190099 -1.190099
120.600000 -1.190099 -1.190099
120.650000 -1.190099 -1.190099
120.700000 -1.190099 -1.190099
120.750000 -1.190099 -1.190099
120.800000 -1.190099 -1.190099
120.850000 -1.190099 -1.190099
120.900000 -1.190099 -1.190099
120.950000 -1.190099 -1.190099
121.000000 -1.190099 -1.190099
121.050000 -1.190099 -1.190099
121.100000 -1.190099 -1.190099
121.150000 -1.190099 -1.190099
121.200000 -1.190099 -1.190099
121.250000 -1.190099 -1.190099
121.300000 -1.190099 -1.190099
121.350000 -1.190099 -1.190099
121.400000 -1.190099 -1.190099
121.450000 -1.190099 -1.190099
121.500000 -1.190099 -1.190099
121.550000 -1.190099 -1.190099
121.600000 -1.190099 -1.190099
121.650000 -1.190099 -1.190099
121.700000 -1.190099 -1.190099
121.750000 -1.190099 -1.190099
121.800000 -1.190099 -1.190099
121.850000 -1.190099 -1.190099
121.900000 -1.190099 -1.190099
121.950000 -1.190099 -1.190099
122.000000 -1.190099 -1.190099
122.050000 -1.190099 -1.190099
122.100000 -1.190099 -1.190099
122.150000 -1.190099 -1.190099
122.200000 -1.190099 -1.190099
122.250000 -1.190099 -1.190099
122.300000 -1.190099 -1.190099
122.350000 -1.190099 -1.190099
122.400000 -1.190099 -1.190099
122.450000 -1.190099 -1.190099
122.500000 -1.190099 -1.190099
122.550000 -1.190099 -1.190099
122.600000 -1.190099 -1.190099
122.650000 -1.190099 -1.190099
122.700000 -1.190099 -1.190099
122.750000 -1.190099 -1.190099
122.800000 -1.190099 -1.190099
122.850000 -1.190099 -1.190099
122.900000 -1.190099 -1.190099
122.950000 -1.190099 -1.190099
123.000000 -1.190099 -1.190099
123.050000 -1.190099 -1.190099
123.100000 -1.190099 -1.190099
123.150000 -1.190099 -1.190099
123.200000 -1.190099 -1.190099
123.250000 -1.190099 -1.190099
123.300000 -1.190099 -1.190099
123.350000 -1.190099 -1.190099
123.400000 -1.190099 -1.190099
123.450000 -1.190099 -1.190099
123.500000 -1.190099 -1.190099
123.550000 -1.190099 -1.190099
123.600000 -1.190099 -1.190099
123.650000 -1.190099 -1.190099
123.700000 -1.190099 -1.190099
123.750000 -1.190099 -1.190099
123.800000 -1.190099 -1.190099
123.850000 -1.190099 -1.190099
123.900000 -1.190099 -1.190099
123.950000 -1.190099 -1.190099
124.000000 -1.190099 -1.190099
124.050000 -1.190099 -1.190099
124.100000 -1.190099 -1.190099
124.150000 -1.190099 -1.190099
124.200000 -1.190099 -1.190099
124.250000 -1.190099 -1.190099
124.300000 -1.190099 -1.190099
124.350000 -1.190099 -1.190099
124.400000 -1.190099 -1.190099
124.450000 -1.190099 -1.190099
124.500000 -1.190099 -1.190099
124.550000 -1.190099 -1.190099
124.600000 -1.190099 -1.190099
124.650000 -1.190099 -1.190099
124.700000 -1.190099 -1.190099
124.750000 -1.190099 -1.190099
124.800000 -1.190099 -1.190099
124.850000 -1.190099 -1.190099
124.900000 -1.190099 -1.190099
124.950000 -1.190099 -1.190099
125.000000 -1.190099 -1.190099
125.050000 -1.190099 -1.190099
125.100000 -1.190099 -1.190099
125.150000 -1.190099 -1.190099
125.200000 -1.190099 -1.190099
125.250000 -1.190099 -1.190099
125.300000 -1.190099 -1.190099
125.350000 -1.190099 -1.190099
125.400000 -1.190099 -1.190099
125.450000 -1.190099 -1.190099
125.500000 -1.190099 -1.190099
125.550000 -1.190099 -1.190099
125.600000 -1.190099 -1.190099
125.650000 -1.190099 -1.190099
125.700000 -1.190099 -1.190099
125.750000 -1.190099 -1.190099
125.800000 -1.190099 -1.190099
125.850000 -1.190099 -1.190099
125.900000 -1.190099 -1.190099
125.950000 -1.190099 -1.190099
126.000000 -1.190099 -1.190099
126.050000 -1.190099 -1.190099
126.100000 -1.190099 -1.190099
126.150000 -1.190099 -1.190099
126.200000 -1.190099 -1.190099
126.250000 -1.190099 -1.190099
126.300000 -1.190099 -1.190099
126.350000 -1.190099 -1.190099
126.400000 -1.190099 -1.190099
126.450000 -1.190099 -1.190099
126.500000 -1.190099 -1.190099
126.550000 -1.190099 -1.190099
126.600000 -1.190099 -1.190099
126.650000 -1.190099 -1.190099
126.700000 -1.190099 -1.190099
126.750000 -1.190099 -1.190099
126.800000 -1.190099 -1.190099
126.850000 -1.190099 -1.190099
126.900000 -1.190099 -1.190099
126.950000 -1.190099 -1.190099
127.000000 -1.190099 -1.190099
127.050000 -1.190099 -1.190099
127.100000 -1.190099 -1.190099
127.150000 -1.190099 -1.190099
127.200000 -1.190099 -1.190099
127.250000 -1.190099 -1.190099
127.300000 -1.190099 -1.190099
127.350000 -1.190099 -1.190099
127.400000 -1.190099 -1.190099
127.450000 -1.190099 -1.190099
127.500000 -1.190099 -1.190099
127.550000 -1.190099 -1.190099
127.600000 -1.190099 -1.190099
127.650000 -1.190099 -1.190099
127.700000 -1.190099 -1.190099
127.750000 -1.190099 -1.190099
127.800000 -1.190099 -1.190099
127.850000 -1.190099 -1.190099
127.900000 -1.190099 -1.190099
127.950000 -1.190099 -1.190099
128.000000 -1.190099 -1.190099
128.050000 -1.190099 -1.190099
128.100000 -1.190099 -1.190099
128.150000 -1.190099 -1.190099
128.200000 -1.190099 -1.190099
128.250000 -1.190099 -1.190099
128.300000 -1.190099 -1.190099
128.350000 -1.190099 -1.190099
128.400000 -1.190099 -1.190099
128.450000 -1.190099 -1.190099
128.500000 -1.190099 -1.190099
128.550000 -1.190099 -1.190099
128.600000 -1.190099 -1.190099
128.650000 -1.190099 -1.190099
128.700000 -1.190099 -1.190099
128.750000 -1.190099 -1.190099
128.800000 -1.190099 -1.190099
128.850000 -1.190099 -1.190099
128.900000 -1.190099 -1.190099
128.950000 -1.190099 -1.190099
129.000000 -1.190099 -1.190099
129.050000 -1.190099 -1.190099
129.100000 -1.190099 -1.190099
129.150000 -1.190099 -1.190099
129.200000 -1.190099 -1.190099
129.250000 -1.190099 -1.190099
129.300000 -1.190099 -1.190099
129.350000 -1.190099 -1.190099
129.400000 -1.190099 -1.190099
129.450000 -1.190099 -1.190099
129.500000 -1.190099 -1.190099
129.550000 -1.190099 -1.190099
129.600000 -1.190099 -1.190099
129.650000 -1.190099 -1.190099
129.700000 -1.190099 -1.190099
129.750000 -1.190099 -1.190099
129.800000 -1.190099 -1.190099
129.850000 -1.190099 -1.190099
129.900000 -1.190099 -1.190099
129.950000 -1.190099 -1.190099
130.000000 -1.190099 -1.190099
130.050000 -1.190099 -1.190099
130.100000 -1.190099 -1.190099
130.150000 -1.190099 -1.190099
130.200000 -1.190099 -1.190099
130.250000 -1.190099 -1.190099
130.300000 -1.190099 -1.190099
130.350000 -1.190099 -1.190099
130.400000 -1.190099 -1.190099
130.450000 -1.190099 -1.190099
130.500000 -1.190099 -1.190099
130.550000 -1.190099 -1.190099
130.600000 -1.190099 -1.190099
130.650000 -1.190099 -1.190099
130.700000 -1.190099 -1.190099
130.750000 -1.190099 -1.190099
130.800000 -1.190099 -1.190099
130.850000 -1.190099 -1.190099
130.900000 -1.190099 -1.190099
130.950000 -1.190099 -1.190099
131.000000 -1.190099 -1.190099
131.050000 -1.190099 -1.190099
131.100000 -1.190099 -1.190099
131.150000 -1.190099 -1.190099
131.200000 -1.190099 -1.190099
131.250000 -1.190099 -1.190099
131.300000 -1.190099 -1.190099
131.350000 -1.190099 -1.190099
131.400000 -1.190099 -1.190099
131.450000 -1.190099 -1.190099
131.500000 -1.190099 -1.190099
131.550000 -1.190099 -1.190099
131.600000 -1.190099 -1.190099
131.650000 -1.190099 -1.190099
131.700000 -1.190099 -1.190099
131.750000 -1.190099 -1.190099
131.800000 -1.190099 -1.190099
131.850000 -1.190099 -1.190099
131.900000 -1.190099 -1.190099
131.950000 -1.190099 -1.190099
132.000000 -1.190099 -1.190099
132.050000 -1.190099 -1.190099
132.100000 -1.190099 -1.190099
132.150000 -1.190099 -1.190099
132.200000 -1.190099 -1.190099
132.250000 -1.190099 -1.190099
132.300000 -1.190099 -1.190099
132.350000 -1.190099 -1.190099
132.400000 -1.190099 -1.190099
132.450000 -1.190099 -1.190099
132.500000 -1.190099 -1.190099
132.550000 -1.190099 -1.190099
132.600000 -1.190099 -1.190099
132.650000 -1.190099 -1.190099
132.700000 -1.190099 -1.190099
132.750000 -1.190099 -1.190099
132.800000 -1.190099 -1.190099
132.850000 -1.190099 -1.190099
132.900000 -1.190099 -1.190099
132.950000 -1.190099 -1.190099
133.000000 -1.190099 -1.190099
133.050000 -1.190099 -1.190099
133.100000 -1.190099 -1.190099
133.150000 -1.190099 -1.190099
133.200000 -1.190099 -1.190099
133.250000 -1.190099 -1.190099
133.300000 -1.190099 -1.190099
133.350000 -1.190099 -1.190099
133.400000 -1.190099 -1.190099
133.450000 -1.190099 -1.190099
133.500000 -1.190099 -1.190099
133.550000 -1.190099 -1.190099
133.600000 -1.190099 -1.190099
133.650000 -1.190099 -1.190099
133.700000 -1.190099 -1.190099
133.750000 -1.190099 -1.190099
133.800000 -1.190099 -1.190099
133.850000 -1.190099 -1.190099
133.900000 -1.190099 -1.190099
133.950000 -1.190099 -1.190099
134.000000 -1.190099 -1.190099
134.050000 -1.190099 -1.190099
134.100000 -1.190099 -1.190099
134.150000 -1.190099 -1.190099
134.200000 -1.190099 -1.190099
134.250000 -1.190099 -1.190099
134.300000 -1.190099 -1.190099
134.350000 -1.190099 -1.190099
134.400000 -1.190099 -1.190099
134.450000 -1.190099 -1.190099
134.500000 -1.190099 -1.190099
134.550000 -1.190099 -1.190099
134.600000 -1.190099 -1.190099
134.650000 -1.190099 -1.190099
134.700000 -1.190099 -1.190099
134.750000 -1.190099 -1.190099
134.800000 -1.190099 -1.190099
134.850000 -1.190099 -1.190099
134.900000 -1.190099 -1.190099
134.950000 -1.190099 -1.190099
135.000000 -1.190099 -1.190099
135.050000 -1.190099 -1.190099
135.100000 -1.190099 -1.190099
135.150000 -1.190099 -1.190099
135.200000 -1.190099 -1.190099
135.250000 -1.190099 -1.190099
135.300000 -1.190099 -1.190099
135.350000 -1.190099 -1.190099
135.400000 -1.190099 -1.190099
135.450000 -1.190099 -1.190099
135.500000 -1.190099 -1.190099
135.550000 -1.190099 -1.190099
135.600000 -1.190099 -1.190099
135.650000 -1.190099 -1.190099
135.700000 -1.190099 -1.190099
135.750000 -1.190099 -1.190099
135.800000 -1.190099 -1.190099
135.850000 -1.190099 -1.190099
135.900000 -1.190099 -1.190099
135.950000 -1.190099 -1.190099
136.000000 -1.190099 -1.190099
136.050000 -1.190099 -1.190099
136.100000 -1.190099 -1.190099
136.150000 -1.190099 -1.190099
136.200000 -1.190099 -1.190099
136.250000 -1.190099 -1.190099
136.300000 -1.190099 -1.190099
136.350000 -1.190099 -1.190099
136.400000 -1.190099 -1.190099
136.450000 -1.190099 -1.190099
136.500000 -1.190099 -1.190099
136.550000 -1.190099 -1.190099
136.600000 -1.190099 -1.190099
136.650000 -1.190099 -1.190099
136.700000 -1.190099 -1.190099
136.750000 -1.190099 -1.190099
136.800000 -1.190099 -1.190099
136.850000 -1.190099 -1.190099
136.900000 -1.190099 -1.190099
136.950000 -1.190099 -1.190099
137.000000 -1.190099 -1.190099
137.050000 -1.190099 -1.190099
137.100000 -1.190099 -1.190099
137.150000 -1.190099 -1.190099
137.200000 -1.190099 -1.190099
137.250000 -1.190099 -1.190099
137.300000 -1.190099 -1.190099
137.350000 -1.190099 -1.190099
137.400000 -1.190099 -1.190099
137.450000 -1.190099 -1.190099
137.500000 -1.190099 -1.190099
137.550000 -1.190099 -1.190099
137.600000 -1.190099 -1.190099
137.650000 -1.190099 -1.190099
137.700000 -1.190099 -1.190099
137.750000 -1.190099 -1.190099
137.800000 -1.190099 -1.190099
137.850000 -1.190099 -1.190099
137.900000 -1.190099 -1.190099
137.950000 -1.190099 -1.190099
138.000000 -1.190099 -1.190099
138.050000 -1.190099 -1.190099
138.100000 -1.190099 -1.190099
138.150000 -1.190099 -1.190099
138.200000 -1.190099 -1.190099
138.250000 -1.190099 -1.190099
138.300000 -1.190099 -1.190099
138.350000 -1.190099 -1.190099
138.400000 -1.190099 -1.190099
138.450000 -1.190099 -1.190099
138.500000 -1.190099 -1.190099
138.550000 -1.190099 -1.190099
138.600000 -1.190099 -1.190099
138.650000 -1.190099 -1.190099
138.700000 -1.190099 -1.190099
138.750000 -1.190099 -1.190099
138.800000 -1.190099 -1.190099
138.850000 -1.190099 -1.190099
138.900000 -1.190099 -1.190099
138.950000 -1.190099 -1.190099
139.000000 -1.190099 -1.190099
139.050000 -1.190099 -1.190099
139.100000 -1.190099 -1.190099
139.150000 -1.190099 -1.190099
139.200000 -1.190099 -1.190099
139.250000 -1.190099 -1.190099
139.300000 -1.190099 -1.190099
139.350000 -1.190099 -1.190099
139.400000 -1.190099 -1.190099
139.450000 -1.190099 -1.190099
139.500000 -1.190099 -1.190099
139.550000 -1.190099 -1.190099
139.600000 -1.190099 -1.190099
139.650000 -1.190099 -1.190099
139.700000 -1.190099 -1.190099
139.750000 -1.190099 -1.190099
139.800000 -1.190099 -1.190099
139.850000 -1.190099 -1.190099
139.900000 -1.190099 -1.190099
139.950000 -1.190099 -1.190099
140.000000 -1.190099 -1.190099
140.050000 -1.190099 -1.190099
140.100000 -1.190099 -1.190099
140.150000 -1.190099 -1.190099
140.200000 -1.190099 -1.190099
140.250000 -1.190099 -1.190099
140.300000 -1.190099 -1.190099
140.350000 -1.190099 -1.190099
140.400000 -1.190099 -1.190099
140.450000 -1.190099 -1.190099
140.500000 -1.190099 -1.190099
140.550000 -1.190099 -1.190099
140.600000 -1.190099 -1.190099
140.650000 -1.190099 -1.190099
140.700000 -1.190099 -1.190099
140.750000 -1.190099 -1.190099
140.800000 -1.190099 -1.190099
140.850000 -1.190099 -1.190099
140.900000 -1.190099 -1.190099
140.950000 -1.190099 -1.190099
141.000000 -1.190099 -1.190099
141.050000 -1.190099 -1.190099
141.100000 -1.190099 -1.190099
141.150000 -1.190099 -1.190099
141.200000 -1.190099 -1.190099
141.250000 -1.190099 -1.190099
141.300000 -1.190099 -1.190099
141.350000 -1.190099 -1.190099
141.400000 -1.190099 -1.190099
141.450000 -1.190099 -1.190099
141.500000 -1.190099 -1.190099
141.550000 -1.190099 -1.190099
141.600000 -1.190099 -1.190099
141.650000 -1.190099 -1.190099
141.700000 -1.190099 -1.190099
141.750000 -1.190099 -1.190099
141.800000 -1.190099 -1.190099
141.850000 -1.190099 -1.190099
141.900000 -1.190099 -1.190099
141.950000 -1.190099 -1.190099
142.000000 -1.190099 -1.190099
142.050000 -1.190099 -1.190099
142.100000 -1.190099 -1.190099
142.150000 -1.190099 -1.190099
142.200000 -1.190099 -1.190099
142.250000 -1.190099 -1.190099
142.300000 -1.190099 -1.190099
142.350000 -1.190099 -1.190099
142.400000 -1.190099 -1.190099
142.450000 -1.190099 -1.190099
142.500000 -1.190099 -1.190099
142.550000 -1.190099 -1.190099
142.600000 -1.190099 -1.190099
142.650000 -1.190099 -1.190099
142.700000 -1.190099 -1.190099
142.750000 -1.190099 -1.190099
142.800000 -1.190099 -1.190099
142.850000 -1.190099 -1.190099
142.900000 -1.190099 -1.190099
142.950000 -1.190099 -1.190099
143.000000 -1.190099 -1.190099
143.050000 -1.190099 -1.190099
143.100000 -1.190099 -1.190099
143.150000 -1.190099 -1.190099
143.200000 -1.190099 -1.190099
143.250000 -1.190099 -1.190099
143.300000 -1.190099 -1.190099
143.350000 -1.190099 -1.190099
143.400000 -1.190099 -1.190099
143.450000 -1.190099 -1.190099
143.500000 -1.190099 -1.190099
143.550000 -1.190099 -1.190099
143.600000 -1.190099 -1.190099
143.650000 -1.190099 -1.190099
143.700000 -1.190099 -1.190099
143.750000 -1.190099 -1.190099
143.800000 -1.190099 -1.190099
143.850000 -1.190099 -1.190099
143.900000 -1.190099 -1.190099
143.950000 -1.190099 -1.190099
144.000000 -1.190099 -1.190099
144.050000 -1.190099 -1.190099
144.100000 -1.190099 -1.190099
144.150000 -1.190099 -1.190099
144.200000 -1.190099 -1.190099
144.250000 -1.190099 -1.190099
144.300000 -1.190099 -1.190099
144.350000 -1.190099 -1.190099
144.400000 -1.190099 -1.190099
144.450000 -1.190099 -1.190099
144.500000 -1.190099 -1.190099
144.550000 -1.190099 -1.190099
144.600000 -1.190099 -1.190099
144.650000 -1.190099 -1.190099
144.700000 -1.190099 -1.190099
144.750000 -1.190099 -1.190099
144.800000 -1.190099 -1.190099
144.850000 -1.190099 -1.190099
144.900000 -1.190099 -1.190099
144.950000 -1.190099 -1.190099
145.000000 -1.190099 -1.190099
145.050000 -1.190099 -1.190099
145.100000 -1.190099 -1.190099
145.150000 -1.190099 -1.190099
145.200000 -1.190099 -1.190099
145.250000 -1.190099 -1.190099
145.300000 -1.190099 -1.190099
145.350000 -1.190099 -1.190099
145.400000 -1.190099 -1.190099
145.450000 -1.190099 -1.190099
145.500000 -1.190099 -1.190099
145.550000 -1.190099 -1.190099
145.600000 -1.190099 -1.190099
145.650000 -1.190099 -1.190099
145.700000 -1.190099 -1.190099
145.750000 -1.190099 -1.190099
145.800000 -1.190099 -1.190099
145.850000 -1.190099 -1.190099
145.900000 -1.190099 -1.190099
145.950000 -1.190099 -1.190099
146.000000 -1.190099 -1.190099
146.050000 -1.190099 -1.190099
146.100000 -1.190099 -1.190099
146.150000 -1.190099 -1.190099
146.200000 -1.190099 -1.190099
146.250000 -1.190099 -1.190099
146.300000 -1.190099 -1.190099
146.350000 -1.190099 -1.190099
146.400000 -1.190099 -1.190099
146.450000 -1.190099 -1.190099
146.500000 -1.190099 -1.190099
146.550000 -1.190099 -1.190099
146.600000 -1.190099 -1.190099
146.650000 -1.190099 -1.190099
146.700000 -1.190099 -1.190099
146.750000 -1.190099 -1.190099
146.800000 -1.190099 -1.190099
146.850000 -1.190099 -1.190099
146.900000 -1.190099 -1.190099
146.950000 -1.190099 -1.190099
147.000000 -1.190099 -1.190099
147.050000 -1.190099 -1.190099
147.100000 -1.190099 -1.190099
147.150000 -1.190099 -1.190099
147.200000 -1.190099 -1.190099
147.250000 -1.190099 -1.190099
147.300000 -1.190099 -1.190099
147.350000 -1.190099 -1.190099
147.400000 -1.190099 -1.190099
147.450000 -1.190099 -1.190099
147.500000 -1.190099 -1.190099
147.550000 -1.190099 -1.190099
147.600000 -1.190099 -1.190099
147.650000 -1.190099 -1.190099
147.700000 -1.190099 -1.190099
147.750000 -1.190099 -1.190099
147.800000 -1.190099 -1.190099
147.850000 -1.190099 -1.190099
147.900000 -1.190099 -1.190099
147.950000 -1.190099 -1.190099
148.000000 -1.190099 -1.190099
148.050000 -1.190099 -1.190099
148.100000 -1.190099 -1.190099
148.150000 -1.190099 -1.190099
148.200000 -1.190099 -1.190099
148.250000 -1.190099 -1.190099
148.300000 -1.190099 -1.190099
148.350000 -1.190099 -1.190099
148.400000 -1.190099 -1.190099
148.450000 -1.190099 -1.190099
148.500000 -1.190099 -1.190099
148.550000 -1.190099 -1.190099
148.600000 -1.190099 -1.190099
148.650000 -1.190099 -1.190099
148.700000 -1.190099 -1.190099
148.750000 -1.190099 -1.190099
148.800000 -1.190099 -1.190099
148.850000 -1.190099 -1.190099
148.900000 -1.190099 -1.190099
148.950000 -1.190099 -1.190099
149.000000 -1.190099 -1.190099
149.050000 -1.190099 -1.190099
149.100000 -1.190099 -1.190099
149.150000 -1.190099 -1.190099
149.200000 -1.190099 -1.190099
149.250000 -1.190099 -1.190099
149.300000 -1.190099 -1.190099
149.350000 -1.190099 -1.190099
149.400000 -1.190099 -1.190099
149.450000 -1.190099 -1.190099
149.500000 -1.190099 -1.190099
149.550000 -1.190099 -1.190099
149.600000 -1.190099 -1.190099
149.650000 -1.190099 -1.190099
149.700000 -1.190099 -1.190099
149.750000 -1.190099 -1.190099
149.800000 -1.190099 -1.190099
149.850000 -1.190099 -1.190099
149.900000 -1.190099 -1.190099
149.950000 -1.190099 -1.190099
150.000000 -1.190099 -1.190099
150.050000 -1.190099 -1.190099
150.100000 -1.190099 -1.190099
150.150000 -1.190099 -1.190099
150.200000 -1.190099 -1.190099
150.250000 -1.190099 -1.190099
150.300000 -1.190099 -1.190099
150.350000 -1.190099 -1.190099
150.400000 -1.190099 -1.190099
150.450000 -1.190099 -1.190099
150.500000 -1.190099 -1.190099
150.550000 -1.190099 -1.190099
150.600000 -1.190099 -1.190099
150.650000 -1.190099 -1.190099
150.700000 -1.190099 -1.190099
150.750000 -1.190099 -1.190099
150.800000 -1.190099 -1.190099
150.850000 -1.190099 -1.190099
150.900000 -1.190099 -1.190099
150.950000 -1.190099 -1.190099
151.000000 -1.190099 -1.190099
151.050000 -1.190099 -1.190099
151.100000 -1.190099 -1.190099
151.150000 -1.190099 -1.190099
151.200000 -1.190099 -1.190099
151.250000 -1.190099 -1.190099
151.300000 -1.190099 -1.190099
151.350000 -1.190099 -1.190099
151.400000 -1.190099 -1.190099
151.450000 -1.190099 -1.190099
151.500000 -1.190099 -1.190099
151.550000 -1.190099 -1.190099
151.600000 -1.190099 -1.190099
151.650000 -1.190099 -1.190099
151.700000 -1.190099 -1.190099
151.750000 -1.190099 -1.190099
151.800000 -1.190099 -1.190099
151.850000 -1.190099 -1.190099
151.900000 -1.190099 -1.190099
151.950000 -1.190099 -1.190099
152.000000 -1.190099 -1.190099
152.050000 -1.190099 -1.190099
152.100000 -1.190099 -1.190099
152.150000 -1.190099 -1.190099
152.200000 -1.190099 -1.190099
152.250000 -1.190099 -1.190099
152.300000 -1.190099 -1.190099
152.350000 -1.190099 -1.190099
152.400000 -1.190099 -1.190099
152.450000 -1.190099 -1.190099
152.500000 -1.190099 -1.190099
152.550000 -1.190099 -1.190099
152.600000 -1.190099 -1.190099
152.650000 -1.190099 -1.190099
152.700000 -1.190099 -1.190099
152.750000 -1.190099 -1.190099
152.800000 -1.190099 -1.190099
152.850000 -1.190099 -1.190099
152.900000 -1.190099 -1.190099
152.950000 -1.190099 -1.190099
153.000000 -1.190099 -1.190099
153.050000 -1.190099 -1.190099
153.100000 -1.190099 -1.190099
153.150000 -1.190099 -1.190099
153.200000 -1.190099 -1.190099
153.250000 -1.190099 -1.190099
153.300000 -1.190099 -1.190099
153.350000 -1.190099 -1.190099
153.400000 -1.190099 -1.190099
153.450000 -1.190099 -1.190099
153.500000 -1.190099 -1.190099
153.550000 -1.190099 -1.190099
153.600000 -1.190099 -1.190099
153.650000 -1.190099 -1.190099
153.700000 -1.190099 -1.190099
153.750000 -1.190099 -1.190099
153.800000 -1.190099 -1.190099
153.850000 -1.190099 -1.190099
153.900000 -1.190099 -1.190099
153.950000 -1.190099 -1.190099
154.000000 -1.190099 -1.190099
154.050000 -1.190099 -1.190099
154.100000 -1.190099 -1.190099
154.150000 -1.190099 -1.190099
154.200000 -1.190099 -1.190099
154.250000 -1.190099 -1.190099
154.300000 -1.190099 -1.190099
154.350000 -1.190099 -1.190099
154.400000 -1.190099 -1.190099
154.450000 -1.190099 -1.190099
154.500000 -1.190099 -1.190099
154.550000 -1.190099 -1.190099
154.600000 -1.190099 -1.190099
154.650000 -1.190099 -1.190099
154.700000 -1.190099 -1.190099
154.750000 -1.190099 -1.190099
154.800000 -1.190099 -1.190099
154.850000 -1.190099 -1.190099
154.900000 -1.190099 -1.190099
154.950000 -1.190099 -1.190099
155.000000 -1.190099 -1.190099
155.050000 -1.190099 -1.190099
155.100000 -1.190099 -1.190099
155.150000 -1.190099 -1.190099
155.200000 -1.190099 -1.190099
155.250000 -1.190099 -1.190099
155.300000 -1.190099 -1.190099
155.350000 -1.190099 -1.190099
155.400000 -1.190099 -1.190099
155.450000 -1.190099 -1.190099
155.500000 -1.190099 -1.190099
155.550000 -1.190099 -1.190099
155.600000 -1.190099 -1.190099
155.650000 -1.190099 -1.190099
155.700000 -1.190099 -1.190099
155.750000 -1.190099 -1.190099
155.800000 -1.190099 -1.190099
155.850000 -1.190099 -1.190099
155.900000 -1.190099 -1.190099
155.950000 -1.190099 -1.190099
156.000000 -1.190099 -1.190099
156.050000 -1.190099 -1.190099
156.100000 -1.190099 -1.190099
156.150000 -1.190099 -1.190099
156.200000 -1.190099 -1.190099
156.250000 -1.190099 -1.190099
156.300000 -1.190099 -1.190099
156.350000 -1.190099 -1.190099
156.400000 -1.190099 -1.190099
156.450000 -1.190099 -1.190099
156.500000 -1.190099 -1.190099
156.550000 -1.190099 -1.190099
156.600000 -1.190099 -1.190099
156.650000 -1.190099 -1.190099
156.700000 -1.190099 -1.190099
156.750000 -1.190099 -1.190099
156.800000 -1.190099 -1.190099
156.850000 -1.190099 -1.190099
156.900000 -1.190099 -1.190099
156.950000 -1.190099 -1.190099
157.000000 -1.190099 -1.190099
157.050000 -1.190099 -1.190099
157.100000 -1.190099 -1.190099
157.150000 -1.190099 -1.190099
157.200000 -1.190099 -1.190099
157.250000 -1.190099 -1.190099
157.300000 -1.190099 -1.190099
157.350000 -1.190099 -1.190099
157.400000 -1.190099 -1.190099
157.450000 -1.190099 -1.190099
157.500000 -1.190099 -1.190099
157.550000 -1.190099 -1.190099
157.600000 -1.190099 -1.190099
157.650000 -1.190099 -1.190099
157.700000 -1.190099 -1.190099
157.750000 -1.190099 -1.190099
157.800000 -1.190099 -1.190099
157.850000 -1.190099 -1.190099
157.900000 -1.190099 -1.190099
157.950000 -1.190099 -1.190099
158.000000 -1.190099 -1.190099
158.050000 -1.190099 -1.190099
158.100000 -1.190099 -1.190099
158.150000 -1.190099 -1.190099
158.200000 -1.190099 -1.190099
158.250000 -1.190099 -1.190099
158.300000 -1.190099 -1.190099
158.350000 -1.190099 -1.190099
158.400000 -1.190099 -1.190099
158.450000 -1.190099 -1.190099
158.500000 -1.190099 -1.190099
158.550000 -1.190099 -1.190099
158.600000 -1.190099 -1.190099
158.650000 -1.190099 -1.190099
158.700000 -1.190099 -1.190099
158.750000 -1.190099 -1.190099
158.800000 -1.190099 -1.190099
158.850000 -1.190099 -1.190099
158.900000 -1.190099 -1.190099
158.950000 -1.190099 -1.190099
159.000000 -1.190099 -1.190099
159.050000 -1.190099 -1.190099
159.100000 -1.190099 -1.190099
159.150000 -1.190099 -1.190099
159.200000 -1.190099 -1.190099
159.250000 -1.190099 -1.190099
159.300000 -1.190099 -1.190099
159.350000 -1.190099 -1.190099
159.400000 -1.190099 -1.190099
159.450000 -1.190099 -1.190099
159.500000 -1.190099 -1.190099
159.550000 -1.190099 -1.190099
159.600000 -1.190099 -1.190099
159.650000 -1.190099 -1.190099
159.700000 -1.190099 -1.190099
159.750000 -1.190099 -1.190099
159.800000 -1.190099 -1.190099
159.850000 -1.190099 -1.190099
159.900000 -1.190099 -1.190099
159.950000 -1.190099 -1.190099
160.000000 -1.190099 -1.190099
160.050000 -1.190099 -1.190099
160.100000 -1.190099 -1.190099
160.150000 -1.190099 -1.190099
160.200000 -1.190099 -1.190099
160.250000 -1.190099 -1.190099
160.300000 -1.190099 -1.190099
160.350000 -1.190099 -1.190099
160.400000 -1.190099 -1.190099
160.450000 -1.190099 -1.190099
160.500000 -1.190099 -1.190099
160.550000 -1.190099 -1.190099
160.600000 -1.190099 -1.190099
160.650000 -1.190099 -1.190099
160.700000 -1.190099 -1.190099
160.750000 -1.190099 -1.190099
160.800000 -1.190099 -1.190099
160.850000 -1.190099 -1.190099
160.900000 -1.190099 -1.190099
160.950000 -1.190099 -1.190099
161.000000 -1.190099 -1.190099
161.050000 -1.190099 -1.190099
161.100000 -1.190099 -1.190099
161.150000 -1.190099 -1.190099
161.200000 -1.190099 -1.190099
161.250000 -1.190099 -1.190099
161.300000 -1.190099 -1.190099
161.350000 -1.190099 -1.190099
161.400000 -1.190099 -1.190099
161.450000 -1.190099 -1.190099
161.500000 -1.190099 -1.190099
161.550000 -1.190099 -1.190099
161.600000 -1.190099 -1.190099
161.650000 -1.190099 -1.190099
161.700000 -1.190099 -1.190099
161.750000 -1.190099 -1.190099
161.800000 -1.190099 -1.190099
161.850000 -1.190099 -1.190099
161.900000 -1.190099 -1.190099
161.950000 -1.190099 -1.190099
162.000000 -1.190099 -1.190099
162.050000 -1.190099 -1.190099
162.100000 -1.190099 -1.190099
162.150000 -1.190099 -1.190099
162.200000 -1.190099 -1.190099
162.250000 -1.190099 -1.190099
162.300000 -1.190099 -1.190099
162.350000 -1.190099 -1.190099
162.400000 -1.190099 -1.190099
162.450000 -1.190099 -1.190099
162.500000 -1.190099 -1.190099
162.550000 -1.190099 -1.190099
162.600000 -1.190099 -1.190099
162.650000 -1.190099 -1.190099
162.700000 -1.190099 -1.190099
162.750000 -1.190099 -1.190099
162.800000 -1.190099 -1.190099
162.850000 -1.190099 -1.190099
162.900000 -1.190099 -1.190099
162.950000 -1.190099 -1.190099
163.000000 -1.190099 -1.190099
163.050000 -1.190099 -1.190099
163.100000 -1.190099 -1.190099
163.150000 -1.190099 -1.190099
163.200000 -1.190099 -1.190099
163.250000 -1.190099 -1.190099
163.300000 -1.190099 -1.190099
163.350000 -1.190099 -1.190099
163.400000 -1.190099 -1.190099
163.450000 -1.190099 -1.190099
163.500000 -1.190099 -1.190099
163.550000 -1.190099 -1.190099
163.600000 -1.190099 -1.190099
163.650000 -1.190099 -1.190099
163.700000 -1.190099 -1.190099
163.750000 -1.190099 -1.190099
163.800000 -1.190099 -1.190099
163.850000 -1.190099 -1.190099
163.900000 -1.190099 -1.190099
163.950000 -1.190099 -1.190099
164.000000 -1.190099 -1.190099
164.050000 -1.190099 -1.190099
164.100000 -1.190099 -1.190099
164.150000 -1.190099 -1.190099
164.200000 -1.190099 -1.190099
164.250000 -1.190099 -1.190099
164.300000 -1.190099 -1.190099
164.350000 -1.190099 -1.190099
164.400000 -1.190099 -1.190099
164.450000 -1.190099 -1.190099
164.500000 -1.190099 -1.190099
164.550000 -1.190099 -1.190099
164.600000 -1.190099 -1.190099
164.650000 -1.190099 -1.190099
164.700000 -1.190099 -1.190099
164.750000 -1.190099 -1.190099
164.800000 -1.190099 -1.190099
164.850000 -1.190099 -1.190099
164.900000 -1.190099 -1.190099
164.950000 -1.190099 -1.190099
165.000000 -1.190099 -1.190099
165.050000 -1.190099 -1.190099
165.100000 -1.190099 -1.190099
165.150000 -1.190099 -1.190099
165.200000 -1.190099 -1.190099
165.250000 -1.190099 -1.190099
165.300000 -1.190099 -1.190099
165.350000 -1.190099 -1.190099
165.400000 -1.190099 -1.190099
165.450000 -1.190099 -1.190099
165.500000 -1.190099 -1.190099
165.550000 -1.190099 -1.190099
165.600000 -1.190099 -1.190099
165.650000 -1.190099 -1.190099
165.700000 -1.190099 -1.190099
165.750000 -1.190099 -1.190099
165.800000 -1.190099 -1.190099
165.850000 -1.190099 -1.190099
165.900000 -1.190099 -1.190099
165.950000 -1.190099 -1.190099
166.000000 -1.190099 -1.190099
166.050000 -1.190099 -1.190099
166.100000 -1.190099 -1.190099
166.150000 -1.190099 -1.190099
166.200000 -1.190099 -1.190099
166.250000 -1.190099 -1.190099
166.300000 -1.190099 -1.190099
166.350000 -1.190099 -1.190099
166.400000 -1.190099 -1.190099
166.450000 -1.190099 -1.190099
166.500000 -1.190099 -1.190099
166.550000 -1.190099 -1.190099
166.600000 -1.190099 -1.190099
166.650000 -1.190099 -1.190099
166.700000 -1.190099 -1.190099
166.750000 -1.190099 -1.190099
166.800000 -1.190099 -1.190099
166.850000 -1.190099 -1.190099
166.900000 -1.190099 -1.190099
166.950000 -1.190099 -1.190099
167.000000 -1.190099 -1.190099
167.050000 -1.190099 -1.190099
167.100000 -1.190099 -1.190099
167.150000 -1.190099 -1.190099
167.200000 -1.190099 -1.190099
167.250000 -1.190099 -1.190099
167.300000 -1.190099 -1.190099
167.350000 -1.190099 -1.190099
167.400000 -1.190099 -1.190099
167.450000 -1.190099 -1.190099
167.500000 -1.190099 -1.190099
167.550000 -1.190099 -1.190099
167.600000 -1.190099 -1.190099
167.650000 -1.190099 -1.190099
167.700000 -1.190099 -1.190099
167.750000 -1.190099 -1.190099
167.800000 -1.190099 -1.190099
167.850000 -1.190099 -1.190099
167.900000 -1.190099 -1.190099
167.950000 -1.190099 -1.190099
168.000000 -1.190099 -1.190099
168.050000 -1.190099 -1.190099
168.100000 -1.190099 -1.190099
168.150000 -1.190099 -1.190099
168.200000 -1.190099 -1.190099
168.250000 -1.190099 -1.190099
168.300000 -1.190099 -1.190099
168.350000 -1.190099 -1.190099
168.400000 -1.190099 -1.190099
168.450000 -1.190099 -1.190099
168.500000 -1.190099 -1.190099
168.550000 -1.190099 -1.190099
168.600000 -1.190099 -1.190099
168.650000 -1.190099 -1.190099
168.700000 -1.190099 -1.190099
168.750000 -1.190099 -1.190099
168.800000 -1.190099 -1.190099
168.850000 -1.190099 -1.190099
168.900000 -1.190099 -1.190099
168.950000 -1.190099 -1.190099
169.000000 -1.190099 -1.190099
169.050000 -1.190099 -1.190099
169.100000 -1.190099 -1.190099
169.150000 -1.190099 -1.190099
169.200000 -1.190099 -1.190099
169.250000 -1.190099 -1.190099
169.300000 -1.190099 -1.190099
169.350000 -1.190099 -1.190099
169.400000 -1.190099 -1.190099
169.450000 -1.190099 -1.190099
169.500000 -1.190099 -1.190099
169.550000 -1.190099 -1.190099
169.600000 -1.190099 -1.190099
169.650000 -1.190099 -1.190099
169.700000 -1.190099 -1.190099
169.750000 -1.190099 -1.190099
169.800000 -1.190099 -1.190099
169.850000 -1.190099 -1.190099
169.900000 -1.190099 -1.190099
169.950000 -1.190099 -1.190099
170.000000 -1.190099 -1.190099
170.050000 -1.190099 -1.190099
170.100000 -1.190099 -1.190099
170.150000 -1.190099 -1.190099
170.200000 -1.190099 -1.190099
170.250000 -1.190099 -1.190099
170.300000 -1.190099 -1.190099
170.350000 -1.190099 -1.190099
170.400000 -1.190099 -1.190099
170.450000 -1.190099 -1.190099
170.500000 -1.190099 -1.190099
170.550000 -1.190099 -1.190099
170.600000 -1.190099 -1.190099
170.650000 -1.190099 -1.190099
170.700000 -1.190099 -1.190099
170.750000 -1.190099 -1.190099
170.800000 -1.190099 -1.190099
170.850000 -1.190099 -1.190099
170.900000 -1.190099 -1.190099
170.950000 -1.190099 -1.190099
171.000000 -1.190099 -1.190099
171.050000 -1.190099 -1.190099
171.100000 -1.190099 -1.190099
171.150000 -1.190099 -1.190099
171.200000 -1.190099 -1.190099
171.250000 -1.190099 -1.190099
171.300000 -1.190099 -1.190099
171.350000 -1.190099 -1.190099
171.400000 -1.190099 -1.190099
171.450000 -1.190099 -1.190099
171.500000 -1.190099 -1.190099
171.550000 -1.190099 -1.190099
171.600000 -1.190099 -1.190099
171.650000 -1.190099 -1.190099
171.700000 -1.190099 -1.190099
171.750000 -1.190099 -1.190099
171.800000 -1.190099 -1.190099
171.850000 -1.190099 -1.190099
171.900000 -1.190099 -1.190099
171.950000 -1.190099 -1.190099
172.000000 -1.190099 -1.190099
172.050000 -1.190099 -1.190099
172.100000 -1.190099 -1.190099
172.150000 -1.190099 -1.190099
172.200000 -1.190099 -1.190099
172.250000 -1.190099 -1.190099
172.300000 -1.190099 -1.190099
172.350000 -1.190099 -1.190099
172.400000 -1.190099 -1.190099
172.450000 -1.190099 -1.190099
172.500000 -1.190099 -1.190099
172.550000 -1.190099 -1.190099
172.600000 -1.190099 -1.190099
172.650000 -1.190099 -1.190099
172.700000 -1.190099 -1.190099
172.750000 -1.190099 -1.190099
172.800000 -1.190099 -1.190099
172.850000 -1.190099 -1.190099
172.900000 -1.190099 -1.190099
172.950000 -1.190099 -1.190099
173.000000 -1.190099 -1.190099
173.050000 -1.190099 -1.190099
173.100000 -1.190099 -1.190099
173.150000 -1.190099 -1.190099
173.200000 -1.190099 -1.190099
173.250000 -1.190099 -1.190099
173.300000 -1.190099 -1.190099
173.350000 -1.190099 -1.190099
173.400000 -1.190099 -1.190099
173.450000 -1.190099 -1.190099
173.500000 -1.190099 -1.190099
173.550000 -1.190099 -1.190099
173.600000 -1.190099 -1.190099
173.650000 -1.190099 -1.190099
173.700000 -1.190099 -1.190099
173.750000 -1.190099 -1.190099
173.800000 -1.190099 -1.190099
173.850000 -1.190099 -1.190099
173.900000 -1.190099 -1.190099
173.950000 -1.190099 -1.190099
174.000000 -1.190099 -1.190099
174.050000 -1.190099 -1.190099
174.100000 -1.190099 -1.190099
174.150000 -1.190099 -1.190099
174.200000 -1.190099 -1.190099
174.250000 -1.190099 -1.190099
174.300000 -1.190099 -1.190099
174.350000 -1.190099 -1.190099
174.400000 -1.190099 -1.190099
174.450000 -1.190099 -1.190099
174.500000 -1.190099 -1.190099
174.550000 -1.190099 -1.190099
174.600000 -1.190099 -1.190099
174.650000 -1.190099 -1.190099
174.700000 -1.190099 -1.190099
174.750000 -1.190099 -1.190099
174.800000 -1.190099 -1.190099
174.850000 -1.190099 -1.190099
174.900000 -1.190099 -1.190099
174.950000 -1.190099 -1.190099
175.000000 -1.190099 -1.190099
175.050000 -1.190099 -1.190099
175.100000 -1.190099 -1.190099
175.150000 -1.190099 -1.190099
175.200000 -1.190099 -1.190099
175.250000 -1.190099 -1.190099
175.300000 -1.190099 -1.190099
175.350000 -1.190099 -1.190099
175.400000 -1.190099 -1.190099
175.450000 -1.190099 -1.190099
175.500000 -1.190099 -1.190099
175.550000 -1.190099 -1.190099
175.600000 -1.190099 -1.190099
175.650000 -1.190099 -1.190099
175.700000 -1.190099 -1.190099
175.750000 -1.190099 -1.190099
175.800000 -1.190099 -1.190099
175.850000 -1.190099 -1.190099
175.900000 -1.190099 -1.190099
175.950000 -1.190099 -1.190099
176.000000 -1.190099 -1.190099
176.050000 -1.190099 -1.190099
176.100000 -1.190099 -1.190099
176.150000 -1.190099 -1.190099
176.200000 -1.190099 -1.190099
176.250000 -1.190099 -1.190099
176.300000 -1.190099 -1.190099
176.350000 -1.190099 -1.190099
176.400000 -1.190099 -1.190099
176.450000 -1.190099 -1.190099
176.500000 -1.190099 -1.190099
176.550000 -1.190099 -1.190099
176.600000 -1.190099 -1.190099
176.650000 -1.190099 -1.190099
176.700000 -1.190099 -1.190099
176.750000 -1.190099 -1.190099
176.800000 -1.190099 -1.190099
176.850000 -1.190099 -1.190099
176.900000 -1.190099 -1.190099
176.950000 -1.190099 -1.190099
177.000000 -1.190099 -1.190099
177.050000 -1.190099 -1.190099
177.100000 -1.190099 -1.190099
177.150000 -1.190099 -1.190099
177.200000 -1.190099 -1.190099
177.250000 -1.190099 -1.190099
177.300000 -1.190099 -1.190099
177.350000 -1.190099 -1.190099
177.400000 -1.190099 -1.190099
177.450000 -1.190099 -1.190099
177.500000 -1.190099 -1.190099
177.550000 -1.190099 -1.190099
177.600000 -1.190099 -1.190099
177.650000 -1.190099 -1.190099
177.700000 -1.190099 -1.190099
177.750000 -1.190099 -1.190099
177.800000 -1.190099 -1.190099
177.850000 -1.190099 -1.190099
177.900000 -1.190099 -1.190099
177.950000 -1.190099 -1.190099
178.000000 -1.190099 -1.190099
178.050000 -1.190099 -1.190099
178.100000 -1.190099 -1.190099
178.150000 -1.190099 -1.190099
178.200000 -1.190099 -1.190099
178.250000 -1.190099 -1.190099
178.300000 -1.190099 -1.190099
178.350000 -1.190099 -1.190099
178.400000 -1.190099 -1.190099
178.450000 -1.190099 -1.190099
178.500000 -1.190099 -1.190099
178.550000 -1.190099 -1.190099
178.600000 -1.190099 -1.190099
178.650000 -1.190099 -1.190099
178.700000 -1.190099 -1.190099
178.750000 -1.190099 -1.190099
178.800000 -1.190099 -1.190099
178.850000 -1.190099 -1.190099
178.900000 -1.190099 -1.190099
178.950000 -1.190099 -1.190099
179.000000 -1.190099 -1.190099
179.050000 -1.190099 -1.190099
179.100000 -1.190099 -1.190099
179.150000 -1.190099 -1.190099
179.200000 -1.190099 -1.190099
179.250000 -1.190099 -1.190099
179.300000 -1.190099 -1.190099
179.350000 -1.190099 -1.190099
179.400000 -1.190099 -1.190099
179.450000 -1.190099 -1.190099
179.500000 -1.190099 -1.190099
179.550000 -1.190099 -1.190099
179.600000 -1.190099 -1.190099
179.650000 -1.190099 -1.190099
179.700000 -1.190099 -1.190099
179.750000 -1.190099 -1.190099
179.800000 -1.190099 -1.190099
179.850000 -1.190099 -1.190099
179.900000 -1.190099 -1.190099
179.950000 -1.190099 -1.190099
180.000000 -1.190099 -1.190099
180.050000 -1.190099 -1.190099
180.100000 -1.190099 -1.190099
180.150000 -1.190099 -1.190099
180.200000 -1.190099 -1.190099
180.250000 -1.190099 -1.190099
180.300000 -1.190099 -1.190099
180.350000 -1.190099 -1.190099
180.400000 -1.190099 -1.190099
180.450000 -1.190099 -1.190099
180.500000 -1.190099 -1.190099
180.550000 -1.190099 -1.190099
180.600000 -1.190099 -1.190099
180.650000 -1.190099 -1.190099
180.700000 -1.190099 -1.190099
180.750000 -1.190099 -1.190099
180.800000 -1.190099 -1.190099
180.850000 -1.190099 -1.190099
180.900000 -1.190099 -1.190099
180.950000 -1.190099 -1.190099
181.000000 -1.190099 -1.190099
181.050000 -1.190099 -1.190099
181.100000 -1.190099 -1.190099
181.150000 -1.190099 -1.190099
181.200000 -1.190099 -1.190099
181.250000 -1.190099 -1.190099
181.300000 -1.190099 -1.190099
181.350000 -1.190099 -1.190099
181.400000 -1.190099 -1.190099
181.450000 -1.190099 -1.190099
181.500000 -1.190099 -1.190099
181.550000 -1.190099 -1.190099
181.600000 -1.190099 -1.190099
181.650000 -1.190099 -1.190099
181.700000 -1.190099 -1.190099
181.750000 -1.190099 -1.190099
181.800000 -1.190099 -1.190099
181.850000 -1.190099 -1.190099
181.900000 -1.190099 -1.190099
181.950000 -1.190099 -1.190099
182.000000 -1.190099 -1.190099
182.050000 -1.190099 -1.190099
182.100000 -1.190099 -1.190099
182.150000 -1.190099 -1.190099
182.200000 -1.190099 -1.190099
182.250000 -1.190099 -1.190099
182.300000 -1.190099 -1.190099
182.350000 -1.190099 -1.190099
182.400000 -1.190099 -1.190099
182.450000 -1.190099 -1.190099
182.500000 -1.190099 -1.190099
182.550000 -1.190099 -1.190099
182.600000 -1.190099 -1.190099
182.650000 -1.190099 -1.190099
182.700000 -1.190099 -1.190099
182.750000 -1.190099 -1.190099
182.800000 -1.190099 -1.190099
182.850000 -1.190099 -1.190099
182.900000 -1.190099 -1.190099
182.950000 -1.190099 -1.190099
183.000000 -1.190099 -1.190099
183.050000 -1.190099 -1.190099
183.100000 -1.190099 -1.190099
183.150000 -1.190099 -1.190099
183.200000 -1.190099 -1.190099
183.250000 -1.190099 -1.190099
183.300000 -1.190099 -1.190099
183.350000 -1.190099 -1.190099
183.400000 -1.190099 -1.190099
183.450000 -1.190099 -1.190099
183.500000 -1.190099 -1.190099
183.550000 -1.190099 -1.190099
183.600000 -1.190099 -1.190099
183.650000 -1.190099 -1.190099
183.700000 -1.190099 -1.190099
183.750000 -1.190099 -1.190099
183.800000 -1.190099 -1.190099
183.850000 -1.190099 -1.190099
183.900000 -1.190099 -1.190099
183.950000 -1.190099 -1.190099
184.000000 -1.190099 -1.190099
184.050000 -1.190099 -1.190099
184.100000 -1.190099 -1.190099
184.150000 -1.190099 -1.190099
184.200000 -1.190099 -1.190099
184.250000 -1.190099 -1.190099
184.300000 -1.190099 -1.190099
184.350000 -1.190099 -1.190099
184.400000 -1.190099 -1.190099
184.450000 -1.190099 -1.190099
184.500000 -1.190099 -1.190099
184.550000 -1.190099 -1.190099
184.600000 -1.190099 -1.190099
184.650000 -1.190099 -1.190099
184.700000 -1.190099 -1.190099
184.750000 -1.190099 -1.190099
184.800000 -1.190099 -1.190099
184.850000 -1.190099 -1.190099
184.900000 -1.190099 -1.190099
184.950000 -1.190099 -1.190099
185.000000 -1.190099 -1.190099
185.050000 -1.190099 -1.190099
185.100000 -1.190099 -1.190099
185.150000 -1.190099 -1.190099
185.200000 -1.190099 -1.190099
185.250000 -1.190099 -1.190099
185.300000 -1.190099 -1.190099
185.350000 -1.190099 -1.190099
185.400000 -1.190099 -1.190099
185.450000 -1.190099 -1.190099
185.500000 -1.190099 -1.190099
185.550000 -1.190099 -1.190099
185.600000 -1.190099 -1.190099
185.650000 -1.190099 -1.190099
185.700000 -1.190099 -1.190099
185.750000 -1.190099 -1.190099
185.800000 -1.190099 -1.190099
185.850000 -1.190099 -1.190099
185.900000 -1.190099 -1.190099
185.950000 -1.190099 -1.190099
186.000000 -1.190099 -1.190099
186.050000 -1.190099 -1.190099
186.100000 -1.190099 -1.190099
186.150000 -1.190099 -1.190099
186.200000 -1.190099 -1.190099
186.250000 -1.190099 -1.190099
186.300000 -1.190099 -1.190099
186.350000 -1.190099 -1.190099
186.400000 -1.190099 -1.190099
186.450000 -1.190099 -1.190099
186.500000 -1.190099 -1.190099
186.550000 -1.190099 -1.190099
186.600000 -1.190099 -1.190099
186.650000 -1.190099 -1.190099
186.700000 -1.190099 -1.190099
186.750000 -1.190099 -1.190099
186.800000 -1.190099 -1.190099
186.850000 -1.190099 -1.190099
