fit_time[ns] Functional_fit[mV] Thermal_fit[mV]
3.600000 37.484840 36.557348
3.650000 37.138746 35.889645
3.700000 36.771469 35.234056
3.750000 36.375853 34.590346
3.800000 35.945797 33.958284
3.850000 35.476389 33.337645
3.900000 34.964017 32.728209
3.950000 34.406440 32.129760
4.000000 33.802834 31.542088
4.050000 33.153791 30.964986
4.100000 32.461295 30.398251
4.150000 31.728652 29.841686
4.200000 30.960396 29.295096
4.250000 30.162167 28.758292
4.300000 29.340549 28.231087
4.350000 28.502905 27.713300
4.400000 27.657176 27.204753
4.450000 26.811683 26.705269
4.500000 25.974904 26.214679
4.550000 25.155269 25.732815
4.600000 24.360937 25.259513
4.650000 23.599597 24.794611
4.700000 22.878276 24.337953
4.750000 22.203162 23.889384
4.800000 21.579457 23.448752
4.850000 21.011247 23.015910
4.900000 20.501408 22.590712
4.950000 20.051537 22.173017
5.000000 19.661921 21.762684
5.050000 19.331531 21.359577
5.100000 19.058058 20.963562
5.150000 18.837975 20.574508
5.200000 18.666628 20.192287
5.250000 18.538358 19.816771
5.300000 18.446644 19.447838
5.350000 18.384271 19.085367
5.400000 18.343508 18.729238
5.450000 18.316300 18.379336
5.500000 18.294472 18.035546
5.550000 18.269924 17.697756
5.600000 18.234834 17.365856
5.650000 18.181841 17.039740
5.700000 18.104231 16.719301
5.750000 17.996087 16.404436
5.800000 17.852434 16.095044
5.850000 17.669349 15.791025
5.900000 17.444053 15.492281
5.950000 17.174964 15.198718
6.000000 16.861730 14.910241
6.050000 16.505224 14.626759
6.100000 16.107512 14.348180
6.150000 15.671791 14.074418
6.200000 15.202300 13.805383
6.250000 14.704204 13.540993
6.300000 14.183457 13.281163
6.350000 13.646647 13.025810
6.400000 13.100829 12.774856
6.450000 12.553337 12.528221
6.500000 12.011606 12.285827
6.550000 11.482978 12.047599
6.600000 10.974526 11.813463
6.650000 10.492870 11.583345
6.700000 10.044021 11.357173
6.750000 9.633231 11.134878
6.800000 9.264867 10.916389
6.850000 8.942305 10.701641
6.900000 8.667857 10.490566
6.950000 8.442714 10.283098
7.000000 8.266926 10.079175
7.050000 8.139405 9.878733
7.100000 8.057960 9.681710
7.150000 8.019358 9.488047
7.200000 8.019410 9.297683
7.250000 8.053079 9.110561
7.300000 8.114611 8.926624
7.350000 8.197680 8.745814
7.400000 8.295550 8.568078
7.450000 8.401242 8.393361
7.500000 8.507707 8.221611
7.550000 8.608004 8.052774
7.600000 8.695465 7.886800
7.650000 8.763861 7.723639
7.700000 8.807549 7.563242
7.750000 8.821611 7.405559
7.800000 8.801967 7.250545
7.850000 8.745469 7.098151
7.900000 8.649971 6.948333
7.950000 8.514376 6.801045
8.000000 8.338653 6.656243
8.050000 8.123831 6.513885
8.100000 7.871960 6.373927
8.150000 7.586059 6.236327
8.200000 7.270026 6.101046
8.250000 6.928540 5.968042
8.300000 6.566934 5.837276
8.350000 6.191058 5.708709
8.400000 5.807130 5.582303
8.450000 5.421579 5.458021
8.500000 5.040879 5.335826
8.550000 4.671393 5.215682
8.600000 4.319208 5.097553
8.650000 3.989992 4.981405
8.700000 3.688850 4.867204
8.750000 3.420202 4.754915
8.800000 3.187680 4.644507
8.850000 2.994039 4.535946
8.900000 2.841095 4.429201
8.950000 2.729686 4.324241
9.000000 2.659660 4.221034
9.050000 2.629880 4.119552
9.100000 2.638262 4.019764
9.150000 2.681833 3.921641
9.200000 2.756808 3.825154
9.250000 2.858691 3.730277
9.300000 2.982390 3.636980
9.350000 3.122347 3.545238
9.400000 3.272680 3.455023
9.450000 3.427328 3.366310
9.500000 3.580204 3.279073
9.550000 3.725346 3.193286
9.600000 3.857062 3.108925
9.650000 3.970069 3.025966
9.700000 4.059624 2.944384
9.750000 4.121630 2.864157
9.800000 4.152740 2.785261
9.850000 4.150429 2.707674
9.900000 4.113055 2.631373
9.950000 4.039888 2.556336
10.000000 3.931124 2.482543
10.050000 3.787872 2.409972
10.100000 3.612121 2.338602
10.150000 3.406680 2.268413
10.200000 3.175108 2.199384
10.250000 2.921614 2.131498
10.300000 2.650949 2.064733
10.350000 2.368288 1.999071
10.400000 2.079091 1.934493
10.450000 1.788970 1.870982
10.500000 1.503546 1.808518
10.550000 1.228310 1.747085
10.600000 0.968488 1.686665
10.650000 0.728909 1.627241
10.700000 0.513892 1.568796
10.750000 0.327138 1.511313
10.800000 0.171646 1.454777
10.850000 0.049642 1.399172
10.900000 -0.037475 1.344482
10.950000 -0.089157 1.290691
11.000000 -0.105717 1.237784
11.050000 -0.088316 1.185747
11.100000 -0.038927 1.134565
11.150000 0.039716 1.084224
11.200000 0.144195 1.034709
11.250000 0.270497 0.986007
11.300000 0.414112 0.938104
11.350000 0.570157 0.890987
11.400000 0.733493 0.844642
11.450000 0.898853 0.799057
11.500000 1.060982 0.754219
11.550000 1.214756 0.710115
11.600000 1.355317 0.666733
11.650000 1.478185 0.624062
11.700000 1.579371 0.582089
11.750000 1.655468 0.540802
11.800000 1.703734 0.500191
11.850000 1.722156 0.460244
11.900000 1.709490 0.420949
11.950000 1.665290 0.382296
12.000000 1.589913 0.344275
12.050000 1.484501 0.306875
12.100000 1.350952 0.270085
12.150000 1.191861 0.233895
12.200000 1.010455 0.198296
12.250000 0.810508 0.163277
12.300000 0.596239 0.128830
12.350000 0.372210 0.094943
12.400000 0.143204 0.061609
12.450000 -0.085892 0.028818
12.500000 -0.310208 -0.003439
12.550000 -0.525017 -0.035171
12.600000 -0.725846 -0.066387
12.650000 -0.908589 -0.097095
12.700000 -1.069607 -0.127304
12.750000 -1.205810 -0.157021
12.800000 -1.314738 -0.186255
12.850000 -1.394611 -0.215014
12.900000 -1.444370 -0.243306
12.950000 -1.463703 -0.271138
13.000000 -1.453041 -0.298518
13.050000 -1.413546 -0.325454
13.100000 -1.347077 -0.351953
13.150000 -1.256137 -0.378022
13.200000 -1.143810 -0.403668
13.250000 -1.013677 -0.428898
13.300000 -0.869725 -0.453720
13.350000 -0.716245 -0.478138
13.400000 -0.557726 -0.502162
13.450000 -0.398738 -0.525796
13.500000 -0.243821 -0.549047
13.550000 -0.097374 -0.571922
13.600000 0.036458 -0.594427
13.650000 0.153880 -0.616568
13.700000 0.251542 -0.638350
13.750000 0.326615 -0.659780
13.800000 0.376862 -0.680864
13.850000 0.400686 -0.701606
13.900000 0.397165 -0.722014
13.950000 0.366071 -0.742092
14.000000 0.307872 -0.761845
14.050000 0.223712 -0.781280
14.100000 0.115378 -0.800401
14.150000 -0.014744 -0.819213
14.200000 -0.163740 -0.837722
14.250000 -0.328238 -0.855932
14.300000 -0.504500 -0.873848
14.350000 -0.688515 -0.891475
14.400000 -0.876099 -0.908818
14.450000 -1.063003 -0.925882
14.500000 -1.245019 -0.942671
14.550000 -1.418083 -0.959189
14.600000 -1.578375 -0.975441
14.650000 -1.722413 -0.991432
14.700000 -1.847136 -1.007165
14.750000 -1.949979 -1.022644
14.800000 -2.028931 -1.037875
14.850000 -2.082583 -1.052861
14.900000 -2.110158 -1.067605
14.950000 -2.111524 -1.082113
15.000000 -2.087197 -1.096387
15.050000 -2.038320 -1.110432
15.100000 -1.966633 -1.124251
15.150000 -1.874421 -1.137848
15.200000 -1.764460 -1.151227
15.250000 -1.639939 -1.164391
15.300000 -1.504383 -1.177343
15.350000 -1.361559 -1.190088
15.400000 -1.215381 -1.202628
15.450000 -1.069815 -1.214967
15.500000 -0.928779 -1.227108
15.550000 -0.796044 -1.239054
15.600000 -0.675145 -1.250809
15.650000 -0.569292 -1.262375
15.700000 -0.481294 -1.273755
15.750000 -0.413493 -1.284954
15.800000 -0.367708 -1.295973
15.850000 -0.345193 -1.306815
15.900000 -0.346613 -1.317484
15.950000 -0.372028 -1.327982
16.000000 -0.420899 -1.338312
16.050000 -0.492104 -1.348476
16.100000 -0.583970 -1.358478
16.150000 -0.694318 -1.368320
16.200000 -0.820525 -1.378004
16.250000 -0.959585 -1.387534
16.300000 -1.108194 -1.396911
16.350000 -1.262829 -1.406138
16.400000 -1.419838 -1.415218
16.450000 -1.575534 -1.424152
16.500000 -1.726285 -1.432944
16.550000 -1.868602 -1.441596
16.600000 -1.999230 -1.450109
16.650000 -2.115222 -1.458486
16.700000 -2.214011 -1.466730
16.750000 -2.293474 -1.474842
16.800000 -2.351978 -1.482824
16.850000 -2.388419 -1.490679
16.900000 -2.402247 -1.498409
16.950000 -2.393472 -1.506016
17.000000 -2.362662 -1.513501
17.050000 -2.310926 -1.520867
17.100000 -2.239882 -1.528115
17.150000 -2.151612 -1.535248
17.200000 -2.048606 -1.542267
17.250000 -1.933703 -1.549174
17.300000 -1.810013 -1.555972
17.350000 -1.680836 -1.562661
17.400000 -1.549588 -1.569243
17.450000 -1.419703 -1.575721
17.500000 -1.294559 -1.582095
17.550000 -1.177388 -1.588369
17.600000 -1.071198 -1.594542
17.650000 -0.978701 -1.600617
17.700000 -0.902248 -1.606595
17.750000 -0.843770 -1.612479
17.800000 -0.804739 -1.618268
17.850000 -0.786130 -1.623966
17.900000 -0.788401 -1.629573
17.950000 -0.811488 -1.635091
18.000000 -0.854806 -1.640521
18.050000 -0.917273 -1.645865
18.100000 -0.997334 -1.651125
18.150000 -1.093008 -1.656300
18.200000 -1.201939 -1.661393
18.250000 -1.321454 -1.666406
18.300000 -1.448638 -1.671339
18.350000 -1.580401 -1.676193
18.400000 -1.713561 -1.680971
18.450000 -1.844922 -1.685673
18.500000 -1.971354 -1.690300
18.550000 -2.089868 -1.694854
18.600000 -2.197693 -1.699335
18.650000 -2.292341 -1.703745
18.700000 -2.371665 -1.708086
18.750000 -2.433913 -1.712358
18.800000 -2.477770 -1.716562
18.850000 -2.502382 -1.720699
18.900000 -2.507379 -1.724771
18.950000 -2.492878 -1.728778
19.000000 -2.459477 -1.732722
19.050000 -2.408239 -1.736603
19.100000 -2.340660 -1.740423
19.150000 -2.258629 -1.744182
19.200000 -2.164379 -1.747882
19.250000 -2.060428 -1.751523
19.300000 -1.949518 -1.755107
19.350000 -1.834541 -1.758634
19.400000 -1.718468 -1.762105
19.450000 -1.604273 -1.765521
19.500000 -1.494865 -1.768883
19.550000 -1.393009 -1.772192
19.600000 -1.301262 -1.775449
19.650000 -1.221911 -1.778654
19.700000 -1.156917 -1.781808
19.750000 -1.107871 -1.784913
19.800000 -1.075953 -1.787969
19.850000 -1.061910 -1.790976
19.900000 -1.066040 -1.793936
19.950000 -1.088183 -1.796849
20.000000 -1.127735 -1.799716
20.050000 -1.183661 -1.802537
20.100000 -1.254527 -1.805314
20.150000 -1.338537 -1.808048
20.200000 -1.433580 -1.810738
20.250000 -1.537285 -1.813386
20.300000 -1.647083 -1.815991
20.350000 -1.760269 -1.818556
20.400000 -1.874074 -1.821080
20.450000 -1.985731 -1.823565
20.500000 -2.092546 -1.826010
20.550000 -2.191963 -1.828417
20.600000 -2.281628 -1.830786
20.650000 -2.359441 -1.833117
20.700000 -2.423616 -1.835412
20.750000 -2.472712 -1.837670
20.800000 -2.505675 -1.839893
20.850000 -2.521858 -1.842081
20.900000 -2.521032 -1.844235
20.950000 -2.503393 -1.846354
21.000000 -2.469551 -1.848440
21.050000 -2.420514 -1.850493
21.100000 -2.357658 -1.852514
21.150000 -2.282694 -1.854503
21.200000 -2.197616 -1.856461
21.250000 -2.104660 -1.858388
21.300000 -2.006234 -1.860284
21.350000 -1.904871 -1.862151
21.400000 -1.803153 -1.863989
21.450000 -1.703653 -1.865797
21.500000 -1.608871 -1.867577
21.550000 -1.521171 -1.869329
21.600000 -1.442722 -1.871053
21.650000 -1.375450 -1.872751
21.700000 -1.320987 -1.874421
21.750000 -1.280635 -1.876066
21.800000 -1.255337 -1.877684
21.850000 -1.245655 -1.879277
21.900000 -1.251756 -1.880845
21.950000 -1.273416 -1.882389
22.000000 -1.310026 -1.883908
22.050000 -1.360608 -1.885403
22.100000 -1.423844 -1.886875
22.150000 -1.498111 -1.888324
22.200000 -1.581523 -1.889749
22.250000 -1.671980 -1.891153
22.300000 -1.767222 -1.892534
22.350000 -1.864884 -1.893894
22.400000 -1.962560 -1.895233
22.450000 -2.057857 -1.896550
22.500000 -2.148461 -1.897847
22.550000 -2.232187 -1.899123
22.600000 -2.307038 -1.900380
22.650000 -2.371250 -1.901616
22.700000 -2.423337 -1.902833
22.750000 -2.462123 -1.904032
22.800000 -2.486767 -1.905211
22.850000 -2.496790 -1.906372
22.900000 -2.492076 -1.907515
22.950000 -2.472875 -1.908639
23.000000 -2.439794 -1.909746
23.050000 -2.393782 -1.910836
23.100000 -2.336100 -1.911909
23.150000 -2.268289 -1.912965
23.200000 -2.192132 -1.914004
23.250000 -2.109604 -1.915027
23.300000 -2.022825 -1.916034
23.350000 -1.934004 -1.917025
23.400000 -1.845386 -1.918001
23.450000 -1.759193 -1.918961
23.500000 -1.677572 -1.919907
23.550000 -1.602539 -1.920837
23.600000 -1.535934 -1.921753
23.650000 -1.479372 -1.922655
23.700000 -1.434210 -1.923543
23.750000 -1.401508 -1.924416
23.800000 -1.382012 -1.925276
23.850000 -1.376133 -1.926123
23.900000 -1.383942 -1.926956
23.950000 -1.405167 -1.927776
24.000000 -1.439207 -1.928584
24.050000 -1.485146 -1.929379
24.100000 -1.541778 -1.930161
24.150000 -1.607642 -1.930931
24.200000 -1.681055 -1.931689
24.250000 -1.760160 -1.932435
24.300000 -1.842972 -1.933170
24.350000 -1.927428 -1.933893
24.400000 -2.011436 -1.934605
24.450000 -2.092933 -1.935305
24.500000 -2.169931 -1.935995
24.550000 -2.240568 -1.936674
24.600000 -2.303152 -1.937342
24.650000 -2.356205 -1.938000
24.700000 -2.398493 -1.938648
24.750000 -2.429059 -1.939285
24.800000 -2.447244 -1.939913
24.850000 -2.452701 -1.940531
24.900000 -2.445400 -1.941139
24.950000 -2.425628 -1.941737
25.000000 -2.393980 -1.942326
25.050000 -2.351341 -1.942906
25.100000 -2.298862 -1.943477
25.150000 -2.237930 -1.944040
25.200000 -2.170131 -1.944593
25.250000 -2.097212 -1.945137
25.300000 -2.021032 -1.945674
25.350000 -1.943520 -1.946201
25.400000 -1.866622 -1.946721
25.450000 -1.792255 -1.947232
25.500000 -1.722260 -1.947736
25.550000 -1.658357 -1.948232
25.600000 -1.602100 -1.948719
25.650000 -1.554844 -1.949200
25.700000 -1.517709 -1.949673
25.750000 -1.491558 -1.950138
25.800000 -1.476972 -1.950596
25.850000 -1.474243 -1.951047
25.900000 -1.483366 -1.951491
25.950000 -1.504041 -1.951928
26.000000 -1.535683 -1.952359
26.050000 -1.577439 -1.952782
26.100000 -1.628212 -1.953199
26.150000 -1.686687 -1.953610
26.200000 -1.751368 -1.954014
26.250000 -1.820615 -1.954411
26.300000 -1.892687 -1.954803
26.350000 -1.965785 -1.955189
26.400000 -2.038096 -1.955568
26.450000 -2.107840 -1.955942
26.500000 -2.173314 -1.956309
26.550000 -2.232932 -1.956671
26.600000 -2.285264 -1.957028
26.650000 -2.329073 -1.957379
26.700000 -2.363341 -1.957724
26.750000 -2.387292 -1.958064
26.800000 -2.400415 -1.958399
26.850000 -2.402470 -1.958728
26.900000 -2.393492 -1.959053
26.950000 -2.373791 -1.959372
27.000000 -2.343940 -1.959686
27.050000 -2.304761 -1.959996
27.100000 -2.257300 -1.960301
27.150000 -2.202801 -1.960601
27.200000 -2.142676 -1.960896
27.250000 -2.078464 -1.961187
27.300000 -2.011796 -1.961473
27.350000 -1.944351 -1.961754
27.400000 -1.877815 -1.962032
27.450000 -1.813842 -1.962305
27.500000 -1.754007 -1.962574
27.550000 -1.699773 -1.962838
27.600000 -1.652453 -1.963099
27.650000 -1.613179 -1.963355
27.700000 -1.582876 -1.963608
27.750000 -1.562237 -1.963856
27.800000 -1.551712 -1.964101
27.850000 -1.551497 -1.964342
27.900000 -1.561530 -1.964579
27.950000 -1.581495 -1.964812
28.000000 -1.610831 -1.965042
28.050000 -1.648748 -1.965268
28.100000 -1.694251 -1.965491
28.150000 -1.746161 -1.965710
28.200000 -1.803150 -1.965926
28.250000 -1.863771 -1.966139
28.300000 -1.926501 -1.966348
28.350000 -1.989771 -1.966554
28.400000 -2.052012 -1.966757
28.450000 -2.111693 -1.966956
28.500000 -2.167354 -1.967153
28.550000 -2.217647 -1.967346
28.600000 -2.261367 -1.967537
28.650000 -2.297480 -1.967724
28.700000 -2.325149 -1.967909
28.750000 -2.343752 -1.968091
28.800000 -2.352895 -1.968270
28.850000 -2.352424 -1.968446
28.900000 -2.342424 -1.968619
28.950000 -2.323213 -1.968790
29.000000 -2.295341 -1.968958
29.050000 -2.259563 -1.969124
29.100000 -2.216829 -1.969286
29.150000 -2.168253 -1.969447
29.200000 -2.115087 -1.969605
29.250000 -2.058686 -1.969760
29.300000 -2.000478 -1.969913
29.350000 -1.941925 -1.970064
29.400000 -1.884486 -1.970212
29.450000 -1.829583 -1.970358
29.500000 -1.778563 -1.970502
29.550000 -1.732671 -1.970644
29.600000 -1.693011 -1.970783
29.650000 -1.660528 -1.970920
29.700000 -1.635980 -1.971055
29.750000 -1.619923 -1.971188
29.800000 -1.612699 -1.971319
29.850000 -1.614428 -1.971448
29.900000 -1.625006 -1.971575
29.950000 -1.644110 -1.971700
30.000000 -1.671209 -1.971823
30.050000 -1.705577 -1.971944
30.100000 -1.746311 -1.972063
30.150000 -1.792358 -1.972181
30.200000 -1.842539 -1.972296
30.250000 -1.895584 -1.972410
30.300000 -1.950157 -1.972522
30.350000 -2.004896 -1.972632
30.400000 -2.058443 -1.972741
30.450000 -2.109480 -1.972848
30.500000 -2.156762 -1.972953
30.550000 -2.199143 -1.973057
30.600000 -2.235609 -1.973159
30.650000 -2.265300 -1.973259
30.700000 -2.287529 -1.973358
30.750000 -2.301801 -1.973455
30.800000 -2.307819 -1.973551
30.850000 -2.305496 -1.973645
30.900000 -2.294951 -1.973738
30.950000 -2.276507 -1.973830
31.000000 -2.250679 -1.973920
31.050000 -2.218165 -1.974008
31.100000 -2.179821 -1.974096
31.150000 -2.136642 -1.974182
31.200000 -2.089737 -1.974266
31.250000 -2.040300 -1.974350
31.300000 -1.989576 -1.974432
31.350000 -1.938837 -1.974512
31.400000 -1.889344 -1.974592
31.450000 -1.842318 -1.974670
31.500000 -1.798913 -1.974747
31.550000 -1.760181 -1.974823
31.600000 -1.727052 -1.974898
31.650000 -1.700310 -1.974971
31.700000 -1.680577 -1.975044
31.750000 -1.668293 -1.975115
31.800000 -1.663712 -1.975185
31.850000 -1.666895 -1.975254
31.900000 -1.677710 -1.975322
31.950000 -1.695834 -1.975389
32.000000 -1.720769 -1.975455
32.050000 -1.751847 -1.975520
32.100000 -1.788256 -1.975584
32.150000 -1.829056 -1.975647
32.200000 -1.873203 -1.975709
32.250000 -1.919580 -1.975770
32.300000 -1.967021 -1.975830
32.350000 -2.014343 -1.975889
32.400000 -2.060372 -1.975947
32.450000 -2.103978 -1.976005
32.500000 -2.144096 -1.976061
32.550000 -2.179756 -1.976117
32.600000 -2.210107 -1.976171
32.650000 -2.234435 -1.976225
32.700000 -2.252179 -1.976278
32.750000 -2.262948 -1.976331
32.800000 -2.266524 -1.976382
32.850000 -2.262873 -1.976433
32.900000 -2.252136 -1.976482
32.950000 -2.234633 -1.976531
33.000000 -2.210848 -1.976580
33.050000 -2.181415 -1.976627
33.100000 -2.147109 -1.976674
33.150000 -2.108815 -1.976720
33.200000 -2.067515 -1.976766
33.250000 -2.024256 -1.976810
33.300000 -1.980127 -1.976854
33.350000 -1.936230 -1.976898
33.400000 -1.893655 -1.976940
33.450000 -1.853450 -1.976982
33.500000 -1.816598 -1.977024
33.550000 -1.783990 -1.977065
33.600000 -1.756406 -1.977105
33.650000 -1.734497 -1.977144
33.700000 -1.718768 -1.977183
33.750000 -1.709564 -1.977221
33.800000 -1.707070 -1.977259
33.850000 -1.711301 -1.977296
33.900000 -1.722103 -1.977333
33.950000 -1.739165 -1.977369
34.000000 -1.762017 -1.977404
34.050000 -1.790054 -1.977439
34.100000 -1.822541 -1.977473
34.150000 -1.858644 -1.977507
34.200000 -1.897439 -1.977540
34.250000 -1.937946 -1.977573
34.300000 -1.979149 -1.977605
34.350000 -2.020019 -1.977637
34.400000 -2.059546 -1.977668
34.450000 -2.096759 -1.977699
34.500000 -2.130751 -1.977729
34.550000 -2.160702 -1.977759
34.600000 -2.185899 -1.977789
34.650000 -2.205750 -1.977818
34.700000 -2.219801 -1.977846
34.750000 -2.227746 -1.977874
34.800000 -2.229431 -1.977902
34.850000 -2.224861 -1.977929
34.900000 -2.214192 -1.977956
34.950000 -2.197736 -1.977982
35.000000 -2.175941 -1.978008
35.050000 -2.149388 -1.978034
35.100000 -2.118771 -1.978059
35.150000 -2.084878 -1.978084
35.200000 -2.048575 -1.978108
35.250000 -2.010781 -1.978132
35.300000 -1.972446 -1.978156
35.350000 -1.934525 -1.978179
35.400000 -1.897958 -1.978202
35.450000 -1.863642 -1.978225
35.500000 -1.832416 -1.978247
35.550000 -1.805031 -1.978269
35.600000 -1.782142 -1.978290
35.650000 -1.764284 -1.978311
35.700000 -1.751866 -1.978332
35.750000 -1.745159 -1.978353
35.800000 -1.744287 -1.978373
35.850000 -1.749233 -1.978393
35.900000 -1.759831 -1.978413
35.950000 -1.775780 -1.978432
36.000000 -1.796645 -1.978451
36.050000 -1.821875 -1.978470
36.100000 -1.850813 -1.978488
36.150000 -1.882713 -1.978507
36.200000 -1.916764 -1.978524
36.250000 -1.952106 -1.978542
36.300000 -1.987852 -1.978559
36.350000 -2.023113 -1.978577
36.400000 -2.057017 -1.978593
36.450000 -2.088733 -1.978610
36.500000 -2.117489 -1.978626
36.550000 -2.142593 -1.978642
36.600000 -2.163449 -1.978658
36.650000 -2.179568 -1.978674
36.700000 -2.190586 -1.978689
36.750000 -2.196266 -1.978704
36.800000 -2.196504 -1.978719
36.850000 -2.191334 -1.978734
36.900000 -2.180923 -1.978748
36.950000 -2.165568 -1.978762
37.000000 -2.145685 -1.978776
37.050000 -2.121800 -1.978790
37.100000 -2.094535 -1.978804
37.150000 -2.064591 -1.978817
37.200000 -2.032731 -1.978830
37.250000 -1.999760 -1.978843
37.300000 -1.966504 -1.978856
37.350000 -1.933792 -1.978868
37.400000 -1.902431 -1.978881
37.450000 -1.873191 -1.978893
37.500000 -1.846783 -1.978905
37.550000 -1.823843 -1.978916
37.600000 -1.804915 -1.978928
37.650000 -1.790442 -1.978939
37.700000 -1.780751 -1.978951
37.750000 -1.776049 -1.978962
37.800000 -1.776417 -1.978973
37.850000 -1.781810 -1.978983
37.900000 -1.792060 -1.978994
37.950000 -1.806877 -1.979004
38.000000 -1.825861 -1.979015
38.050000 -1.848512 -1.979025
38.100000 -1.874241 -1.979035
38.150000 -1.902388 -1.979045
38.200000 -1.932237 -1.979054
38.250000 -1.963036 -1.979064
38.300000 -1.994014 -1.979073
38.350000 -2.024400 -1.979082
38.400000 -2.053444 -1.979091
38.450000 -2.080436 -1.979100
38.500000 -2.104721 -1.979109
38.550000 -2.125714 -1.979118
38.600000 -2.142919 -1.979126
38.650000 -2.155935 -1.979135
38.700000 -2.164469 -1.979143
38.750000 -2.168343 -1.979151
38.800000 -2.167492 -1.979159
38.850000 -2.161972 -1.979167
38.900000 -2.151954 -1.979175
38.950000 -2.137718 -1.979182
39.000000 -2.119648 -1.979190
39.050000 -2.098219 -1.979197
39.100000 -2.073989 -1.979204
39.150000 -2.047578 -1.979212
39.200000 -2.019659 -1.979219
39.250000 -1.990934 -1.979226
39.300000 -1.962123 -1.979233
39.350000 -1.933942 -1.979239
39.400000 -1.907085 -1.979246
39.450000 -1.882212 -1.979253
39.500000 -1.859924 -1.979259
39.550000 -1.840757 -1.979265
39.600000 -1.825165 -1.979272
39.650000 -1.813509 -1.979278
39.700000 -1.806051 -1.979284
39.750000 -1.802946 -1.979290
39.800000 -1.804241 -1.979296
39.850000 -1.809872 -1.979301
39.900000 -1.819669 -1.979307
39.950000 -1.833359 -1.979313
40.000000 -1.850574 -1.979318
40.050000 -1.870863 -1.979324
40.100000 -1.893699 -1.979329
40.150000 -1.918498 -1.979334
40.200000 -1.944631 -1.979340
40.250000 -1.971440 -1.979345
40.300000 -1.998253 -1.979350
40.350000 -2.024407 -1.979355
40.400000 -2.049256 -1.979360
40.450000 -2.072192 -1.979364
40.500000 -2.092662 -1.979369
40.550000 -2.110173 -1.979374
40.600000 -2.124312 -1.979378
40.650000 -2.134753 -1.979383
40.700000 -2.141263 -1.979387
40.750000 -2.143708 -1.979392
40.800000 -2.142057 -1.979396
40.850000 -2.136380 -1.979400
40.900000 -2.126846 -1.979405
40.950000 -2.113720 -1.979409
41.000000 -2.097354 -1.979413
41.050000 -2.078176 -1.979417
41.100000 -2.056683 -1.979421
41.150000 -2.033426 -1.979424
41.200000 -2.008993 -1.979428
41.250000 -1.984001 -1.979432
41.300000 -1.959073 -1.979436
41.350000 -1.934828 -1.979439
41.400000 -1.911862 -1.979443
41.450000 -1.890739 -1.979447
41.500000 -1.871967 -1.979450
41.550000 -1.855997 -1.979453
41.600000 -1.843206 -1.979457
41.650000 -1.833887 -1.979460
41.700000 -1.828249 -1.979463
41.750000 -1.826405 -1.979467
41.800000 -1.828373 -1.979470
41.850000 -1.834077 -1.979473
41.900000 -1.843351 -1.979476
41.950000 -1.855937 -1.979479
42.000000 -1.871501 -1.979482
42.050000 -1.889634 -1.979485
42.100000 -1.909868 -1.979488
42.150000 -1.931687 -1.979491
42.200000 -1.954536 -1.979494
42.250000 -1.977843 -1.979496
42.300000 -2.001025 -1.979499
42.350000 -2.023507 -1.979502
42.400000 -2.044737 -1.979504
42.450000 -2.064196 -1.979507
42.500000 -2.081414 -1.979509
42.550000 -2.095981 -1.979512
42.600000 -2.107552 -1.979514
42.650000 -2.115863 -1.979517
42.700000 -2.120729 -1.979519
42.750000 -2.122056 -1.979522
42.800000 -2.119835 -1.979524
42.850000 -2.114147 -1.979526
42.900000 -2.105158 -1.979529
42.950000 -2.093114 -1.979531
43.000000 -2.078336 -1.979533
43.050000 -2.061211 -1.979535
43.100000 -2.042181 -1.979537
43.150000 -2.021730 -1.979539
43.200000 -2.000378 -1.979541
43.250000 -1.978661 -1.979543
43.300000 -1.957121 -1.979545
43.350000 -1.936290 -1.979547
43.400000 -1.916681 -1.979549
43.450000 -1.898773 -1.979551
43.500000 -1.882997 -1.979553
43.550000 -1.869731 -1.979555
43.600000 -1.859285 -1.979557
43.650000 -1.851899 -1.979559
43.700000 -1.847735 -1.979560
43.750000 -1.846872 -1.979562
43.800000 -1.849310 -1.979564
43.850000 -1.854963 -1.979566
43.900000 -1.863670 -1.979567
43.950000 -1.875191 -1.979569
44.000000 -1.889221 -1.979570
44.050000 -1.905394 -1.979572
44.100000 -1.923293 -1.979574
44.150000 -1.942462 -1.979575
44.200000 -1.962416 -1.979577
44.250000 -1.982654 -1.979578
44.300000 -2.002671 -1.979580
44.350000 -2.021972 -1.979581
44.400000 -2.040084 -1.979582
44.450000 -2.056564 -1.979584
44.500000 -2.071017 -1.979585
44.550000 -2.083097 -1.979587
44.600000 -2.092521 -1.979588
44.650000 -2.099075 -1.979589
44.700000 -2.102617 -1.979591
44.750000 -2.103079 -1.979592
44.800000 -2.100472 -1.979593
44.850000 -2.094883 -1.979594
44.900000 -2.086473 -1.979596
44.950000 -2.075469 -1.979597
45.000000 -2.062163 -1.979598
45.050000 -2.046903 -1.979599
45.100000 -2.030081 -1.979600
45.150000 -2.012125 -1.979601
45.200000 -1.993490 -1.979603
45.250000 -1.974642 -1.979604
45.300000 -1.956053 -1.979605
45.350000 -1.938180 -1.979606
45.400000 -1.921462 -1.979607
45.450000 -1.906307 -1.979608
45.500000 -1.893080 -1.979609
45.550000 -1.882095 -1.979610
45.600000 -1.873608 -1.979611
45.650000 -1.867813 -1.979612
45.700000 -1.864835 -1.979613
45.750000 -1.864727 -1.979614
45.800000 -1.867472 -1.979615
45.850000 -1.872981 -1.979616
45.900000 -1.881098 -1.979616
45.950000 -1.891602 -1.979617
46.000000 -1.904217 -1.979618
46.050000 -1.918613 -1.979619
46.100000 -1.934422 -1.979620
46.150000 -1.951239 -1.979621
46.200000 -1.968642 -1.979622
46.250000 -1.986193 -1.979622
46.300000 -2.003456 -1.979623
46.350000 -2.020005 -1.979624
46.400000 -2.035433 -1.979625
46.450000 -2.049366 -1.979625
46.500000 -2.061469 -1.979626
46.550000 -2.071454 -1.979627
46.600000 -2.079088 -1.979628
46.650000 -2.084199 -1.979628
46.700000 -2.086678 -1.979629
46.750000 -2.086482 -1.979630
46.800000 -2.083635 -1.979630
46.850000 -2.078226 -1.979631
46.900000 -2.070408 -1.979632
46.950000 -2.060393 -1.979632
47.000000 -2.048444 -1.979633
47.050000 -2.034872 -1.979634
47.100000 -2.020026 -1.979634
47.150000 -2.004283 -1.979635
47.200000 -1.988039 -1.979636
47.250000 -1.971703 -1.979636
47.300000 -1.955681 -1.979637
47.350000 -1.940366 -1.979637
47.400000 -1.926136 -1.979638
47.450000 -1.913335 -1.979638
47.500000 -1.902272 -1.979639
47.550000 -1.893207 -1.979640
47.600000 -1.886353 -1.979640
47.650000 -1.881863 -1.979641
47.700000 -1.879832 -1.979641
47.750000 -1.880293 -1.979642
47.800000 -1.883217 -1.979642
47.850000 -1.888514 -1.979643
47.900000 -1.896036 -1.979643
47.950000 -1.905579 -1.979644
48.000000 -1.916893 -1.979644
48.050000 -1.929684 -1.979644
48.100000 -1.943624 -1.979645
48.150000 -1.958359 -1.979645
48.200000 -1.973517 -1.979646
48.250000 -1.988720 -1.979646
48.300000 -2.003589 -1.979647
48.350000 -2.017758 -1.979647
48.400000 -2.030880 -1.979648
48.450000 -2.042637 -1.979648
48.500000 -2.052746 -1.979648
48.550000 -2.060969 -1.979649
48.600000 -2.067115 -1.979649
48.650000 -2.071046 -1.979650
48.700000 -2.072680 -1.979650
48.750000 -2.071993 -1.979650
48.800000 -2.069019 -1.979651
48.850000 -2.063847 -1.979651
48.900000 -2.056623 -1.979651
48.950000 -2.047539 -1.979652
49.000000 -2.036834 -1.979652
49.050000 -2.024786 -1.979652
49.100000 -2.011704 -1.979653
49.150000 -1.997919 -1.979653
49.200000 -1.983779 -1.979653
49.250000 -1.969637 -1.979654
49.300000 -1.955845 -1.979654
49.350000 -1.942742 -1.979654
49.400000 -1.930648 -1.979655
49.450000 -1.919857 -1.979655
49.500000 -1.910627 -1.979655
49.550000 -1.903177 -1.979656
49.600000 -1.897677 -1.979656
49.650000 -1.894253 -1.979656
49.700000 -1.892972 -1.979656
49.750000 -1.893852 -1.979657
49.800000 -1.896856 -1.979657
49.850000 -1.901895 -1.979657
49.900000 -1.908827 -1.979658
49.950000 -1.917468 -1.979658
50.000000 -1.927592 -1.979658
50.050000 -1.938936 -1.979658
50.100000 -1.951210 -1.979659
50.150000 -1.964103 -1.979659
50.200000 -1.977290 -1.979659
50.250000 -1.990442 -1.979659
50.300000 -2.003233 -1.979659
50.350000 -2.015348 -1.979660
50.400000 -2.026490 -1.979660
50.450000 -2.036391 -1.979660
50.500000 -2.044813 -1.979660
50.550000 -2.051557 -1.979661
50.600000 -2.056469 -1.979661
50.650000 -2.059439 -1.979661
50.700000 -2.060408 -1.979661
50.750000 -2.059365 -1.979661
50.800000 -2.056351 -1.979662
50.850000 -2.051455 -1.979662
50.900000 -2.044812 -1.979662
50.950000 -2.036599 -1.979662
51.000000 -2.027031 -1.979662
51.050000 -2.016355 -1.979663
51.100000 -2.004844 -1.979663
51.150000 -1.992791 -1.979663
51.200000 -1.980497 -1.979663
51.250000 -1.968270 -1.979663
51.300000 -1.956413 -1.979663
51.350000 -1.945217 -1.979664
51.400000 -1.934956 -1.979664
51.450000 -1.925878 -1.979664
51.500000 -1.918200 -1.979664
51.550000 -1.912103 -1.979664
51.600000 -1.907725 -1.979664
51.650000 -1.905165 -1.979665
51.700000 -1.904473 -1.979665
51.750000 -1.905651 -1.979665
51.800000 -1.908659 -1.979665
51.850000 -1.913408 -1.979665
51.900000 -1.919768 -1.979665
51.950000 -1.927569 -1.979665
52.000000 -1.936608 -1.979666
52.050000 -1.946651 -1.979666
52.100000 -1.957443 -1.979666
52.150000 -1.968709 -1.979666
52.200000 -1.980167 -1.979666
52.250000 -1.991531 -1.979666
52.300000 -2.002520 -1.979666
52.350000 -2.012863 -1.979667
52.400000 -2.022308 -1.979667
52.450000 -2.030628 -1.979667
52.500000 -2.037623 -1.979667
52.550000 -2.043130 -1.979667
52.600000 -2.047022 -1.979667
52.650000 -2.049215 -1.979667
52.700000 -2.049665 -1.979667
52.750000 -2.048375 -1.979667
52.800000 -2.045389 -1.979668
52.850000 -2.040792 -1.979668
52.900000 -2.034710 -1.979668
52.950000 -2.027306 -1.979668
53.000000 -2.018772 -1.979668
53.050000 -2.009327 -1.979668
53.100000 -1.999214 -1.979668
53.150000 -1.988688 -1.979668
53.200000 -1.978013 -1.979668
53.250000 -1.967454 -1.979668
53.300000 -1.957275 -1.979669
53.350000 -1.947723 -1.979669
53.400000 -1.939033 -1.979669
53.450000 -1.931413 -1.979669
53.500000 -1.925045 -1.979669
53.550000 -1.920079 -1.979669
53.600000 -1.916627 -1.979669
53.650000 -1.914764 -1.979669
53.700000 -1.914527 -1.979669
53.750000 -1.915907 -1.979669
53.800000 -1.918861 -1.979669
53.850000 -1.923303 -1.979669
53.900000 -1.929113 -1.979670
53.950000 -1.936137 -1.979670
54.000000 -1.944191 -1.979670
54.050000 -1.953068 -1.979670
54.100000 -1.962543 -1.979670
54.150000 -1.972375 -1.979670
54.200000 -1.982318 -1.979670
54.250000 -1.992125 -1.979670
54.300000 -2.001553 -1.979670
54.350000 -2.010370 -1.979670
54.400000 -2.018363 -1.979670
54.450000 -2.025338 -1.979670
54.500000 -2.031130 -1.979670
54.550000 -2.035603 -1.979670
54.600000 -2.038656 -1.979671
54.650000 -2.040223 -1.979671
54.700000 -2.040276 -1.979671
54.750000 -2.038824 -1.979671
54.800000 -2.035914 -1.979671
54.850000 -2.031628 -1.979671
54.900000 -2.026083 -1.979671
54.950000 -2.019426 -1.979671
55.000000 -2.011829 -1.979671
55.050000 -2.003488 -1.979671
55.100000 -1.994615 -1.979671
55.150000 -1.985434 -1.979671
55.200000 -1.976176 -1.979671
55.250000 -1.967070 -1.979671
55.300000 -1.958342 -1.979671
55.350000 -1.950206 -1.979671
55.400000 -1.942859 -1.979671
55.450000 -1.936478 -1.979671
55.500000 -1.931214 -1.979671
55.550000 -1.927192 -1.979672
55.600000 -1.924500 -1.979672
55.650000 -1.923197 -1.979672
55.700000 -1.923305 -1.979672
55.750000 -1.924812 -1.979672
55.800000 -1.927670 -1.979672
55.850000 -1.931798 -1.979672
55.900000 -1.937085 -1.979672
55.950000 -1.943392 -1.979672
56.000000 -1.950555 -1.979672
56.050000 -1.958389 -1.979672
56.100000 -1.966696 -1.979672
56.150000 -1.975266 -1.979672
56.200000 -1.983884 -1.979672
56.250000 -1.992336 -1.979672
56.300000 -2.000414 -1.979672
56.350000 -2.007919 -1.979672
56.400000 -2.014670 -1.979672
56.450000 -2.020503 -1.979672
56.500000 -2.025282 -1.979672
56.550000 -2.028895 -1.979672
56.600000 -2.031260 -1.979672
56.650000 -2.032327 -1.979672
56.700000 -2.032080 -1.979672
56.750000 -2.030534 -1.979672
56.800000 -2.027736 -1.979672
56.850000 -2.023765 -1.979673
56.900000 -2.018727 -1.979673
56.950000 -2.012757 -1.979673
57.000000 -2.006007 -1.979673
57.050000 -1.998652 -1.979673
57.100000 -1.990878 -1.979673
57.150000 -1.982881 -1.979673
57.200000 -1.974861 -1.979673
57.250000 -1.967018 -1.979673
57.300000 -1.959545 -1.979673
57.350000 -1.952625 -1.979673
57.400000 -1.946426 -1.979673
57.450000 -1.941096 -1.979673
57.500000 -1.936761 -1.979673
57.550000 -1.933523 -1.979673
57.600000 -1.931453 -1.979673
57.650000 -1.930595 -1.979673
57.700000 -1.930961 -1.979673
57.750000 -1.932534 -1.979673
57.800000 -1.935266 -1.979673
57.850000 -1.939081 -1.979673
57.900000 -1.943876 -1.979673
57.950000 -1.949526 -1.979673
58.000000 -1.955884 -1.979673
58.050000 -1.962787 -1.979673
58.100000 -1.970060 -1.979673
58.150000 -1.977520 -1.979673
58.200000 -1.984980 -1.979673
58.250000 -1.992256 -1.979673
58.300000 -1.999167 -1.979673
58.350000 -2.005545 -1.979673
58.400000 -2.011236 -1.979673
58.450000 -2.016102 -1.979673
58.500000 -2.020030 -1.979673
58.550000 -2.022928 -1.979673
58.600000 -2.024731 -1.979673
58.650000 -2.025403 -1.979673
58.700000 -2.024936 -1.979673
58.750000 -2.023347 -1.979673
58.800000 -2.020687 -1.979673
58.850000 -2.017027 -1.979673
58.900000 -2.012465 -1.979673
58.950000 -2.007123 -1.979673
59.000000 -2.001137 -1.979674
59.050000 -1.994660 -1.979674
59.100000 -1.987858 -1.979674
59.150000 -1.980901 -1.979674
59.200000 -1.973963 -1.979674
59.250000 -1.967217 -1.979674
59.300000 -1.960827 -1.979674
59.350000 -1.954951 -1.979674
59.400000 -1.949731 -1.979674
59.450000 -1.945291 -1.979674
59.500000 -1.941736 -1.979674
59.550000 -1.939148 -1.979674
59.600000 -1.937584 -1.979674
59.650000 -1.937077 -1.979674
59.700000 -1.937630 -1.979674
59.750000 -1.939223 -1.979674
59.800000 -1.941809 -1.979674
59.850000 -1.945317 -1.979674
59.900000 -1.949652 -1.979674
59.950000 -1.954702 -1.979674
60.000000 -1.960335 -1.979674
60.050000 -1.966409 -1.979674
60.100000 -1.972769 -1.979674
60.150000 -1.979254 -1.979674
60.200000 -1.985704 -1.979674
60.250000 -1.991959 -1.979674
60.300000 -1.997864 -1.979674
60.350000 -2.003275 -1.979674
60.400000 -2.008062 -1.979674
60.450000 -2.012110 -1.979674
60.500000 -2.015324 -1.979674
60.550000 -2.017630 -1.979674
60.600000 -2.018978 -1.979674
60.650000 -2.019341 -1.979674
60.700000 -2.018716 -1.979674
60.750000 -2.017126 -1.979674
60.800000 -2.014618 -1.979674
60.850000 -2.011261 -1.979674
60.900000 -2.007143 -1.979674
60.950000 -2.002373 -1.979674
61.000000 -1.997073 -1.979674
61.050000 -1.991379 -1.979674
61.100000 -1.985435 -1.979674
61.150000 -1.979391 -1.979674
61.200000 -1.973396 -1.979674
61.250000 -1.967600 -1.979674
61.300000 -1.962145 -1.979674
61.350000 -1.957164 -1.979674
61.400000 -1.952777 -1.979674
61.450000 -1.949089 -1.979674
61.500000 -1.946187 -1.979674
61.550000 -1.944136 -1.979674
61.600000 -1.942983 -1.979674
61.650000 -1.942748 -1.979674
61.700000 -1.943431 -1.979674
61.750000 -1.945010 -1.979674
61.800000 -1.947437 -1.979674
61.850000 -1.950648 -1.979674
61.900000 -1.954556 -1.979674
61.950000 -1.959060 -1.979674
62.000000 -1.964044 -1.979674
62.050000 -1.969380 -1.979674
62.100000 -1.974933 -1.979674
62.150000 -1.980565 -1.979674
62.200000 -1.986135 -1.979674
62.250000 -1.991504 -1.979674
62.300000 -1.996542 -1.979674
62.350000 -2.001125 -1.979674
62.400000 -2.005143 -1.979674
62.450000 -2.008500 -1.979674
62.500000 -2.011118 -1.979674
62.550000 -2.012936 -1.979674
62.600000 -2.013916 -1.979674
62.650000 -2.014039 -1.979674
62.700000 -2.013308 -1.979674
62.750000 -2.011747 -1.979674
62.800000 -2.009401 -1.979674
62.850000 -2.006334 -1.979674
62.900000 -2.002627 -1.979674
62.950000 -1.998377 -1.979674
63.000000 -1.993693 -1.979674
63.050000 -1.988694 -1.979674
63.100000 -1.983506 -1.979674
63.150000 -1.978261 -1.979674
63.200000 -1.973088 -1.979674
63.250000 -1.968115 -1.979674
63.300000 -1.963465 -1.979674
63.350000 -1.959250 -1.979674
63.400000 -1.955572 -1.979674
63.450000 -1.952519 -1.979674
63.500000 -1.950161 -1.979674
63.550000 -1.948553 -1.979674
63.600000 -1.947729 -1.979674
63.650000 -1.947704 -1.979674
63.700000 -1.948472 -1.979674
63.750000 -1.950010 -1.979674
63.800000 -1.952273 -1.979674
63.850000 -1.955200 -1.979674
63.900000 -1.958714 -1.979674
63.950000 -1.962723 -1.979674
64.000000 -1.967124 -1.979674
64.050000 -1.971806 -1.979674
64.100000 -1.976649 -1.979674
64.150000 -1.981533 -1.979674
64.200000 -1.986337 -1.979674
64.250000 -1.990940 -1.979674
64.300000 -1.995231 -1.979674
64.350000 -1.999106 -1.979674
64.400000 -2.002470 -1.979674
64.450000 -2.005245 -1.979674
64.500000 -2.007365 -1.979674
64.550000 -2.008783 -1.979674
64.600000 -2.009468 -1.979674
64.650000 -2.009409 -1.979674
64.700000 -2.008612 -1.979674
64.750000 -2.007102 -1.979674
64.800000 -2.004922 -1.979674
64.850000 -2.002131 -1.979674
64.900000 -1.998802 -1.979674
64.950000 -1.995022 -1.979674
65.000000 -1.990889 -1.979674
65.050000 -1.986506 -1.979674
65.100000 -1.981985 -1.979674
65.150000 -1.977438 -1.979674
65.200000 -1.972980 -1.979674
65.250000 -1.968720 -1.979674
65.300000 -1.964761 -1.979674
65.350000 -1.961201 -1.979674
65.400000 -1.958125 -1.979674
65.450000 -1.955606 -1.979674
65.500000 -1.953703 -1.979674
65.550000 -1.952457 -1.979674
65.600000 -1.951896 -1.979674
65.650000 -1.952029 -1.979674
65.700000 -1.952847 -1.979674
65.750000 -1.954325 -1.979674
65.800000 -1.956421 -1.979674
65.850000 -1.959080 -1.979674
65.900000 -1.962232 -1.979674
65.950000 -1.965794 -1.979674
66.000000 -1.969675 -1.979674
66.050000 -1.973776 -1.979674
66.100000 -1.977995 -1.979674
66.150000 -1.982226 -1.979674
66.200000 -1.986363 -1.979674
66.250000 -1.990305 -1.979674
66.300000 -1.993954 -1.979674
66.350000 -1.997223 -1.979674
66.400000 -2.000034 -1.979674
66.450000 -2.002319 -1.979674
66.500000 -2.004025 -1.979674
66.550000 -2.005115 -1.979674
66.600000 -2.005566 -1.979674
66.650000 -2.005370 -1.979674
66.700000 -2.004539 -1.979674
66.750000 -2.003095 -1.979674
66.800000 -2.001081 -1.979674
66.850000 -1.998550 -1.979674
66.900000 -1.995568 -1.979674
66.950000 -1.992213 -1.979674
67.000000 -1.988571 -1.979674
67.050000 -1.984734 -1.979674
67.100000 -1.980798 -1.979674
67.150000 -1.976863 -1.979674
67.200000 -1.973025 -1.979674
67.250000 -1.969380 -1.979674
67.300000 -1.966016 -1.979674
67.350000 -1.963015 -1.979674
67.400000 -1.960449 -1.979674
67.450000 -1.958379 -1.979674
67.500000 -1.956852 -1.979674
67.550000 -1.955903 -1.979674
67.600000 -1.955550 -1.979674
67.650000 -1.955799 -1.979674
67.700000 -1.956638 -1.979674
67.750000 -1.958044 -1.979674
67.800000 -1.959976 -1.979674
67.850000 -1.962384 -1.979674
67.900000 -1.965203 -1.979675
67.950000 -1.968362 -1.979675
68.000000 -1.971779 -1.979675
68.050000 -1.975368 -1.979675
68.100000 -1.979038 -1.979675
68.150000 -1.982698 -1.979675
68.200000 -1.986257 -1.979675
68.250000 -1.989627 -1.979675
68.300000 -1.992726 -1.979675
68.350000 -1.995479 -1.979675
68.400000 -1.997820 -1.979675
68.450000 -1.999694 -1.979675
68.500000 -2.001057 -1.979675
68.550000 -2.001880 -1.979675
68.600000 -2.002146 -1.979675
68.650000 -2.001853 -1.979675
68.700000 -2.001010 -1.979675
68.750000 -1.999645 -1.979675
68.800000 -1.997793 -1.979675
68.850000 -1.995504 -1.979675
68.900000 -1.992839 -1.979675
68.950000 -1.989867 -1.979675
69.000000 -1.986662 -1.979675
69.050000 -1.983307 -1.979675
69.100000 -1.979885 -1.979675
69.150000 -1.976483 -1.979675
69.200000 -1.973184 -1.979675
69.250000 -1.970069 -1.979675
69.300000 -1.967216 -1.979675
69.350000 -1.964691 -1.979675
69.400000 -1.962557 -1.979675
69.450000 -1.960863 -1.979675
69.500000 -1.959648 -1.979675
69.550000 -1.958938 -1.979675
69.600000 -1.958749 -1.979675
69.650000 -1.959080 -1.979675
69.700000 -1.959920 -1.979675
69.750000 -1.961245 -1.979675
69.800000 -1.963017 -1.979675
69.850000 -1.965191 -1.979675
69.900000 -1.967708 -1.979675
69.950000 -1.970505 -1.979675
70.000000 -1.973509 -1.979675
70.050000 -1.976645 -1.979675
70.100000 -1.979834 -1.979675
70.150000 -1.982996 -1.979675
70.200000 -1.986053 -1.979675
70.250000 -1.988930 -1.979675
70.300000 -1.991557 -1.979675
70.350000 -1.993870 -1.979675
70.400000 -1.995815 -1.979675
70.450000 -1.997345 -1.979675
70.500000 -1.998425 -1.979675
70.550000 -1.999032 -1.979675
70.600000 -1.999154 -1.979675
70.650000 -1.998792 -1.979675
70.700000 -1.997958 -1.979675
70.750000 -1.996676 -1.979675
70.800000 -1.994981 -1.979675
70.850000 -1.992918 -1.979675
70.900000 -1.990541 -1.979675
70.950000 -1.987912 -1.979675
71.000000 -1.985096 -1.979675
71.050000 -1.982166 -1.979675
71.100000 -1.979195 -1.979675
71.150000 -1.976257 -1.979675
71.200000 -1.973425 -1.979675
71.250000 -1.970768 -1.979675
71.300000 -1.968351 -1.979675
71.350000 -1.966233 -1.979675
71.400000 -1.964463 -1.979675
71.450000 -1.963083 -1.979675
71.500000 -1.962125 -1.979675
71.550000 -1.961610 -1.979675
71.600000 -1.961546 -1.979675
71.650000 -1.961933 -1.979675
71.700000 -1.962758 -1.979675
71.750000 -1.963997 -1.979675
71.800000 -1.965616 -1.979675
71.850000 -1.967572 -1.979675
71.900000 -1.969816 -1.979675
71.950000 -1.972287 -1.979675
72.000000 -1.974925 -1.979675
72.050000 -1.977662 -1.979675
72.100000 -1.980429 -1.979675
72.150000 -1.983158 -1.979675
72.200000 -1.985780 -1.979675
72.250000 -1.988233 -1.979675
72.300000 -1.990456 -1.979675
72.350000 -1.992395 -1.979675
72.400000 -1.994005 -1.979675
72.450000 -1.995247 -1.979675
72.500000 -1.996094 -1.979675
72.550000 -1.996528 -1.979675
72.600000 -1.996540 -1.979675
72.650000 -1.996133 -1.979675
72.700000 -1.995321 -1.979675
72.750000 -1.994126 -1.979675
72.800000 -1.992580 -1.979675
72.850000 -1.990726 -1.979675
72.900000 -1.988610 -1.979675
72.950000 -1.986288 -1.979675
73.000000 -1.983818 -1.979675
73.050000 -1.981262 -1.979675
73.100000 -1.978686 -1.979675
73.150000 -1.976152 -1.979675
73.200000 -1.973724 -1.979675
73.250000 -1.971461 -1.979675
73.300000 -1.969418 -1.979675
73.350000 -1.967644 -1.979675
73.400000 -1.966181 -1.979675
73.450000 -1.965063 -1.979675
73.500000 -1.964317 -1.979675
73.550000 -1.963957 -1.979675
73.600000 -1.963989 -1.979675
73.650000 -1.964411 -1.979675
73.700000 -1.965209 -1.979675
73.750000 -1.966360 -1.979675
73.800000 -1.967833 -1.979675
73.850000 -1.969590 -1.979675
73.900000 -1.971584 -1.979675
73.950000 -1.973766 -1.979675
74.000000 -1.976078 -1.979675
74.050000 -1.978463 -1.979675
74.100000 -1.980862 -1.979675
74.150000 -1.983213 -1.979675
74.200000 -1.985461 -1.979675
74.250000 -1.987548 -1.979675
74.300000 -1.989425 -1.979675
74.350000 -1.991047 -1.979675
74.400000 -1.992375 -1.979675
74.450000 -1.993378 -1.979675
74.500000 -1.994034 -1.979675
74.550000 -1.994329 -1.979675
74.600000 -1.994258 -1.979675
74.650000 -1.993825 -1.979675
74.700000 -1.993045 -1.979675
74.750000 -1.991938 -1.979675
74.800000 -1.990534 -1.979675
74.850000 -1.988871 -1.979675
74.900000 -1.986991 -1.979675
74.950000 -1.984943 -1.979675
75.000000 -1.982779 -1.979675
75.050000 -1.980553 -1.979675
75.100000 -1.978322 -1.979675
75.150000 -1.976139 -1.979675
75.200000 -1.974060 -1.979675
75.250000 -1.972136 -1.979675
75.300000 -1.970412 -1.979675
75.350000 -1.968930 -1.979675
75.400000 -1.967726 -1.979675
75.450000 -1.966826 -1.979675
75.500000 -1.966252 -1.979675
75.550000 -1.966016 -1.979675
75.600000 -1.966120 -1.979675
75.650000 -1.966560 -1.979675
75.700000 -1.967322 -1.979675
75.750000 -1.968385 -1.979675
75.800000 -1.969721 -1.979675
75.850000 -1.971295 -1.979675
75.900000 -1.973066 -1.979675
75.950000 -1.974988 -1.979675
76.000000 -1.977012 -1.979675
76.050000 -1.979088 -1.979675
76.100000 -1.981164 -1.979675
76.150000 -1.983189 -1.979675
76.200000 -1.985111 -1.979675
76.250000 -1.986885 -1.979675
76.300000 -1.988468 -1.979675
76.350000 -1.989820 -1.979675
76.400000 -1.990912 -1.979675
76.450000 -1.991716 -1.979675
76.500000 -1.992216 -1.979675
76.550000 -1.992401 -1.979675
76.600000 -1.992269 -1.979675
76.650000 -1.991825 -1.979675
76.700000 -1.991083 -1.979675
76.750000 -1.990063 -1.979675
76.800000 -1.988792 -1.979675
76.850000 -1.987304 -1.979675
76.900000 -1.985637 -1.979675
76.950000 -1.983834 -1.979675
77.000000 -1.981940 -1.979675
77.050000 -1.980004 -1.979675
77.100000 -1.978073 -1.979675
77.150000 -1.976196 -1.979675
77.200000 -1.974419 -1.979675
77.250000 -1.972785 -1.979675
77.300000 -1.971333 -1.979675
77.350000 -1.970099 -1.979675
77.400000 -1.969111 -1.979675
77.450000 -1.968393 -1.979675
77.500000 -1.967959 -1.979675
77.550000 -1.967820 -1.979675
77.600000 -1.967976 -1.979675
77.650000 -1.968421 -1.979675
77.700000 -1.969142 -1.979675
77.750000 -1.970120 -1.979675
77.800000 -1.971328 -1.979675
77.850000 -1.972734 -1.979675
77.900000 -1.974303 -1.979675
77.950000 -1.975994 -1.979675
78.000000 -1.977764 -1.979675
78.050000 -1.979569 -1.979675
78.100000 -1.981364 -1.979675
78.150000 -1.983104 -1.979675
78.200000 -1.984747 -1.979675
78.250000 -1.986252 -1.979675
78.300000 -1.987583 -1.979675
78.350000 -1.988708 -1.979675
78.400000 -1.989601 -1.979675
78.450000 -1.990241 -1.979675
78.500000 -1.990614 -1.979675
78.550000 -1.990714 -1.979675
78.600000 -1.990538 -1.979675
78.650000 -1.990094 -1.979675
78.700000 -1.989394 -1.979675
78.750000 -1.988459 -1.979675
78.800000 -1.987311 -1.979675
78.850000 -1.985983 -1.979675
78.900000 -1.984507 -1.979675
78.950000 -1.982922 -1.979675
79.000000 -1.981267 -1.979675
79.050000 -1.979585 -1.979675
79.100000 -1.977917 -1.979675
79.150000 -1.976305 -1.979675
79.200000 -1.974787 -1.979675
79.250000 -1.973402 -1.979675
79.300000 -1.972182 -1.979675
79.350000 -1.971157 -1.979675
79.400000 -1.970351 -1.979675
79.450000 -1.969782 -1.979675
79.500000 -1.969462 -1.979675
79.550000 -1.969398 -1.979675
79.600000 -1.969590 -1.979675
79.650000 -1.970031 -1.979675
79.700000 -1.970708 -1.979675
79.750000 -1.971603 -1.979675
79.800000 -1.972692 -1.979675
79.850000 -1.973946 -1.979675
79.900000 -1.975334 -1.979675
79.950000 -1.976819 -1.979675
80.000000 -1.978365 -1.979675
80.050000 -1.979932 -1.979675
80.100000 -1.981482 -1.979675
80.150000 -1.982976 -1.979675
80.200000 -1.984377 -1.979675
80.250000 -1.985652 -1.979675
80.300000 -1.986769 -1.979675
80.350000 -1.987702 -1.979675
80.400000 -1.988429 -1.979675
80.450000 -1.988934 -1.979675
80.500000 -1.989205 -1.979675
80.550000 -1.989238 -1.979675
80.600000 -1.989033 -1.979675
80.650000 -1.988597 -1.979675
80.700000 -1.987943 -1.979675
80.750000 -1.987088 -1.979675
80.800000 -1.986055 -1.979675
80.850000 -1.984872 -1.979675
80.900000 -1.983567 -1.979675
80.950000 -1.982176 -1.979675
81.000000 -1.980732 -1.979675
81.050000 -1.979272 -1.979675
81.100000 -1.977833 -1.979675
81.150000 -1.976449 -1.979675
81.200000 -1.975156 -1.979675
81.250000 -1.973984 -1.979675
81.300000 -1.972961 -1.979675
81.350000 -1.972112 -1.979675
81.400000 -1.971458 -1.979675
81.450000 -1.971011 -1.979675
81.500000 -1.970783 -1.979675
81.550000 -1.970778 -1.979675
81.600000 -1.970993 -1.979675
81.650000 -1.971422 -1.979675
81.700000 -1.972053 -1.979675
81.750000 -1.972869 -1.979675
81.800000 -1.973848 -1.979675
81.850000 -1.974964 -1.979675
81.900000 -1.976190 -1.979675
81.950000 -1.977493 -1.979675
82.000000 -1.978841 -1.979675
82.050000 -1.980200 -1.979675
82.100000 -1.981537 -1.979675
82.150000 -1.982818 -1.979675
82.200000 -1.984011 -1.979675
82.250000 -1.985089 -1.979675
82.300000 -1.986024 -1.979675
82.350000 -1.986795 -1.979675
82.400000 -1.987384 -1.979675
82.450000 -1.987777 -1.979675
82.500000 -1.987967 -1.979675
82.550000 -1.987949 -1.979675
82.600000 -1.987726 -1.979675
82.650000 -1.987304 -1.979675
82.700000 -1.986697 -1.979675
82.750000 -1.985919 -1.979675
82.800000 -1.984992 -1.979675
82.850000 -1.983939 -1.979675
82.900000 -1.982788 -1.979675
82.950000 -1.981568 -1.979675
83.000000 -1.980310 -1.979675
83.050000 -1.979044 -1.979675
83.100000 -1.977804 -1.979675
83.150000 -1.976619 -1.979675
83.200000 -1.975518 -1.979675
83.250000 -1.974528 -1.979675
83.300000 -1.973673 -1.979675
83.350000 -1.972973 -1.979675
83.400000 -1.972444 -1.979675
83.450000 -1.972098 -1.979675
83.500000 -1.971943 -1.979675
83.550000 -1.971982 -1.979675
83.600000 -1.972210 -1.979675
83.650000 -1.972623 -1.979675
83.700000 -1.973207 -1.979675
83.750000 -1.973948 -1.979675
83.800000 -1.974826 -1.979675
83.850000 -1.975818 -1.979675
83.900000 -1.976899 -1.979675
83.950000 -1.978040 -1.979675
84.000000 -1.979215 -1.979675
84.050000 -1.980392 -1.979675
84.100000 -1.981543 -1.979675
84.150000 -1.982640 -1.979675
84.200000 -1.983655 -1.979675
84.250000 -1.984564 -1.979675
84.300000 -1.985345 -1.979675
84.350000 -1.985980 -1.979675
84.400000 -1.986454 -1.979675
84.450000 -1.986756 -1.979675
84.500000 -1.986880 -1.979675
84.550000 -1.986825 -1.979675
84.600000 -1.986592 -1.979675
84.650000 -1.986190 -1.979675
84.700000 -1.985628 -1.979675
84.750000 -1.984923 -1.979675
84.800000 -1.984092 -1.979675
84.850000 -1.983158 -1.979675
84.900000 -1.982144 -1.979675
84.950000 -1.981076 -1.979675
85.000000 -1.979980 -1.979675
85.050000 -1.978885 -1.979675
85.100000 -1.977817 -1.979675
85.150000 -1.976803 -1.979675
85.200000 -1.975868 -1.979675
85.250000 -1.975033 -1.979675
85.300000 -1.974320 -1.979675
85.350000 -1.973745 -1.979675
85.400000 -1.973321 -1.979675
85.450000 -1.973058 -1.979675
85.500000 -1.972961 -1.979675
85.550000 -1.973031 -1.979675
85.600000 -1.973266 -1.979675
85.650000 -1.973658 -1.979675
85.700000 -1.974196 -1.979675
85.750000 -1.974867 -1.979675
85.800000 -1.975652 -1.979675
85.850000 -1.976532 -1.979675
85.900000 -1.977483 -1.979675
85.950000 -1.978482 -1.979675
86.000000 -1.979504 -1.979675
86.050000 -1.980522 -1.979675
86.100000 -1.981513 -1.979675
86.150000 -1.982450 -1.979675
86.200000 -1.983312 -1.979675
86.250000 -1.984077 -1.979675
86.300000 -1.984728 -1.979675
86.350000 -1.985249 -1.979675
86.400000 -1.985627 -1.979675
86.450000 -1.985855 -1.979675
86.500000 -1.985928 -1.979675
86.550000 -1.985846 -1.979675
86.600000 -1.985610 -1.979675
86.650000 -1.985229 -1.979675
86.700000 -1.984713 -1.979675
86.750000 -1.984076 -1.979675
86.800000 -1.983333 -1.979675
86.850000 -1.982506 -1.979675
86.900000 -1.981613 -1.979675
86.950000 -1.980679 -1.979675
87.000000 -1.979727 -1.979675
87.050000 -1.978780 -1.979675
87.100000 -1.977863 -1.979675
87.150000 -1.976996 -1.979675
87.200000 -1.976203 -1.979675
87.250000 -1.975501 -1.979675
87.300000 -1.974907 -1.979675
87.350000 -1.974437 -1.979675
87.400000 -1.974099 -1.979675
87.450000 -1.973903 -1.979675
87.500000 -1.973851 -1.979675
87.550000 -1.973944 -1.979675
87.600000 -1.974179 -1.979675
87.650000 -1.974548 -1.979675
87.700000 -1.975042 -1.979675
87.750000 -1.975648 -1.979675
87.800000 -1.976349 -1.979675
87.850000 -1.977128 -1.979675
87.900000 -1.977964 -1.979675
87.950000 -1.978837 -1.979675
88.000000 -1.979724 -1.979675
88.050000 -1.980604 -1.979675
88.100000 -1.981455 -1.979675
88.150000 -1.982255 -1.979675
88.200000 -1.982986 -1.979675
88.250000 -1.983629 -1.979675
88.300000 -1.984169 -1.979675
88.350000 -1.984594 -1.979675
88.400000 -1.984894 -1.979675
88.450000 -1.985062 -1.979675
88.500000 -1.985096 -1.979675
88.550000 -1.984994 -1.979675
88.600000 -1.984761 -1.979675
88.650000 -1.984403 -1.979675
88.700000 -1.983931 -1.979675
88.750000 -1.983356 -1.979675
88.800000 -1.982694 -1.979675
88.850000 -1.981962 -1.979675
88.900000 -1.981178 -1.979675
88.950000 -1.980363 -1.979675
89.000000 -1.979536 -1.979675
89.050000 -1.978718 -1.979675
89.100000 -1.977931 -1.979675
89.150000 -1.977191 -1.979675
89.200000 -1.976519 -1.979675
89.250000 -1.975930 -1.979675
89.300000 -1.975438 -1.979675
89.350000 -1.975055 -1.979675
89.400000 -1.974789 -1.979675
89.450000 -1.974647 -1.979675
89.500000 -1.974630 -1.979675
89.550000 -1.974738 -1.979675
89.600000 -1.974969 -1.979675
89.650000 -1.975314 -1.979675
89.700000 -1.975765 -1.979675
89.750000 -1.976310 -1.979675
89.800000 -1.976935 -1.979675
89.850000 -1.977623 -1.979675
89.900000 -1.978357 -1.979675
89.950000 -1.979119 -1.979675
90.000000 -1.979889 -1.979675
90.050000 -1.980649 -1.979675
90.100000 -1.981378 -1.979675
90.150000 -1.982061 -1.979675
90.200000 -1.982679 -1.979675
90.250000 -1.983218 -1.979675
90.300000 -1.983665 -1.979675
90.350000 -1.984010 -1.979675
90.400000 -1.984245 -1.979675
90.450000 -1.984365 -1.979675
90.500000 -1.984368 -1.979675
90.550000 -1.984254 -1.979675
90.600000 -1.984027 -1.979675
90.650000 -1.983694 -1.979675
90.700000 -1.983263 -1.979675
90.750000 -1.982747 -1.979675
90.800000 -1.982157 -1.979675
90.850000 -1.981511 -1.979675
90.900000 -1.980823 -1.979675
90.950000 -1.980112 -1.979675
91.000000 -1.979395 -1.979675
91.050000 -1.978690 -1.979675
91.100000 -1.978014 -1.979675
91.150000 -1.977385 -1.979675
91.200000 -1.976817 -1.979675
91.250000 -1.976324 -1.979675
91.300000 -1.975917 -1.979675
91.350000 -1.975607 -1.979675
91.400000 -1.975400 -1.979675
91.450000 -1.975300 -1.979675
91.500000 -1.975310 -1.979675
91.550000 -1.975428 -1.979675
91.600000 -1.975650 -1.979675
91.650000 -1.975971 -1.979675
91.700000 -1.976382 -1.979675
91.750000 -1.976871 -1.979675
91.800000 -1.977427 -1.979675
91.850000 -1.978034 -1.979675
91.900000 -1.978678 -1.979675
91.950000 -1.979342 -1.979675
92.000000 -1.980009 -1.979675
92.050000 -1.980663 -1.979675
92.100000 -1.981289 -1.979675
92.150000 -1.981869 -1.979675
92.200000 -1.982391 -1.979675
92.250000 -1.982842 -1.979675
92.300000 -1.983211 -1.979675
92.350000 -1.983490 -1.979675
92.400000 -1.983672 -1.979675
92.450000 -1.983753 -1.979675
92.500000 -1.983733 -1.979675
92.550000 -1.983612 -1.979675
92.600000 -1.983394 -1.979675
92.650000 -1.983085 -1.979675
92.700000 -1.982694 -1.979675
92.750000 -1.982231 -1.979675
92.800000 -1.981707 -1.979675
92.850000 -1.981137 -1.979675
92.900000 -1.980535 -1.979675
92.950000 -1.979915 -1.979675
93.000000 -1.979294 -1.979675
93.050000 -1.978687 -1.979675
93.100000 -1.978109 -1.979675
93.150000 -1.977573 -1.979675
93.200000 -1.977094 -1.979675
93.250000 -1.976682 -1.979675
93.300000 -1.976347 -1.979675
93.350000 -1.976098 -1.979675
93.400000 -1.975938 -1.979675
93.450000 -1.975873 -1.979675
93.500000 -1.975903 -1.979675
93.550000 -1.976026 -1.979675
93.600000 -1.976238 -1.979675
93.650000 -1.976535 -1.979675
93.700000 -1.976907 -1.979675
93.750000 -1.977345 -1.979675
93.800000 -1.977839 -1.979675
93.850000 -1.978374 -1.979675
93.900000 -1.978937 -1.979675
93.950000 -1.979515 -1.979675
94.000000 -1.980093 -1.979675
94.050000 -1.980656 -1.979675
94.100000 -1.981191 -1.979675
94.150000 -1.981684 -1.979675
94.200000 -1.982124 -1.979675
94.250000 -1.982500 -1.979675
94.300000 -1.982804 -1.979675
94.350000 -1.983027 -1.979675
94.400000 -1.983166 -1.979675
94.450000 -1.983217 -1.979675
94.500000 -1.983179 -1.979675
94.550000 -1.983055 -1.979675
94.600000 -1.982848 -1.979675
94.650000 -1.982564 -1.979675
94.700000 -1.982210 -1.979675
94.750000 -1.981795 -1.979675
94.800000 -1.981331 -1.979675
94.850000 -1.980829 -1.979675
94.900000 -1.980302 -1.979675
94.950000 -1.979763 -1.979675
95.000000 -1.979226 -1.979675
95.050000 -1.978703 -1.979675
95.100000 -1.978209 -1.979675
95.150000 -1.977754 -1.979675
95.200000 -1.977351 -1.979675
95.250000 -1.977008 -1.979675
95.300000 -1.976733 -1.979675
95.350000 -1.976534 -1.979675
95.400000 -1.976414 -1.979675
95.450000 -1.976375 -1.979675
95.500000 -1.976419 -1.979675
95.550000 -1.976544 -1.979675
95.600000 -1.976745 -1.979675
95.650000 -1.977017 -1.979675
95.700000 -1.977354 -1.979675
95.750000 -1.977746 -1.979675
95.800000 -1.978182 -1.979675
95.850000 -1.978653 -1.979675
95.900000 -1.979146 -1.979675
95.950000 -1.979648 -1.979675
96.000000 -1.980148 -1.979675
96.050000 -1.980632 -1.979675
96.100000 -1.981089 -1.979675
96.150000 -1.981507 -1.979675
96.200000 -1.981878 -1.979675
96.250000 -1.982190 -1.979675
96.300000 -1.982438 -1.979675
96.350000 -1.982616 -1.979675
96.400000 -1.982720 -1.979675
96.450000 -1.982747 -1.979675
96.500000 -1.982697 -1.979675
96.550000 -1.982573 -1.979675
96.600000 -1.982378 -1.979675
96.650000 -1.982117 -1.979675
96.700000 -1.981798 -1.979675
96.750000 -1.981428 -1.979675
96.800000 -1.981017 -1.979675
96.850000 -1.980575 -1.979675
96.900000 -1.980115 -1.979675
96.950000 -1.979647 -1.979675
97.000000 -1.979183 -1.979675
97.050000 -1.978734 -1.979675
97.100000 -1.978312 -1.979675
97.150000 -1.977927 -1.979675
97.200000 -1.977587 -1.979675
97.250000 -1.977303 -1.979675
97.300000 -1.977079 -1.979675
97.350000 -1.976921 -1.979675
97.400000 -1.976832 -1.979675
97.450000 -1.976815 -1.979675
97.500000 -1.976869 -1.979675
97.550000 -1.976992 -1.979675
97.600000 -1.977181 -1.979675
97.650000 -1.977430 -1.979675
97.700000 -1.977733 -1.979675
97.750000 -1.978083 -1.979675
97.800000 -1.978469 -1.979675
97.850000 -1.978883 -1.979675
97.900000 -1.979313 -1.979675
97.950000 -1.979749 -1.979675
98.000000 -1.980180 -1.979675
98.050000 -1.980596 -1.979675
98.100000 -1.980986 -1.979675
98.150000 -1.981340 -1.979675
98.200000 -1.981651 -1.979675
98.250000 -1.981910 -1.979675
98.300000 -1.982112 -1.979675
98.350000 -1.982252 -1.979675
98.400000 -1.982327 -1.979675
98.450000 -1.982336 -1.979675
98.500000 -1.982278 -1.979675
98.550000 -1.982157 -1.979675
98.600000 -1.981974 -1.979675
98.650000 -1.981736 -1.979675
98.700000 -1.981448 -1.979675
98.750000 -1.981119 -1.979675
98.800000 -1.980756 -1.979675
98.850000 -1.980368 -1.979675
98.900000 -1.979966 -1.979675
98.950000 -1.979560 -1.979675
99.000000 -1.979160 -1.979675
99.050000 -1.978775 -1.979675
99.100000 -1.978415 -1.979675
99.150000 -1.978089 -1.979675
99.200000 -1.977805 -1.979675
99.250000 -1.977569 -1.979675
99.300000 -1.977387 -1.979675
99.350000 -1.977263 -1.979675
99.400000 -1.977200 -1.979675
99.450000 -1.977199 -1.979675
99.500000 -1.977259 -1.979675
99.550000 -1.977379 -1.979675
99.600000 -1.977555 -1.979675
99.650000 -1.977782 -1.979675
99.700000 -1.978055 -1.979675
99.750000 -1.978366 -1.979675
99.800000 -1.978707 -1.979675
99.850000 -1.979070 -1.979675
99.900000 -1.979445 -1.979675
99.950000 -1.979823 -1.979675
100.000000 -1.980195 -1.979675
100.050000 -1.980551 -1.979675
100.100000 -1.980883 -1.979675
100.150000 -1.981183 -1.979675
100.200000 -1.981443 -1.979675
100.250000 -1.981657 -1.979675
100.300000 -1.981821 -1.979675
100.350000 -1.981930 -1.979675
100.400000 -1.981982 -1.979675
100.450000 -1.981977 -1.979675
100.500000 -1.981915 -1.979675
100.550000 -1.981797 -1.979675
100.600000 -1.981628 -1.979675
100.650000 -1.981411 -1.979675
100.700000 -1.981153 -1.979675
100.750000 -1.980859 -1.979675
100.800000 -1.980539 -1.979675
100.850000 -1.980199 -1.979675
100.900000 -1.979849 -1.979675
100.950000 -1.979497 -1.979675
101.000000 -1.979152 -1.979675
101.050000 -1.978822 -1.979675
101.100000 -1.978516 -1.979675
101.150000 -1.978241 -1.979675
101.200000 -1.978003 -1.979675
101.250000 -1.977808 -1.979675
101.300000 -1.977661 -1.979675
101.350000 -1.977566 -1.979675
101.400000 -1.977523 -1.979675
101.450000 -1.977534 -1.979675
101.500000 -1.977598 -1.979675
101.550000 -1.977713 -1.979675
101.600000 -1.977876 -1.979675
101.650000 -1.978082 -1.979675
101.700000 -1.978327 -1.979675
101.750000 -1.978603 -1.979675
101.800000 -1.978904 -1.979675
101.850000 -1.979222 -1.979675
101.900000 -1.979549 -1.979675
101.950000 -1.979876 -1.979675
102.000000 -1.980197 -1.979675
102.050000 -1.980502 -1.979675
102.100000 -1.980784 -1.979675
102.150000 -1.981037 -1.979675
102.200000 -1.981254 -1.979675
102.250000 -1.981430 -1.979675
102.300000 -1.981562 -1.979675
102.350000 -1.981646 -1.979675
102.400000 -1.981680 -1.979675
102.450000 -1.981664 -1.979675
102.500000 -1.981599 -1.979675
102.550000 -1.981487 -1.979675
102.600000 -1.981330 -1.979675
102.650000 -1.981134 -1.979675
102.700000 -1.980902 -1.979675
102.750000 -1.980642 -1.979675
102.800000 -1.980360 -1.979675
102.850000 -1.980063 -1.979675
102.900000 -1.979758 -1.979675
102.950000 -1.979453 -1.979675
103.000000 -1.979156 -1.979675
103.050000 -1.978874 -1.979675
103.100000 -1.978614 -1.979675
103.150000 -1.978382 -1.979675
103.200000 -1.978183 -1.979675
103.250000 -1.978023 -1.979675
103.300000 -1.977906 -1.979675
103.350000 -1.977833 -1.979675
103.400000 -1.977806 -1.979675
103.450000 -1.977826 -1.979675
103.500000 -1.977891 -1.979675
103.550000 -1.978001 -1.979675
103.600000 -1.978151 -1.979675
103.650000 -1.978338 -1.979675
103.700000 -1.978557 -1.979675
103.750000 -1.978802 -1.979675
103.800000 -1.979066 -1.979675
103.850000 -1.979345 -1.979675
103.900000 -1.979629 -1.979675
103.950000 -1.979912 -1.979675
104.000000 -1.980188 -1.979675
104.050000 -1.980449 -1.979675
104.100000 -1.980688 -1.979675
104.150000 -1.980901 -1.979675
104.200000 -1.981082 -1.979675
104.250000 -1.981227 -1.979675
104.300000 -1.981332 -1.979675
104.350000 -1.981395 -1.979675
104.400000 -1.981415 -1.979675
104.450000 -1.981392 -1.979675
104.500000 -1.981326 -1.979675
104.550000 -1.981220 -1.979675
104.600000 -1.981076 -1.979675
104.650000 -1.980898 -1.979675
104.700000 -1.980691 -1.979675
104.750000 -1.980461 -1.979675
104.800000 -1.980213 -1.979675
104.850000 -1.979953 -1.979675
104.900000 -1.979688 -1.979675
104.950000 -1.979424 -1.979675
105.000000 -1.979169 -1.979675
105.050000 -1.978928 -1.979675
105.100000 -1.978707 -1.979675
105.150000 -1.978512 -1.979675
105.200000 -1.978347 -1.979675
105.250000 -1.978216 -1.979675
105.300000 -1.978123 -1.979675
105.350000 -1.978068 -1.979675
105.400000 -1.978054 -1.979675
105.450000 -1.978080 -1.979675
105.500000 -1.978146 -1.979675
105.550000 -1.978249 -1.979675
105.600000 -1.978386 -1.979675
105.650000 -1.978555 -1.979675
105.700000 -1.978750 -1.979675
105.750000 -1.978967 -1.979675
105.800000 -1.979200 -1.979675
105.850000 -1.979443 -1.979675
105.900000 -1.979690 -1.979675
105.950000 -1.979935 -1.979675
106.000000 -1.980172 -1.979675
106.050000 -1.980394 -1.979675
106.100000 -1.980597 -1.979675
106.150000 -1.980776 -1.979675
106.200000 -1.980926 -1.979675
106.250000 -1.981044 -1.979675
106.300000 -1.981128 -1.979675
106.350000 -1.981174 -1.979675
106.400000 -1.981183 -1.979675
106.450000 -1.981155 -1.979675
106.500000 -1.981090 -1.979675
106.550000 -1.980990 -1.979675
106.600000 -1.980858 -1.979675
106.650000 -1.980698 -1.979675
106.700000 -1.980514 -1.979675
106.750000 -1.980310 -1.979675
106.800000 -1.980092 -1.979675
106.850000 -1.979865 -1.979675
106.900000 -1.979635 -1.979675
106.950000 -1.979407 -1.979675
107.000000 -1.979188 -1.979675
107.050000 -1.978982 -1.979675
107.100000 -1.978795 -1.979675
107.150000 -1.978632 -1.979675
107.200000 -1.978495 -1.979675
107.250000 -1.978388 -1.979675
107.300000 -1.978315 -1.979675
107.350000 -1.978275 -1.979675
107.400000 -1.978271 -1.979675
107.450000 -1.978301 -1.979675
107.500000 -1.978365 -1.979675
107.550000 -1.978462 -1.979675
107.600000 -1.978587 -1.979675
107.650000 -1.978739 -1.979675
107.700000 -1.978913 -1.979675
107.750000 -1.979105 -1.979675
107.800000 -1.979309 -1.979675
107.850000 -1.979521 -1.979675
107.900000 -1.979736 -1.979675
107.950000 -1.979947 -1.979675
108.000000 -1.980150 -1.979675
108.050000 -1.980340 -1.979675
108.100000 -1.980512 -1.979675
108.150000 -1.980662 -1.979675
108.200000 -1.980786 -1.979675
108.250000 -1.980882 -1.979675
108.300000 -1.980947 -1.979675
108.350000 -1.980980 -1.979675
108.400000 -1.980981 -1.979675
108.450000 -1.980949 -1.979675
108.500000 -1.980885 -1.979675
108.550000 -1.980792 -1.979675
108.600000 -1.980672 -1.979675
108.650000 -1.980529 -1.979675
108.700000 -1.980364 -1.979675
108.750000 -1.980184 -1.979675
108.800000 -1.979993 -1.979675
108.850000 -1.979795 -1.979675
108.900000 -1.979596 -1.979675
108.950000 -1.979399 -1.979675
109.000000 -1.979211 -1.979675
109.050000 -1.979036 -1.979675
109.100000 -1.978878 -1.979675
109.150000 -1.978741 -1.979675
109.200000 -1.978628 -1.979675
109.250000 -1.978542 -1.979675
109.300000 -1.978485 -1.979675
109.350000 -1.978457 -1.979675
109.400000 -1.978460 -1.979675
109.450000 -1.978493 -1.979675
109.500000 -1.978555 -1.979675
109.550000 -1.978645 -1.979675
109.600000 -1.978759 -1.979675
109.650000 -1.978895 -1.979675
109.700000 -1.979050 -1.979675
109.750000 -1.979219 -1.979675
109.800000 -1.979398 -1.979675
109.850000 -1.979583 -1.979675
109.900000 -1.979769 -1.979675
109.950000 -1.979951 -1.979675
110.000000 -1.980125 -1.979675
110.050000 -1.980286 -1.979675
110.100000 -1.980431 -1.979675
110.150000 -1.980557 -1.979675
110.200000 -1.980659 -1.979675
110.250000 -1.980737 -1.979675
110.300000 -1.980787 -1.979675
110.350000 -1.980810 -1.979675
110.400000 -1.980804 -1.979675
110.450000 -1.980770 -1.979675
110.500000 -1.980709 -1.979675
110.550000 -1.980623 -1.979675
110.600000 -1.980514 -1.979675
110.650000 -1.980385 -1.979675
110.700000 -1.980239 -1.979675
110.750000 -1.980081 -1.979675
110.800000 -1.979913 -1.979675
110.850000 -1.979740 -1.979675
110.900000 -1.979568 -1.979675
110.950000 -1.979399 -1.979675
111.000000 -1.979238 -1.979675
111.050000 -1.979089 -1.979675
111.100000 -1.978956 -1.979675
111.150000 -1.978841 -1.979675
111.200000 -1.978748 -1.979675
111.250000 -1.978679 -1.979675
111.300000 -1.978635 -1.979675
111.350000 -1.978617 -1.979675
111.400000 -1.978625 -1.979675
111.450000 -1.978659 -1.979675
111.500000 -1.978719 -1.979675
111.550000 -1.978801 -1.979675
111.600000 -1.978905 -1.979675
111.650000 -1.979027 -1.979675
111.700000 -1.979164 -1.979675
111.750000 -1.979313 -1.979675
111.800000 -1.979470 -1.979675
111.850000 -1.979631 -1.979675
111.900000 -1.979792 -1.979675
111.950000 -1.979949 -1.979675
112.000000 -1.980097 -1.979675
112.050000 -1.980235 -1.979675
112.100000 -1.980357 -1.979675
112.150000 -1.980462 -1.979675
112.200000 -1.980546 -1.979675
112.250000 -1.980608 -1.979675
112.300000 -1.980646 -1.979675
112.350000 -1.980660 -1.979675
112.400000 -1.980650 -1.979675
112.450000 -1.980615 -1.979675
112.500000 -1.980557 -1.979675
112.550000 -1.980478 -1.979675
112.600000 -1.980379 -1.979675
112.650000 -1.980264 -1.979675
112.700000 -1.980135 -1.979675
112.750000 -1.979995 -1.979675
112.800000 -1.979848 -1.979675
112.850000 -1.979698 -1.979675
112.900000 -1.979549 -1.979675
112.950000 -1.979403 -1.979675
113.000000 -1.979266 -1.979675
113.050000 -1.979139 -1.979675
113.100000 -1.979027 -1.979675
113.150000 -1.978932 -1.979675
113.200000 -1.978856 -1.979675
113.250000 -1.978800 -1.979675
113.300000 -1.978767 -1.979675
113.350000 -1.978756 -1.979675
113.400000 -1.978769 -1.979675
113.450000 -1.978804 -1.979675
113.500000 -1.978860 -1.979675
113.550000 -1.978936 -1.979675
113.600000 -1.979029 -1.979675
113.650000 -1.979138 -1.979675
113.700000 -1.979260 -1.979675
113.750000 -1.979391 -1.979675
113.800000 -1.979528 -1.979675
113.850000 -1.979668 -1.979675
113.900000 -1.979807 -1.979675
113.950000 -1.979942 -1.979675
114.000000 -1.980069 -1.979675
114.050000 -1.980185 -1.979675
114.100000 -1.980288 -1.979675
114.150000 -1.980375 -1.979675
114.200000 -1.980444 -1.979675
114.250000 -1.980493 -1.979675
114.300000 -1.980522 -1.979675
114.350000 -1.980530 -1.979675
114.400000 -1.980516 -1.979675
114.450000 -1.980481 -1.979675
114.500000 -1.980427 -1.979675
114.550000 -1.980354 -1.979675
114.600000 -1.980265 -1.979675
114.650000 -1.980162 -1.979675
114.700000 -1.980047 -1.979675
114.750000 -1.979925 -1.979675
114.800000 -1.979796 -1.979675
114.850000 -1.979666 -1.979675
114.900000 -1.979537 -1.979675
114.950000 -1.979412 -1.979675
115.000000 -1.979295 -1.979675
115.050000 -1.979187 -1.979675
115.100000 -1.979093 -1.979675
115.150000 -1.979014 -1.979675
115.200000 -1.978952 -1.979675
115.250000 -1.978908 -1.979675
115.300000 -1.978883 -1.979675
115.350000 -1.978879 -1.979675
115.400000 -1.978894 -1.979675
115.450000 -1.978928 -1.979675
115.500000 -1.978981 -1.979675
115.550000 -1.979050 -1.979675
115.600000 -1.979135 -1.979675
115.650000 -1.979232 -1.979675
115.700000 -1.979340 -1.979675
115.750000 -1.979455 -1.979675
115.800000 -1.979575 -1.979675
115.850000 -1.979696 -1.979675
115.900000 -1.979816 -1.979675
115.950000 -1.979932 -1.979675
116.000000 -1.980040 -1.979675
116.050000 -1.980139 -1.979675
116.100000 -1.980225 -1.979675
116.150000 -1.980297 -1.979675
116.200000 -1.980353 -1.979675
116.250000 -1.980392 -1.979675
116.300000 -1.980413 -1.979675
116.350000 -1.980415 -1.979675
116.400000 -1.980399 -1.979675
116.450000 -1.980365 -1.979675
116.500000 -1.980314 -1.979675
116.550000 -1.980248 -1.979675
116.600000 -1.980168 -1.979675
116.650000 -1.980076 -1.979675
116.700000 -1.979975 -1.979675
116.750000 -1.979867 -1.979675
116.800000 -1.979755 -1.979675
116.850000 -1.979642 -1.979675
116.900000 -1.979531 -1.979675
116.950000 -1.979423 -1.979675
117.000000 -1.979323 -1.979675
117.050000 -1.979233 -1.979675
117.100000 -1.979154 -1.979675
117.150000 -1.979088 -1.979675
117.200000 -1.979038 -1.979675
117.250000 -1.979003 -1.979675
117.300000 -1.978986 -1.979675
117.350000 -1.978986 -1.979675
117.400000 -1.979002 -1.979675
117.450000 -1.979036 -1.979675
117.500000 -1.979085 -1.979675
117.550000 -1.979148 -1.979675
117.600000 -1.979224 -1.979675
117.650000 -1.979311 -1.979675
117.700000 -1.979406 -1.979675
117.750000 -1.979507 -1.979675
117.800000 -1.979611 -1.979675
117.850000 -1.979717 -1.979675
117.900000 -1.979820 -1.979675
117.950000 -1.979919 -1.979675
118.000000 -1.980012 -1.979675
118.050000 -1.980095 -1.979675
118.100000 -1.980167 -1.979675
118.150000 -1.980227 -1.979675
118.200000 -1.980272 -1.979675
118.250000 -1.980302 -1.979675
118.300000 -1.980317 -1.979675
118.350000 -1.980315 -1.979675
118.400000 -1.980298 -1.979675
118.450000 -1.980265 -1.979675
118.500000 -1.980218 -1.979675
118.550000 -1.980157 -1.979675
118.600000 -1.980085 -1.979675
118.650000 -1.980004 -1.979675
118.700000 -1.979915 -1.979675
118.750000 -1.979820 -1.979675
118.800000 -1.979723 -1.979675
118.850000 -1.979625 -1.979675
118.900000 -1.979529 -1.979675
118.950000 -1.979437 -1.979675
119.000000 -1.979352 -1.979675
119.050000 -1.979275 -1.979675
119.100000 -1.979209 -1.979675
119.150000 -1.979155 -1.979675
119.200000 -1.979114 -1.979675
119.250000 -1.979088 -1.979675
119.300000 -1.979076 -1.979675
119.350000 -1.979079 -1.979675
119.400000 -1.979097 -1.979675
119.450000 -1.979129 -1.979675
119.500000 -1.979174 -1.979675
119.550000 -1.979232 -1.979675
119.600000 -1.979300 -1.979675
119.650000 -1.979377 -1.979675
119.700000 -1.979461 -1.979675
119.750000 -1.979549 -1.979675
119.800000 -1.979640 -1.979675
119.850000 -1.979731 -1.979675
119.900000 -1.979820 -1.979675
119.950000 -1.979905 -1.979675
120.000000 -1.979984 -1.979675
120.050000 -1.980054 -1.979675
120.100000 -1.980114 -1.979675
120.150000 -1.980163 -1.979675
120.200000 -1.980200 -1.979675
120.250000 -1.980223 -1.979675
120.300000 -1.980233 -1.979675
120.350000 -1.980228 -1.979675
120.400000 -1.980210 -1.979675
120.450000 -1.980179 -1.979675
120.500000 -1.980135 -1.979675
120.550000 -1.980080 -1.979675
120.600000 -1.980016 -1.979675
120.650000 -1.979943 -1.979675
120.700000 -1.979865 -1.979675
120.750000 -1.979782 -1.979675
120.800000 -1.979697 -1.979675
120.850000 -1.979612 -1.979675
120.900000 -1.979530 -1.979675
120.950000 -1.979451 -1.979675
121.000000 -1.979379 -1.979675
121.050000 -1.979314 -1.979675
121.100000 -1.979259 -1.979675
121.150000 -1.979215 -1.979675
121.200000 -1.979182 -1.979675
121.250000 -1.979162 -1.979675
121.300000 -1.979155 -1.979675
121.350000 -1.979160 -1.979675
121.400000 -1.979178 -1.979675
121.450000 -1.979209 -1.979675
121.500000 -1.979251 -1.979675
121.550000 -1.979303 -1.979675
121.600000 -1.979364 -1.979675
121.650000 -1.979432 -1.979675
121.700000 -1.979506 -1.979675
121.750000 -1.979583 -1.979675
121.800000 -1.979662 -1.979675
121.850000 -1.979741 -1.979675
121.900000 -1.979818 -1.979675
121.950000 -1.979890 -1.979675
122.000000 -1.979957 -1.979675
122.050000 -1.980016 -1.979675
122.100000 -1.980067 -1.979675
122.150000 -1.980107 -1.979675
122.200000 -1.980136 -1.979675
122.250000 -1.980153 -1.979675
122.300000 -1.980159 -1.979675
122.350000 -1.980152 -1.979675
122.400000 -1.980134 -1.979675
122.450000 -1.980104 -1.979675
122.500000 -1.980064 -1.979675
122.550000 -1.980015 -1.979675
122.600000 -1.979957 -1.979675
122.650000 -1.979893 -1.979675
122.700000 -1.979824 -1.979675
122.750000 -1.979751 -1.979675
122.800000 -1.979678 -1.979675
122.850000 -1.979604 -1.979675
122.900000 -1.979533 -1.979675
122.950000 -1.979466 -1.979675
123.000000 -1.979405 -1.979675
123.050000 -1.979351 -1.979675
123.100000 -1.979305 -1.979675
123.150000 -1.979269 -1.979675
123.200000 -1.979243 -1.979675
123.250000 -1.979227 -1.979675
123.300000 -1.979224 -1.979675
123.350000 -1.979231 -1.979675
123.400000 -1.979249 -1.979675
123.450000 -1.979278 -1.979675
123.500000 -1.979316 -1.979675
123.550000 -1.979363 -1.979675
123.600000 -1.979418 -1.979675
123.650000 -1.979478 -1.979675
123.700000 -1.979543 -1.979675
123.750000 -1.979611 -1.979675
123.800000 -1.979679 -1.979675
123.850000 -1.979747 -1.979675
123.900000 -1.979813 -1.979675
123.950000 -1.979875 -1.979675
124.000000 -1.979932 -1.979675
124.050000 -1.979981 -1.979675
124.100000 -1.980023 -1.979675
124.150000 -1.980056 -1.979675
124.200000 -1.980079 -1.979675
124.250000 -1.980092 -1.979675
124.300000 -1.980094 -1.979675
124.350000 -1.980086 -1.979675
124.400000 -1.980068 -1.979675
124.450000 -1.980040 -1.979675
124.500000 -1.980004 -1.979675
124.550000 -1.979959 -1.979675
124.600000 -1.979908 -1.979675
124.650000 -1.979851 -1.979675
124.700000 -1.979790 -1.979675
124.750000 -1.979727 -1.979675
124.800000 -1.979663 -1.979675
124.850000 -1.979600 -1.979675
124.900000 -1.979539 -1.979675
124.950000 -1.979482 -1.979675
125.000000 -1.979430 -1.979675
125.050000 -1.979384 -1.979675
125.100000 -1.979346 -1.979675
125.150000 -1.979316 -1.979675
125.200000 -1.979296 -1.979675
125.250000 -1.979285 -1.979675
125.300000 -1.979284 -1.979675
125.350000 -1.979292 -1.979675
125.400000 -1.979310 -1.979675
125.450000 -1.979337 -1.979675
125.500000 -1.979372 -1.979675
125.550000 -1.979415 -1.979675
125.600000 -1.979463 -1.979675
125.650000 -1.979516 -1.979675
125.700000 -1.979573 -1.979675
125.750000 -1.979632 -1.979675
125.800000 -1.979692 -1.979675
125.850000 -1.979751 -1.979675
125.900000 -1.979807 -1.979675
125.950000 -1.979860 -1.979675
126.000000 -1.979908 -1.979675
126.050000 -1.979949 -1.979675
126.100000 -1.979984 -1.979675
126.150000 -1.980011 -1.979675
126.200000 -1.980029 -1.979675
126.250000 -1.980038 -1.979675
126.300000 -1.980038 -1.979675
126.350000 -1.980029 -1.979675
126.400000 -1.980011 -1.979675
126.450000 -1.979986 -1.979675
126.500000 -1.979952 -1.979675
126.550000 -1.979912 -1.979675
126.600000 -1.979866 -1.979675
126.650000 -1.979816 -1.979675
126.700000 -1.979763 -1.979675
126.750000 -1.979708 -1.979675
126.800000 -1.979652 -1.979675
126.850000 -1.979598 -1.979675
126.900000 -1.979545 -1.979675
126.950000 -1.979497 -1.979675
127.000000 -1.979453 -1.979675
127.050000 -1.979415 -1.979675
127.100000 -1.979383 -1.979675
127.150000 -1.979359 -1.979675
127.200000 -1.979343 -1.979675
127.250000 -1.979336 -1.979675
127.300000 -1.979337 -1.979675
127.350000 -1.979346 -1.979675
127.400000 -1.979363 -1.979675
127.450000 -1.979388 -1.979675
127.500000 -1.979420 -1.979675
127.550000 -1.979458 -1.979675
127.600000 -1.979501 -1.979675
127.650000 -1.979548 -1.979675
127.700000 -1.979598 -1.979675
127.750000 -1.979649 -1.979675
127.800000 -1.979701 -1.979675
127.850000 -1.979752 -1.979675
127.900000 -1.979800 -1.979675
127.950000 -1.979845 -1.979675
128.000000 -1.979885 -1.979675
128.050000 -1.979920 -1.979675
128.100000 -1.979949 -1.979675
128.150000 -1.979970 -1.979675
128.200000 -1.979984 -1.979675
128.250000 -1.979990 -1.979675
128.300000 -1.979989 -1.979675
128.350000 -1.979979 -1.979675
128.400000 -1.979962 -1.979675
128.450000 -1.979938 -1.979675
128.500000 -1.979908 -1.979675
128.550000 -1.979872 -1.979675
128.600000 -1.979831 -1.979675
128.650000 -1.979787 -1.979675
128.700000 -1.979741 -1.979675
128.750000 -1.979693 -1.979675
128.800000 -1.979645 -1.979675
128.850000 -1.979598 -1.979675
128.900000 -1.979553 -1.979675
128.950000 -1.979511 -1.979675
129.000000 -1.979474 -1.979675
129.050000 -1.979442 -1.979675
129.100000 -1.979417 -1.979675
129.150000 -1.979397 -1.979675
129.200000 -1.979385 -1.979675
129.250000 -1.979380 -1.979675
129.300000 -1.979383 -1.979675
129.350000 -1.979392 -1.979675
129.400000 -1.979409 -1.979675
129.450000 -1.979432 -1.979675
129.500000 -1.979461 -1.979675
129.550000 -1.979495 -1.979675
129.600000 -1.979533 -1.979675
129.650000 -1.979574 -1.979675
129.700000 -1.979618 -1.979675
129.750000 -1.979663 -1.979675
129.800000 -1.979708 -1.979675
129.850000 -1.979751 -1.979675
129.900000 -1.979793 -1.979675
129.950000 -1.979831 -1.979675
130.000000 -1.979865 -1.979675
130.050000 -1.979894 -1.979675
130.100000 -1.979917 -1.979675
130.150000 -1.979934 -1.979675
130.200000 -1.979945 -1.979675
130.250000 -1.979949 -1.979675
130.300000 -1.979946 -1.979675
130.350000 -1.979936 -1.979675
130.400000 -1.979920 -1.979675
130.450000 -1.979898 -1.979675
130.500000 -1.979871 -1.979675
130.550000 -1.979838 -1.979675
130.600000 -1.979802 -1.979675
130.650000 -1.979763 -1.979675
130.700000 -1.979723 -1.979675
130.750000 -1.979681 -1.979675
130.800000 -1.979639 -1.979675
130.850000 -1.979599 -1.979675
130.900000 -1.979561 -1.979675
130.950000 -1.979525 -1.979675
131.000000 -1.979494 -1.979675
131.050000 -1.979468 -1.979675
131.100000 -1.979447 -1.979675
131.150000 -1.979431 -1.979675
131.200000 -1.979422 -1.979675
131.250000 -1.979419 -1.979675
131.300000 -1.979423 -1.979675
131.350000 -1.979432 -1.979675
131.400000 -1.979448 -1.979675
131.450000 -1.979469 -1.979675
131.500000 -1.979495 -1.979675
131.550000 -1.979526 -1.979675
131.600000 -1.979559 -1.979675
131.650000 -1.979596 -1.979675
131.700000 -1.979634 -1.979675
131.750000 -1.979673 -1.979675
131.800000 -1.979712 -1.979675
131.850000 -1.979749 -1.979675
131.900000 -1.979785 -1.979675
131.950000 -1.979817 -1.979675
132.000000 -1.979846 -1.979675
132.050000 -1.979870 -1.979675
132.100000 -1.979889 -1.979675
132.150000 -1.979903 -1.979675
132.200000 -1.979910 -1.979675
132.250000 -1.979912 -1.979675
132.300000 -1.979909 -1.979675
132.350000 -1.979899 -1.979675
132.400000 -1.979884 -1.979675
132.450000 -1.979863 -1.979675
132.500000 -1.979839 -1.979675
132.550000 -1.979810 -1.979675
132.600000 -1.979778 -1.979675
132.650000 -1.979744 -1.979675
132.700000 -1.979708 -1.979675
132.750000 -1.979672 -1.979675
132.800000 -1.979636 -1.979675
132.850000 -1.979601 -1.979675
132.900000 -1.979569 -1.979675
132.950000 -1.979539 -1.979675
133.000000 -1.979513 -1.979675
133.050000 -1.979491 -1.979675
133.100000 -1.979473 -1.979675
133.150000 -1.979461 -1.979675
133.200000 -1.979454 -1.979675
133.250000 -1.979453 -1.979675
133.300000 -1.979457 -1.979675
133.350000 -1.979467 -1.979675
133.400000 -1.979482 -1.979675
133.450000 -1.979501 -1.979675
133.500000 -1.979525 -1.979675
133.550000 -1.979552 -1.979675
133.600000 -1.979582 -1.979675
133.650000 -1.979614 -1.979675
133.700000 -1.979647 -1.979675
133.750000 -1.979681 -1.979675
133.800000 -1.979714 -1.979675
133.850000 -1.979746 -1.979675
133.900000 -1.979776 -1.979675
133.950000 -1.979804 -1.979675
134.000000 -1.979828 -1.979675
134.050000 -1.979848 -1.979675
134.100000 -1.979864 -1.979675
134.150000 -1.979874 -1.979675
134.200000 -1.979880 -1.979675
134.250000 -1.979881 -1.979675
134.300000 -1.979876 -1.979675
134.350000 -1.979867 -1.979675
134.400000 -1.979852 -1.979675
134.450000 -1.979834 -1.979675
134.500000 -1.979812 -1.979675
134.550000 -1.979786 -1.979675
134.600000 -1.979758 -1.979675
134.650000 -1.979728 -1.979675
134.700000 -1.979697 -1.979675
134.750000 -1.979665 -1.979675
134.800000 -1.979634 -1.979675
134.850000 -1.979605 -1.979675
134.900000 -1.979577 -1.979675
134.950000 -1.979551 -1.979675
135.000000 -1.979529 -1.979675
135.050000 -1.979511 -1.979675
135.100000 -1.979497 -1.979675
135.150000 -1.979488 -1.979675
135.200000 -1.979483 -1.979675
135.250000 -1.979483 -1.979675
135.300000 -1.979488 -1.979675
135.350000 -1.979497 -1.979675
135.400000 -1.979511 -1.979675
135.450000 -1.979528 -1.979675
135.500000 -1.979549 -1.979675
135.550000 -1.979574 -1.979675
135.600000 -1.979600 -1.979675
135.650000 -1.979628 -1.979675
135.700000 -1.979657 -1.979675
135.750000 -1.979686 -1.979675
135.800000 -1.979715 -1.979675
135.850000 -1.979743 -1.979675
135.900000 -1.979769 -1.979675
135.950000 -1.979792 -1.979675
136.000000 -1.979812 -1.979675
136.050000 -1.979828 -1.979675
136.100000 -1.979841 -1.979675
136.150000 -1.979849 -1.979675
136.200000 -1.979853 -1.979675
136.250000 -1.979853 -1.979675
136.300000 -1.979848 -1.979675
136.350000 -1.979839 -1.979675
136.400000 -1.979826 -1.979675
136.450000 -1.979809 -1.979675
136.500000 -1.979789 -1.979675
136.550000 -1.979766 -1.979675
136.600000 -1.979741 -1.979675
136.650000 -1.979715 -1.979675
136.700000 -1.979688 -1.979675
136.750000 -1.979660 -1.979675
136.800000 -1.979634 -1.979675
136.850000 -1.979608 -1.979675
136.900000 -1.979585 -1.979675
136.950000 -1.979563 -1.979675
137.000000 -1.979545 -1.979675
137.050000 -1.979530 -1.979675
137.100000 -1.979519 -1.979675
137.150000 -1.979511 -1.979675
137.200000 -1.979508 -1.979675
137.250000 -1.979509 -1.979675
137.300000 -1.979514 -1.979675
137.350000 -1.979523 -1.979675
137.400000 -1.979535 -1.979675
137.450000 -1.979551 -1.979675
137.500000 -1.979570 -1.979675
137.550000 -1.979592 -1.979675
137.600000 -1.979615 -1.979675
137.650000 -1.979640 -1.979675
137.700000 -1.979665 -1.979675
137.750000 -1.979691 -1.979675
137.800000 -1.979715 -1.979675
137.850000 -1.979739 -1.979675
137.900000 -1.979761 -1.979675
137.950000 -1.979780 -1.979675
138.000000 -1.979797 -1.979675
138.050000 -1.979811 -1.979675
138.100000 -1.979821 -1.979675
138.150000 -1.979827 -1.979675
138.200000 -1.979830 -1.979675
138.250000 -1.979829 -1.979675
138.300000 -1.979824 -1.979675
138.350000 -1.979815 -1.979675
138.400000 -1.979803 -1.979675
138.450000 -1.979787 -1.979675
138.500000 -1.979769 -1.979675
138.550000 -1.979749 -1.979675
138.600000 -1.979727 -1.979675
138.650000 -1.979704 -1.979675
138.700000 -1.979681 -1.979675
138.750000 -1.979657 -1.979675
138.800000 -1.979634 -1.979675
138.850000 -1.979612 -1.979675
138.900000 -1.979592 -1.979675
138.950000 -1.979574 -1.979675
139.000000 -1.979559 -1.979675
139.050000 -1.979547 -1.979675
139.100000 -1.979537 -1.979675
139.150000 -1.979532 -1.979675
139.200000 -1.979530 -1.979675
139.250000 -1.979531 -1.979675
139.300000 -1.979537 -1.979675
139.350000 -1.979545 -1.979675
139.400000 -1.979557 -1.979675
139.450000 -1.979571 -1.979675
139.500000 -1.979588 -1.979675
139.550000 -1.979607 -1.979675
139.600000 -1.979628 -1.979675
139.650000 -1.979649 -1.979675
139.700000 -1.979671 -1.979675
139.750000 -1.979693 -1.979675
139.800000 -1.979715 -1.979675
139.850000 -1.979735 -1.979675
139.900000 -1.979753 -1.979675
139.950000 -1.979770 -1.979675
140.000000 -1.979784 -1.979675
140.050000 -1.979795 -1.979675
140.100000 -1.979803 -1.979675
140.150000 -1.979808 -1.979675
140.200000 -1.979809 -1.979675
140.250000 -1.979808 -1.979675
140.300000 -1.979802 -1.979675
140.350000 -1.979794 -1.979675
140.400000 -1.979783 -1.979675
140.450000 -1.979769 -1.979675
140.500000 -1.979753 -1.979675
140.550000 -1.979735 -1.979675
140.600000 -1.979716 -1.979675
140.650000 -1.979696 -1.979675
140.700000 -1.979675 -1.979675
140.750000 -1.979655 -1.979675
140.800000 -1.979635 -1.979675
140.850000 -1.979617 -1.979675
140.900000 -1.979599 -1.979675
140.950000 -1.979584 -1.979675
141.000000 -1.979572 -1.979675
141.050000 -1.979562 -1.979675
141.100000 -1.979554 -1.979675
141.150000 -1.979550 -1.979675
141.200000 -1.979549 -1.979675
141.250000 -1.979551 -1.979675
141.300000 -1.979556 -1.979675
141.350000 -1.979564 -1.979675
141.400000 -1.979575 -1.979675
141.450000 -1.979588 -1.979675
141.500000 -1.979603 -1.979675
141.550000 -1.979620 -1.979675
141.600000 -1.979638 -1.979675
141.650000 -1.979657 -1.979675
141.700000 -1.979676 -1.979675
141.750000 -1.979695 -1.979675
141.800000 -1.979713 -1.979675
141.850000 -1.979731 -1.979675
141.900000 -1.979746 -1.979675
141.950000 -1.979760 -1.979675
142.000000 -1.979772 -1.979675
142.050000 -1.979781 -1.979675
142.100000 -1.979787 -1.979675
142.150000 -1.979791 -1.979675
142.200000 -1.979791 -1.979675
142.250000 -1.979789 -1.979675
142.300000 -1.979784 -1.979675
142.350000 -1.979776 -1.979675
142.400000 -1.979766 -1.979675
142.450000 -1.979754 -1.979675
142.500000 -1.979739 -1.979675
142.550000 -1.979724 -1.979675
142.600000 -1.979707 -1.979675
142.650000 -1.979689 -1.979675
142.700000 -1.979671 -1.979675
142.750000 -1.979654 -1.979675
142.800000 -1.979637 -1.979675
142.850000 -1.979621 -1.979675
142.900000 -1.979606 -1.979675
142.950000 -1.979594 -1.979675
143.000000 -1.979583 -1.979675
143.050000 -1.979575 -1.979675
143.100000 -1.979569 -1.979675
143.150000 -1.979566 -1.979675
143.200000 -1.979566 -1.979675
143.250000 -1.979568 -1.979675
143.300000 -1.979573 -1.979675
143.350000 -1.979581 -1.979675
143.400000 -1.979591 -1.979675
143.450000 -1.979602 -1.979675
143.500000 -1.979616 -1.979675
143.550000 -1.979631 -1.979675
143.600000 -1.979646 -1.979675
143.650000 -1.979663 -1.979675
143.700000 -1.979680 -1.979675
143.750000 -1.979696 -1.979675
143.800000 -1.979712 -1.979675
143.850000 -1.979726 -1.979675
143.900000 -1.979740 -1.979675
143.950000 -1.979751 -1.979675
144.000000 -1.979761 -1.979675
144.050000 -1.979768 -1.979675
144.100000 -1.979773 -1.979675
144.150000 -1.979776 -1.979675
144.200000 -1.979776 -1.979675
144.250000 -1.979773 -1.979675
144.300000 -1.979768 -1.979675
144.350000 -1.979761 -1.979675
144.400000 -1.979752 -1.979675
144.450000 -1.979741 -1.979675
144.500000 -1.979728 -1.979675
144.550000 -1.979714 -1.979675
144.600000 -1.979699 -1.979675
144.650000 -1.979684 -1.979675
144.700000 -1.979668 -1.979675
144.750000 -1.979653 -1.979675
144.800000 -1.979639 -1.979675
144.850000 -1.979625 -1.979675
144.900000 -1.979613 -1.979675
144.950000 -1.979602 -1.979675
145.000000 -1.979593 -1.979675
145.050000 -1.979587 -1.979675
145.100000 -1.979582 -1.979675
145.150000 -1.979580 -1.979675
145.200000 -1.979581 -1.979675
145.250000 -1.979583 -1.979675
145.300000 -1.979588 -1.979675
145.350000 -1.979595 -1.979675
145.400000 -1.979604 -1.979675
145.450000 -1.979614 -1.979675
145.500000 -1.979626 -1.979675
145.550000 -1.979639 -1.979675
145.600000 -1.979653 -1.979675
145.650000 -1.979668 -1.979675
145.700000 -1.979682 -1.979675
145.750000 -1.979696 -1.979675
145.800000 -1.979710 -1.979675
145.850000 -1.979722 -1.979675
145.900000 -1.979733 -1.979675
145.950000 -1.979743 -1.979675
146.000000 -1.979751 -1.979675
146.050000 -1.979757 -1.979675
146.100000 -1.979761 -1.979675
146.150000 -1.979762 -1.979675
146.200000 -1.979762 -1.979675
146.250000 -1.979759 -1.979675
146.300000 -1.979755 -1.979675
146.350000 -1.979748 -1.979675
146.400000 -1.979739 -1.979675
146.450000 -1.979729 -1.979675
146.500000 -1.979718 -1.979675
146.550000 -1.979706 -1.979675
146.600000 -1.979693 -1.979675
146.650000 -1.979680 -1.979675
146.700000 -1.979666 -1.979675
146.750000 -1.979653 -1.979675
146.800000 -1.979641 -1.979675
146.850000 -1.979629 -1.979675
146.900000 -1.979619 -1.979675
146.950000 -1.979610 -1.979675
147.000000 -1.979603 -1.979675
147.050000 -1.979597 -1.979675
147.100000 -1.979594 -1.979675
147.150000 -1.979593 -1.979675
147.200000 -1.979593 -1.979675
147.250000 -1.979596 -1.979675
147.300000 -1.979601 -1.979675
147.350000 -1.979607 -1.979675
147.400000 -1.979615 -1.979675
147.450000 -1.979625 -1.979675
147.500000 -1.979635 -1.979675
147.550000 -1.979647 -1.979675
147.600000 -1.979659 -1.979675
147.650000 -1.979671 -1.979675
147.700000 -1.979684 -1.979675
147.750000 -1.979696 -1.979675
147.800000 -1.979707 -1.979675
147.850000 -1.979718 -1.979675
147.900000 -1.979728 -1.979675
147.950000 -1.979736 -1.979675
148.000000 -1.979742 -1.979675
148.050000 -1.979747 -1.979675
148.100000 -1.979750 -1.979675
148.150000 -1.979751 -1.979675
148.200000 -1.979750 -1.979675
148.250000 -1.979747 -1.979675
148.300000 -1.979743 -1.979675
148.350000 -1.979737 -1.979675
148.400000 -1.979729 -1.979675
148.450000 -1.979720 -1.979675
148.500000 -1.979710 -1.979675
148.550000 -1.979699 -1.979675
148.600000 -1.979688 -1.979675
148.650000 -1.979676 -1.979675
148.700000 -1.979665 -1.979675
148.750000 -1.979653 -1.979675
148.800000 -1.979643 -1.979675
148.850000 -1.979633 -1.979675
148.900000 -1.979624 -1.979675
148.950000 -1.979617 -1.979675
149.000000 -1.979611 -1.979675
149.050000 -1.979607 -1.979675
149.100000 -1.979604 -1.979675
149.150000 -1.979603 -1.979675
149.200000 -1.979604 -1.979675
149.250000 -1.979607 -1.979675
149.300000 -1.979612 -1.979675
149.350000 -1.979617 -1.979675
149.400000 -1.979625 -1.979675
149.450000 -1.979633 -1.979675
149.500000 -1.979643 -1.979675
149.550000 -1.979653 -1.979675
149.600000 -1.979663 -1.979675
149.650000 -1.979674 -1.979675
149.700000 -1.979685 -1.979675
149.750000 -1.979695 -1.979675
149.800000 -1.979705 -1.979675
149.850000 -1.979714 -1.979675
149.900000 -1.979722 -1.979675
149.950000 -1.979729 -1.979675
150.000000 -1.979734 -1.979675
150.050000 -1.979738 -1.979675
150.100000 -1.979740 -1.979675
150.150000 -1.979741 -1.979675
150.200000 -1.979740 -1.979675
150.250000 -1.979737 -1.979675
150.300000 -1.979733 -1.979675
150.350000 -1.979727 -1.979675
150.400000 -1.979720 -1.979675
150.450000 -1.979712 -1.979675
150.500000 -1.979703 -1.979675
150.550000 -1.979694 -1.979675
150.600000 -1.979684 -1.979675
150.650000 -1.979674 -1.979675
150.700000 -1.979664 -1.979675
150.750000 -1.979654 -1.979675
150.800000 -1.979645 -1.979675
150.850000 -1.979637 -1.979675
150.900000 -1.979629 -1.979675
150.950000 -1.979623 -1.979675
151.000000 -1.979619 -1.979675
151.050000 -1.979615 -1.979675
151.100000 -1.979613 -1.979675
151.150000 -1.979613 -1.979675
151.200000 -1.979614 -1.979675
151.250000 -1.979617 -1.979675
151.300000 -1.979621 -1.979675
151.350000 -1.979626 -1.979675
151.400000 -1.979633 -1.979675
151.450000 -1.979640 -1.979675
151.500000 -1.979649 -1.979675
151.550000 -1.979658 -1.979675
151.600000 -1.979667 -1.979675
151.650000 -1.979676 -1.979675
151.700000 -1.979686 -1.979675
151.750000 -1.979695 -1.979675
151.800000 -1.979703 -1.979675
151.850000 -1.979711 -1.979675
151.900000 -1.979717 -1.979675
151.950000 -1.979723 -1.979675
152.000000 -1.979727 -1.979675
152.050000 -1.979730 -1.979675
152.100000 -1.979732 -1.979675
152.150000 -1.979732 -1.979675
152.200000 -1.979731 -1.979675
152.250000 -1.979728 -1.979675
152.300000 -1.979724 -1.979675
152.350000 -1.979719 -1.979675
152.400000 -1.979713 -1.979675
152.450000 -1.979706 -1.979675
152.500000 -1.979698 -1.979675
152.550000 -1.979689 -1.979675
152.600000 -1.979681 -1.979675
152.650000 -1.979672 -1.979675
152.700000 -1.979663 -1.979675
152.750000 -1.979655 -1.979675
152.800000 -1.979647 -1.979675
152.850000 -1.979640 -1.979675
152.900000 -1.979634 -1.979675
152.950000 -1.979629 -1.979675
153.000000 -1.979625 -1.979675
153.050000 -1.979623 -1.979675
153.100000 -1.979621 -1.979675
153.150000 -1.979621 -1.979675
153.200000 -1.979623 -1.979675
153.250000 -1.979625 -1.979675
153.300000 -1.979629 -1.979675
153.350000 -1.979634 -1.979675
153.400000 -1.979640 -1.979675
153.450000 -1.979646 -1.979675
153.500000 -1.979654 -1.979675
153.550000 -1.979662 -1.979675
153.600000 -1.979670 -1.979675
153.650000 -1.979678 -1.979675
153.700000 -1.979686 -1.979675
153.750000 -1.979694 -1.979675
153.800000 -1.979701 -1.979675
153.850000 -1.979707 -1.979675
153.900000 -1.979713 -1.979675
153.950000 -1.979717 -1.979675
154.000000 -1.979721 -1.979675
154.050000 -1.979723 -1.979675
154.100000 -1.979724 -1.979675
154.150000 -1.979724 -1.979675
154.200000 -1.979723 -1.979675
154.250000 -1.979720 -1.979675
154.300000 -1.979717 -1.979675
154.350000 -1.979712 -1.979675
154.400000 -1.979706 -1.979675
154.450000 -1.979700 -1.979675
154.500000 -1.979693 -1.979675
154.550000 -1.979686 -1.979675
154.600000 -1.979678 -1.979675
154.650000 -1.979671 -1.979675
154.700000 -1.979663 -1.979675
154.750000 -1.979656 -1.979675
154.800000 -1.979649 -1.979675
154.850000 -1.979644 -1.979675
154.900000 -1.979638 -1.979675
154.950000 -1.979634 -1.979675
155.000000 -1.979631 -1.979675
155.050000 -1.979629 -1.979675
155.100000 -1.979628 -1.979675
155.150000 -1.979628 -1.979675
155.200000 -1.979630 -1.979675
155.250000 -1.979632 -1.979675
155.300000 -1.979636 -1.979675
155.350000 -1.979640 -1.979675
155.400000 -1.979646 -1.979675
155.450000 -1.979652 -1.979675
155.500000 -1.979658 -1.979675
155.550000 -1.979665 -1.979675
155.600000 -1.979672 -1.979675
155.650000 -1.979679 -1.979675
155.700000 -1.979686 -1.979675
155.750000 -1.979693 -1.979675
155.800000 -1.979699 -1.979675
155.850000 -1.979704 -1.979675
155.900000 -1.979709 -1.979675
155.950000 -1.979712 -1.979675
156.000000 -1.979715 -1.979675
156.050000 -1.979717 -1.979675
156.100000 -1.979718 -1.979675
156.150000 -1.979717 -1.979675
156.200000 -1.979716 -1.979675
156.250000 -1.979714 -1.979675
156.300000 -1.979710 -1.979675
156.350000 -1.979706 -1.979675
156.400000 -1.979701 -1.979675
156.450000 -1.979695 -1.979675
156.500000 -1.979689 -1.979675
156.550000 -1.979683 -1.979675
156.600000 -1.979676 -1.979675
156.650000 -1.979670 -1.979675
156.700000 -1.979663 -1.979675
156.750000 -1.979657 -1.979675
156.800000 -1.979652 -1.979675
156.850000 -1.979647 -1.979675
156.900000 -1.979642 -1.979675
156.950000 -1.979639 -1.979675
157.000000 -1.979636 -1.979675
157.050000 -1.979635 -1.979675
157.100000 -1.979634 -1.979675
157.150000 -1.979635 -1.979675
157.200000 -1.979636 -1.979675
157.250000 -1.979639 -1.979675
157.300000 -1.979642 -1.979675
157.350000 -1.979646 -1.979675
157.400000 -1.979651 -1.979675
157.450000 -1.979656 -1.979675
157.500000 -1.979662 -1.979675
157.550000 -1.979668 -1.979675
157.600000 -1.979674 -1.979675
157.650000 -1.979680 -1.979675
157.700000 -1.979686 -1.979675
157.750000 -1.979691 -1.979675
157.800000 -1.979697 -1.979675
157.850000 -1.979701 -1.979675
157.900000 -1.979705 -1.979675
157.950000 -1.979708 -1.979675
158.000000 -1.979710 -1.979675
158.050000 -1.979712 -1.979675
158.100000 -1.979712 -1.979675
158.150000 -1.979712 -1.979675
158.200000 -1.979710 -1.979675
158.250000 -1.979708 -1.979675
158.300000 -1.979705 -1.979675
158.350000 -1.979701 -1.979675
158.400000 -1.979696 -1.979675
158.450000 -1.979691 -1.979675
158.500000 -1.979686 -1.979675
158.550000 -1.979680 -1.979675
158.600000 -1.979675 -1.979675
158.650000 -1.979669 -1.979675
158.700000 -1.979664 -1.979675
158.750000 -1.979658 -1.979675
158.800000 -1.979654 -1.979675
158.850000 -1.979649 -1.979675
158.900000 -1.979646 -1.979675
158.950000 -1.979643 -1.979675
159.000000 -1.979641 -1.979675
159.050000 -1.979640 -1.979675
159.100000 -1.979640 -1.979675
159.150000 -1.979640 -1.979675
159.200000 -1.979642 -1.979675
159.250000 -1.979644 -1.979675
159.300000 -1.979647 -1.979675
159.350000 -1.979651 -1.979675
159.400000 -1.979655 -1.979675
159.450000 -1.979659 -1.979675
159.500000 -1.979664 -1.979675
159.550000 -1.979670 -1.979675
159.600000 -1.979675 -1.979675
159.650000 -1.979680 -1.979675
159.700000 -1.979685 -1.979675
159.750000 -1.979690 -1.979675
159.800000 -1.979695 -1.979675
159.850000 -1.979698 -1.979675
159.900000 -1.979702 -1.979675
159.950000 -1.979704 -1.979675
160.000000 -1.979706 -1.979675
160.050000 -1.979707 -1.979675
160.100000 -1.979707 -1.979675
160.150000 -1.979706 -1.979675
160.200000 -1.979705 -1.979675
160.250000 -1.979703 -1.979675
160.300000 -1.979700 -1.979675
160.350000 -1.979697 -1.979675
160.400000 -1.979693 -1.979675
160.450000 -1.979688 -1.979675
160.500000 -1.979683 -1.979675
160.550000 -1.979679 -1.979675
160.600000 -1.979674 -1.979675
160.650000 -1.979669 -1.979675
160.700000 -1.979664 -1.979675
160.750000 -1.979660 -1.979675
160.800000 -1.979656 -1.979675
160.850000 -1.979652 -1.979675
160.900000 -1.979649 -1.979675
160.950000 -1.979647 -1.979675
161.000000 -1.979645 -1.979675
161.050000 -1.979644 -1.979675
161.100000 -1.979644 -1.979675
161.150000 -1.979645 -1.979675
161.200000 -1.979646 -1.979675
161.250000 -1.979648 -1.979675
161.300000 -1.979651 -1.979675
161.350000 -1.979654 -1.979675
161.400000 -1.979658 -1.979675
161.450000 -1.979662 -1.979675
161.500000 -1.979667 -1.979675
161.550000 -1.979671 -1.979675
161.600000 -1.979676 -1.979675
161.650000 -1.979681 -1.979675
161.700000 -1.979685 -1.979675
161.750000 -1.979689 -1.979675
161.800000 -1.979693 -1.979675
161.850000 -1.979696 -1.979675
161.900000 -1.979699 -1.979675
161.950000 -1.979701 -1.979675
162.000000 -1.979702 -1.979675
162.050000 -1.979703 -1.979675
162.100000 -1.979703 -1.979675
162.150000 -1.979702 -1.979675
162.200000 -1.979701 -1.979675
162.250000 -1.979699 -1.979675
162.300000 -1.979696 -1.979675
162.350000 -1.979693 -1.979675
162.400000 -1.979689 -1.979675
162.450000 -1.979685 -1.979675
162.500000 -1.979681 -1.979675
162.550000 -1.979677 -1.979675
162.600000 -1.979673 -1.979675
162.650000 -1.979669 -1.979675
162.700000 -1.979665 -1.979675
162.750000 -1.979661 -1.979675
162.800000 -1.979657 -1.979675
162.850000 -1.979654 -1.979675
162.900000 -1.979652 -1.979675
162.950000 -1.979650 -1.979675
163.000000 -1.979649 -1.979675
163.050000 -1.979648 -1.979675
163.100000 -1.979648 -1.979675
163.150000 -1.979649 -1.979675
163.200000 -1.979650 -1.979675
163.250000 -1.979652 -1.979675
163.300000 -1.979655 -1.979675
163.350000 -1.979658 -1.979675
163.400000 -1.979661 -1.979675
163.450000 -1.979665 -1.979675
163.500000 -1.979669 -1.979675
163.550000 -1.979673 -1.979675
163.600000 -1.979677 -1.979675
163.650000 -1.979681 -1.979675
163.700000 -1.979684 -1.979675
163.750000 -1.979688 -1.979675
163.800000 -1.979691 -1.979675
163.850000 -1.979694 -1.979675
163.900000 -1.979696 -1.979675
163.950000 -1.979697 -1.979675
164.000000 -1.979699 -1.979675
164.050000 -1.979699 -1.979675
164.100000 -1.979699 -1.979675
164.150000 -1.979698 -1.979675
164.200000 -1.979697 -1.979675
164.250000 -1.979695 -1.979675
164.300000 -1.979693 -1.979675
164.350000 -1.979690 -1.979675
164.400000 -1.979687 -1.979675
164.450000 -1.979683 -1.979675
164.500000 -1.979680 -1.979675
164.550000 -1.979676 -1.979675
164.600000 -1.979672 -1.979675
164.650000 -1.979669 -1.979675
164.700000 -1.979665 -1.979675
164.750000 -1.979662 -1.979675
164.800000 -1.979659 -1.979675
164.850000 -1.979657 -1.979675
164.900000 -1.979655 -1.979675
164.950000 -1.979653 -1.979675
165.000000 -1.979652 -1.979675
165.050000 -1.979652 -1.979675
165.100000 -1.979652 -1.979675
165.150000 -1.979653 -1.979675
165.200000 -1.979654 -1.979675
165.250000 -1.979656 -1.979675
165.300000 -1.979658 -1.979675
165.350000 -1.979661 -1.979675
165.400000 -1.979664 -1.979675
165.450000 -1.979667 -1.979675
165.500000 -1.979670 -1.979675
165.550000 -1.979674 -1.979675
165.600000 -1.979677 -1.979675
165.650000 -1.979681 -1.979675
165.700000 -1.979684 -1.979675
165.750000 -1.979687 -1.979675
165.800000 -1.979689 -1.979675
165.850000 -1.979692 -1.979675
165.900000 -1.979693 -1.979675
165.950000 -1.979695 -1.979675
166.000000 -1.979696 -1.979675
166.050000 -1.979696 -1.979675
166.100000 -1.979696 -1.979675
166.150000 -1.979695 -1.979675
166.200000 -1.979694 -1.979675
166.250000 -1.979692 -1.979675
166.300000 -1.979690 -1.979675
166.350000 -1.979687 -1.979675
166.400000 -1.979684 -1.979675
166.450000 -1.979681 -1.979675
166.500000 -1.979678 -1.979675
166.550000 -1.979675 -1.979675
166.600000 -1.979672 -1.979675
166.650000 -1.979669 -1.979675
166.700000 -1.979666 -1.979675
166.750000 -1.979663 -1.979675
166.800000 -1.979661 -1.979675
166.850000 -1.979659 -1.979675
166.900000 -1.979657 -1.979675
166.950000 -1.979656 -1.979675
167.000000 -1.979655 -1.979675
167.050000 -1.979655 -1.979675
167.100000 -1.979655 -1.979675
167.150000 -1.979656 -1.979675
167.200000 -1.979657 -1.979675
167.250000 -1.979659 -1.979675
167.300000 -1.979661 -1.979675
167.350000 -1.979663 -1.979675
167.400000 -1.979666 -1.979675
167.450000 -1.979669 -1.979675
167.500000 -1.979671 -1.979675
167.550000 -1.979674 -1.979675
167.600000 -1.979677 -1.979675
167.650000 -1.979680 -1.979675
167.700000 -1.979683 -1.979675
167.750000 -1.979686 -1.979675
167.800000 -1.979688 -1.979675
167.850000 -1.979690 -1.979675
167.900000 -1.979691 -1.979675
167.950000 -1.979692 -1.979675
168.000000 -1.979693 -1.979675
168.050000 -1.979693 -1.979675
168.100000 -1.979693 -1.979675
168.150000 -1.979692 -1.979675
168.200000 -1.979691 -1.979675
168.250000 -1.979689 -1.979675
168.300000 -1.979687 -1.979675
168.350000 -1.979685 -1.979675
168.400000 -1.979683 -1.979675
168.450000 -1.979680 -1.979675
168.500000 -1.979677 -1.979675
168.550000 -1.979674 -1.979675
168.600000 -1.979672 -1.979675
168.650000 -1.979669 -1.979675
168.700000 -1.979666 -1.979675
168.750000 -1.979664 -1.979675
168.800000 -1.979662 -1.979675
168.850000 -1.979660 -1.979675
168.900000 -1.979659 -1.979675
168.950000 -1.979658 -1.979675
169.000000 -1.979658 -1.979675
169.050000 -1.979657 -1.979675
169.100000 -1.979658 -1.979675
169.150000 -1.979659 -1.979675
169.200000 -1.979660 -1.979675
169.250000 -1.979661 -1.979675
169.300000 -1.979663 -1.979675
169.350000 -1.979665 -1.979675
169.400000 -1.979667 -1.979675
169.450000 -1.979670 -1.979675
169.500000 -1.979672 -1.979675
169.550000 -1.979675 -1.979675
169.600000 -1.979678 -1.979675
169.650000 -1.979680 -1.979675
169.700000 -1.979682 -1.979675
169.750000 -1.979685 -1.979675
169.800000 -1.979686 -1.979675
169.850000 -1.979688 -1.979675
169.900000 -1.979689 -1.979675
169.950000 -1.979690 -1.979675
170.000000 -1.979690 -1.979675
170.050000 -1.979691 -1.979675
170.100000 -1.979690 -1.979675
170.150000 -1.979689 -1.979675
170.200000 -1.979688 -1.979675
170.250000 -1.979687 -1.979675
170.300000 -1.979685 -1.979675
170.350000 -1.979683 -1.979675
170.400000 -1.979681 -1.979675
170.450000 -1.979679 -1.979675
170.500000 -1.979676 -1.979675
170.550000 -1.979674 -1.979675
170.600000 -1.979671 -1.979675
170.650000 -1.979669 -1.979675
170.700000 -1.979667 -1.979675
170.750000 -1.979665 -1.979675
170.800000 -1.979663 -1.979675
170.850000 -1.979662 -1.979675
170.900000 -1.979661 -1.979675
170.950000 -1.979660 -1.979675
171.000000 -1.979660 -1.979675
171.050000 -1.979660 -1.979675
171.100000 -1.979660 -1.979675
171.150000 -1.979661 -1.979675
171.200000 -1.979662 -1.979675
171.250000 -1.979663 -1.979675
171.300000 -1.979665 -1.979675
171.350000 -1.979667 -1.979675
171.400000 -1.979669 -1.979675
171.450000 -1.979671 -1.979675
171.500000 -1.979673 -1.979675
171.550000 -1.979676 -1.979675
171.600000 -1.979678 -1.979675
171.650000 -1.979680 -1.979675
171.700000 -1.979682 -1.979675
171.750000 -1.979684 -1.979675
171.800000 -1.979685 -1.979675
171.850000 -1.979686 -1.979675
171.900000 -1.979687 -1.979675
171.950000 -1.979688 -1.979675
172.000000 -1.979688 -1.979675
172.050000 -1.979688 -1.979675
172.100000 -1.979688 -1.979675
172.150000 -1.979687 -1.979675
172.200000 -1.979686 -1.979675
172.250000 -1.979685 -1.979675
172.300000 -1.979683 -1.979675
172.350000 -1.979682 -1.979675
172.400000 -1.979680 -1.979675
172.450000 -1.979678 -1.979675
172.500000 -1.979676 -1.979675
172.550000 -1.979673 -1.979675
172.600000 -1.979671 -1.979675
172.650000 -1.979669 -1.979675
172.700000 -1.979668 -1.979675
172.750000 -1.979666 -1.979675
172.800000 -1.979665 -1.979675
172.850000 -1.979663 -1.979675
172.900000 -1.979662 -1.979675
172.950000 -1.979662 -1.979675
173.000000 -1.979662 -1.979675
173.050000 -1.979662 -1.979675
173.100000 -1.979662 -1.979675
173.150000 -1.979663 -1.979675
173.200000 -1.979664 -1.979675
173.250000 -1.979665 -1.979675
173.300000 -1.979667 -1.979675
173.350000 -1.979668 -1.979675
173.400000 -1.979670 -1.979675
173.450000 -1.979672 -1.979675
173.500000 -1.979674 -1.979675
173.550000 -1.979676 -1.979675
173.600000 -1.979678 -1.979675
173.650000 -1.979680 -1.979675
173.700000 -1.979681 -1.979675
173.750000 -1.979683 -1.979675
173.800000 -1.979684 -1.979675
173.850000 -1.979685 -1.979675
173.900000 -1.979686 -1.979675
173.950000 -1.979686 -1.979675
174.000000 -1.979687 -1.979675
174.050000 -1.979687 -1.979675
174.100000 -1.979686 -1.979675
174.150000 -1.979685 -1.979675
174.200000 -1.979684 -1.979675
174.250000 -1.979683 -1.979675
174.300000 -1.979682 -1.979675
174.350000 -1.979680 -1.979675
174.400000 -1.979679 -1.979675
174.450000 -1.979677 -1.979675
174.500000 -1.979675 -1.979675
174.550000 -1.979673 -1.979675
174.600000 -1.979671 -1.979675
174.650000 -1.979670 -1.979675
174.700000 -1.979668 -1.979675
174.750000 -1.979667 -1.979675
174.800000 -1.979666 -1.979675
174.850000 -1.979665 -1.979675
174.900000 -1.979664 -1.979675
174.950000 -1.979664 -1.979675
175.000000 -1.979663 -1.979675
175.050000 -1.979663 -1.979675
175.100000 -1.979664 -1.979675
175.150000 -1.979665 -1.979675
175.200000 -1.979665 -1.979675
175.250000 -1.979667 -1.979675
175.300000 -1.979668 -1.979675
175.350000 -1.979669 -1.979675
175.400000 -1.979671 -1.979675
175.450000 -1.979673 -1.979675
175.500000 -1.979674 -1.979675
175.550000 -1.979676 -1.979675
175.600000 -1.979678 -1.979675
175.650000 -1.979679 -1.979675
175.700000 -1.979681 -1.979675
175.750000 -1.979682 -1.979675
175.800000 -1.979683 -1.979675
175.850000 -1.979684 -1.979675
175.900000 -1.979685 -1.979675
175.950000 -1.979685 -1.979675
176.000000 -1.979685 -1.979675
176.050000 -1.979685 -1.979675
176.100000 -1.979684 -1.979675
176.150000 -1.979684 -1.979675
176.200000 -1.979683 -1.979675
176.250000 -1.979682 -1.979675
176.300000 -1.979681 -1.979675
176.350000 -1.979679 -1.979675
176.400000 -1.979678 -1.979675
176.450000 -1.979676 -1.979675
176.500000 -1.979675 -1.979675
176.550000 -1.979673 -1.979675
176.600000 -1.979671 -1.979675
176.650000 -1.979670 -1.979675
176.700000 -1.979669 -1.979675
176.750000 -1.979668 -1.979675
176.800000 -1.979667 -1.979675
176.850000 -1.979666 -1.979675
176.900000 -1.979665 -1.979675
176.950000 -1.979665 -1.979675
177.000000 -1.979665 -1.979675
177.050000 -1.979665 -1.979675
177.100000 -1.979665 -1.979675
177.150000 -1.979666 -1.979675
177.200000 -1.979667 -1.979675
177.250000 -1.979668 -1.979675
177.300000 -1.979669 -1.979675
177.350000 -1.979670 -1.979675
177.400000 -1.979672 -1.979675
177.450000 -1.979673 -1.979675
177.500000 -1.979675 -1.979675
177.550000 -1.979676 -1.979675
177.600000 -1.979678 -1.979675
177.650000 -1.979679 -1.979675
177.700000 -1.979680 -1.979675
177.750000 -1.979681 -1.979675
177.800000 -1.979682 -1.979675
177.850000 -1.979683 -1.979675
177.900000 -1.979683 -1.979675
177.950000 -1.979684 -1.979675
178.000000 -1.979684 -1.979675
178.050000 -1.979683 -1.979675
178.100000 -1.979683 -1.979675
178.150000 -1.979682 -1.979675
178.200000 -1.979682 -1.979675
178.250000 -1.979681 -1.979675
178.300000 -1.979680 -1.979675
178.350000 -1.979678 -1.979675
178.400000 -1.979677 -1.979675
178.450000 -1.979676 -1.979675
178.500000 -1.979674 -1.979675
178.550000 -1.979673 -1.979675
178.600000 -1.979672 -1.979675
178.650000 -1.979670 -1.979675
178.700000 -1.979669 -1.979675
178.750000 -1.979668 -1.979675
178.800000 -1.979667 -1.979675
178.850000 -1.979667 -1.979675
178.900000 -1.979666 -1.979675
178.950000 -1.979666 -1.979675
179.000000 -1.979666 -1.979675
179.050000 -1.979666 -1.979675
179.100000 -1.979667 -1.979675
179.150000 -1.979667 -1.979675
179.200000 -1.979668 -1.979675
179.250000 -1.979669 -1.979675
179.300000 -1.979670 -1.979675
179.350000 -1.979671 -1.979675
179.400000 -1.979672 -1.979675
179.450000 -1.979674 -1.979675
179.500000 -1.979675 -1.979675
179.550000 -1.979676 -1.979675
179.600000 -1.979677 -1.979675
179.650000 -1.979679 -1.979675
179.700000 -1.979680 -1.979675
179.750000 -1.979681 -1.979675
179.800000 -1.979681 -1.979675
179.850000 -1.979682 -1.979675
179.900000 -1.979682 -1.979675
179.950000 -1.979682 -1.979675
180.000000 -1.979682 -1.979675
180.050000 -1.979682 -1.979675
180.100000 -1.979682 -1.979675
180.150000 -1.979681 -1.979675
180.200000 -1.979681 -1.979675
180.250000 -1.979680 -1.979675
180.300000 -1.979679 -1.979675
180.350000 -1.979678 -1.979675
180.400000 -1.979676 -1.979675
180.450000 -1.979675 -1.979675
180.500000 -1.979674 -1.979675
180.550000 -1.979673 -1.979675
180.600000 -1.979672 -1.979675
180.650000 -1.979671 -1.979675
180.700000 -1.979670 -1.979675
180.750000 -1.979669 -1.979675
180.800000 -1.979668 -1.979675
180.850000 -1.979668 -1.979675
180.900000 -1.979667 -1.979675
180.950000 -1.979667 -1.979675
181.000000 -1.979667 -1.979675
181.050000 -1.979667 -1.979675
181.100000 -1.979668 -1.979675
181.150000 -1.979668 -1.979675
181.200000 -1.979669 -1.979675
181.250000 -1.979670 -1.979675
181.300000 -1.979671 -1.979675
181.350000 -1.979672 -1.979675
181.400000 -1.979673 -1.979675
181.450000 -1.979674 -1.979675
181.500000 -1.979675 -1.979675
181.550000 -1.979676 -1.979675
181.600000 -1.979677 -1.979675
181.650000 -1.979678 -1.979675
181.700000 -1.979679 -1.979675
181.750000 -1.979680 -1.979675
181.800000 -1.979680 -1.979675
181.850000 -1.979681 -1.979675
181.900000 -1.979681 -1.979675
181.950000 -1.979681 -1.979675
182.000000 -1.979681 -1.979675
182.050000 -1.979681 -1.979675
182.100000 -1.979681 -1.979675
182.150000 -1.979680 -1.979675
182.200000 -1.979680 -1.979675
182.250000 -1.979679 -1.979675
182.300000 -1.979678 -1.979675
182.350000 -1.979677 -1.979675
182.400000 -1.979676 -1.979675
182.450000 -1.979675 -1.979675
182.500000 -1.979674 -1.979675
182.550000 -1.979673 -1.979675
182.600000 -1.979672 -1.979675
182.650000 -1.979671 -1.979675
182.700000 -1.979670 -1.979675
182.750000 -1.979670 -1.979675
182.800000 -1.979669 -1.979675
182.850000 -1.979669 -1.979675
182.900000 -1.979668 -1.979675
182.950000 -1.979668 -1.979675
183.000000 -1.979668 -1.979675
183.050000 -1.979668 -1.979675
183.100000 -1.979669 -1.979675
183.150000 -1.979669 -1.979675
183.200000 -1.979670 -1.979675
183.250000 -1.979671 -1.979675
183.300000 -1.979672 -1.979675
183.350000 -1.979672 -1.979675
183.400000 -1.979673 -1.979675
183.450000 -1.979674 -1.979675
183.500000 -1.979675 -1.979675
183.550000 -1.979676 -1.979675
183.600000 -1.979677 -1.979675
183.650000 -1.979678 -1.979675
183.700000 -1.979679 -1.979675
183.750000 -1.979679 -1.979675
183.800000 -1.979680 -1.979675
183.850000 -1.979680 -1.979675
183.900000 -1.979680 -1.979675
183.950000 -1.979680 -1.979675
184.000000 -1.979680 -1.979675
184.050000 -1.979680 -1.979675
184.100000 -1.979680 -1.979675
184.150000 -1.979679 -1.979675
184.200000 -1.979679 -1.979675
184.250000 -1.979678 -1.979675
184.300000 -1.979677 -1.979675
184.350000 -1.979676 -1.979675
184.400000 -1.979676 -1.979675
184.450000 -1.979675 -1.979675
184.500000 -1.979674 -1.979675
184.550000 -1.979673 -1.979675
184.600000 -1.979672 -1.979675
184.650000 -1.979671 -1.979675
184.700000 -1.979671 -1.979675
184.750000 -1.979670 -1.979675
184.800000 -1.979670 -1.979675
184.850000 -1.979669 -1.979675
184.900000 -1.979669 -1.979675
184.950000 -1.979669 -1.979675
185.000000 -1.979669 -1.979675
185.050000 -1.979669 -1.979675
185.100000 -1.979670 -1.979675
185.150000 -1.979670 -1.979675
185.200000 -1.979671 -1.979675
185.250000 -1.979671 -1.979675
185.300000 -1.979672 -1.979675
185.350000 -1.979673 -1.979675
185.400000 -1.979674 -1.979675
185.450000 -1.979675 -1.979675
185.500000 -1.979675 -1.979675
185.550000 -1.979676 -1.979675
185.600000 -1.979677 -1.979675
185.650000 -1.979678 -1.979675
185.700000 -1.979678 -1.979675
185.750000 -1.979679 -1.979675
185.800000 -1.979679 -1.979675
185.850000 -1.979679 -1.979675
185.900000 -1.979680 -1.979675
185.950000 -1.979680 -1.979675
186.000000 -1.979680 -1.979675
186.050000 -1.979679 -1.979675
186.100000 -1.979679 -1.979675
186.150000 -1.979679 -1.979675
186.200000 -1.979678 -1.979675
186.250000 -1.979677 -1.979675
186.300000 -1.979677 -1.979675
186.350000 -1.979676 -1.979675
186.400000 -1.979675 -1.979675
186.450000 -1.979675 -1.979675
186.500000 -1.979674 -1.979675
186.550000 -1.979673 -1.979675
186.600000 -1.979672 -1.979675
186.650000 -1.979672 -1.979675
186.700000 -1.979671 -1.979675
186.750000 -1.979671 -1.979675
186.800000 -1.979670 -1.979675
186.850000 -1.979670 -1.979675
186.900000 -1.979670 -1.979675
186.950000 -1.979670 -1.979675
