fit_time[ns] Functional_fit[mV] Thermal_fit[mV]
3.600000 19.558335 18.490420
3.650000 19.226522 18.075558
3.700000 18.875222 17.669857
3.750000 18.503129 17.273102
3.800000 18.109673 16.885090
3.850000 17.695026 16.505617
3.900000 17.260081 16.134489
3.950000 16.806428 15.771512
4.000000 16.336297 15.416501
4.050000 15.852500 15.069273
4.100000 15.358350 14.729650
4.150000 14.857573 14.397459
4.200000 14.354212 14.072530
4.250000 13.852517 13.754697
4.300000 13.356841 13.443800
4.350000 12.871527 13.139681
4.400000 12.400798 12.842187
4.450000 11.948654 12.551166
4.500000 11.518768 12.266474
4.550000 11.114403 11.987967
4.600000 10.738325 11.715505
4.650000 10.392740 11.448953
4.700000 10.079241 11.188177
4.750000 9.798772 10.933048
4.800000 9.551604 10.683438
4.850000 9.337333 10.439224
4.900000 9.154891 10.200286
4.950000 9.002576 9.966505
5.000000 8.878093 9.737765
5.050000 8.778613 9.513955
5.100000 8.700843 9.294965
5.150000 8.641109 9.080687
5.200000 8.595442 8.871016
5.250000 8.559676 8.665850
5.300000 8.529549 8.465089
5.350000 8.500806 8.268636
5.400000 8.469295 8.076394
5.450000 8.431072 7.888271
5.500000 8.382486 7.704175
5.550000 8.320269 7.524018
5.600000 8.241604 7.347713
5.650000 8.144195 7.175175
5.700000 8.026311 7.006320
5.750000 7.886824 6.841068
5.800000 7.725227 6.679340
5.850000 7.541646 6.521059
5.900000 7.336821 6.366147
5.950000 7.112087 6.214533
6.000000 6.869336 6.066143
6.050000 6.610960 5.920907
6.100000 6.339789 5.778757
6.150000 6.059021 5.639623
6.200000 5.772134 5.503442
6.250000 5.482799 5.370148
6.300000 5.194790 5.239679
6.350000 4.911889 5.111973
6.400000 4.637789 4.986969
6.450000 4.376010 4.864610
6.500000 4.129806 4.744838
6.550000 3.902093 4.627597
6.600000 3.695375 4.512831
6.650000 3.511686 4.400487
6.700000 3.352546 4.290513
6.750000 3.218921 4.182858
6.800000 3.111209 4.077471
6.850000 3.029230 3.974303
6.900000 2.972233 3.873307
6.950000 2.938920 3.774435
7.000000 2.927481 3.677643
7.050000 2.935636 3.582884
7.100000 2.960702 3.490116
7.150000 2.999650 3.399295
7.200000 3.049190 3.310380
7.250000 3.105844 3.223330
7.300000 3.166037 3.138104
7.350000 3.226180 3.054664
7.400000 3.282758 2.972971
7.450000 3.332414 2.892989
7.500000 3.372028 2.814679
7.550000 3.398790 2.738008
7.600000 3.410266 2.662938
7.650000 3.404450 2.589437
7.700000 3.379814 2.517471
7.750000 3.335336 2.447007
7.800000 3.270522 2.378013
7.850000 3.185412 2.310458
7.900000 3.080575 2.244311
7.950000 2.957090 2.179542
8.000000 2.816516 2.116122
8.050000 2.660845 2.054022
8.100000 2.492455 1.993214
8.150000 2.314047 1.933671
8.200000 2.128573 1.875366
8.250000 1.939165 1.818273
8.300000 1.749056 1.762365
8.350000 1.561498 1.707618
8.400000 1.379685 1.654008
8.450000 1.206675 1.601509
8.500000 1.045311 1.550100
8.550000 0.898162 1.499756
8.600000 0.767453 1.450455
8.650000 0.655020 1.402175
8.700000 0.562263 1.354895
8.750000 0.490120 1.308594
8.800000 0.439041 1.263250
8.850000 0.408985 1.218845
8.900000 0.399426 1.175357
8.950000 0.409361 1.132768
9.000000 0.437349 1.091058
9.050000 0.481538 1.050210
9.100000 0.539722 1.010205
9.150000 0.609390 0.971026
9.200000 0.687793 0.932654
9.250000 0.772013 0.895074
9.300000 0.859032 0.858268
9.350000 0.945805 0.822221
9.400000 1.029339 0.786916
9.450000 1.106761 0.752338
9.500000 1.175386 0.718472
9.550000 1.232783 0.685303
9.600000 1.276830 0.652816
9.650000 1.305764 0.620996
9.700000 1.318219 0.589831
9.750000 1.313256 0.559306
9.800000 1.290386 0.529409
9.850000 1.249570 0.500125
9.900000 1.191224 0.471442
9.950000 1.116201 0.443348
10.000000 1.025767 0.415830
10.050000 0.921568 0.388876
10.100000 0.805583 0.362475
10.150000 0.680077 0.336615
10.200000 0.547542 0.311285
10.250000 0.410634 0.286473
10.300000 0.272106 0.262170
10.350000 0.134742 0.238364
10.400000 0.001288 0.215045
10.450000 -0.125615 0.192203
10.500000 -0.243497 0.169828
10.550000 -0.350112 0.147911
10.600000 -0.443495 0.126441
10.650000 -0.522011 0.105410
10.700000 -0.584384 0.084809
10.750000 -0.629733 0.064628
10.800000 -0.657587 0.044859
10.850000 -0.667893 0.025494
10.900000 -0.661016 0.006524
10.950000 -0.637727 -0.012060
11.000000 -0.599179 -0.030264
11.050000 -0.546878 -0.048097
11.100000 -0.482644 -0.065567
11.150000 -0.408562 -0.082681
11.200000 -0.326933 -0.099447
11.250000 -0.240214 -0.115871
11.300000 -0.150957 -0.131961
11.350000 -0.061749 -0.147723
11.400000 0.024855 -0.163165
11.450000 0.106390 -0.178293
11.500000 0.180541 -0.193113
11.550000 0.245201 -0.207632
11.600000 0.298516 -0.221855
11.650000 0.338931 -0.235790
11.700000 0.365221 -0.249442
11.750000 0.376526 -0.262816
11.800000 0.372361 -0.275919
11.850000 0.352628 -0.288756
11.900000 0.317615 -0.301333
11.950000 0.267985 -0.313654
12.000000 0.204760 -0.325726
12.050000 0.129288 -0.337552
12.100000 0.043210 -0.349139
12.150000 -0.051580 -0.360492
12.200000 -0.152988 -0.371614
12.250000 -0.258769 -0.382511
12.300000 -0.366583 -0.393187
12.350000 -0.474056 -0.403647
12.400000 -0.578833 -0.413895
12.450000 -0.678641 -0.423936
12.500000 -0.771339 -0.433774
12.550000 -0.854971 -0.443413
12.600000 -0.927813 -0.452857
12.650000 -0.988411 -0.462109
12.700000 -1.035617 -0.471175
12.750000 -1.068612 -0.480058
12.800000 -1.086925 -0.488761
12.850000 -1.090442 -0.497289
12.900000 -1.079404 -0.505644
12.950000 -1.054401 -0.513830
13.000000 -1.016352 -0.521852
13.050000 -0.966484 -0.529711
13.100000 -0.906297 -0.537412
13.150000 -0.837524 -0.544957
13.200000 -0.762093 -0.552350
13.250000 -0.682071 -0.559594
13.300000 -0.599619 -0.566693
13.350000 -0.516936 -0.573648
13.400000 -0.436204 -0.580463
13.450000 -0.359538 -0.587140
13.500000 -0.288935 -0.593683
13.550000 -0.226224 -0.600095
13.600000 -0.173024 -0.606377
13.650000 -0.130707 -0.612533
13.700000 -0.100367 -0.618565
13.750000 -0.082795 -0.624475
13.800000 -0.078462 -0.630267
13.850000 -0.087509 -0.635942
13.900000 -0.109751 -0.641503
13.950000 -0.144678 -0.646952
14.000000 -0.191474 -0.652292
14.050000 -0.249037 -0.657524
14.100000 -0.316012 -0.662651
14.150000 -0.390820 -0.667675
14.200000 -0.471704 -0.672598
14.250000 -0.556770 -0.677423
14.300000 -0.644034 -0.682150
14.350000 -0.731474 -0.686783
14.400000 -0.817076 -0.691323
14.450000 -0.898885 -0.695771
14.500000 -0.975051 -0.700130
14.550000 -1.043873 -0.704402
14.600000 -1.103842 -0.708588
14.650000 -1.153673 -0.712691
14.700000 -1.192336 -0.716711
14.750000 -1.219078 -0.720650
14.800000 -1.233441 -0.724510
14.850000 -1.235268 -0.728294
14.900000 -1.224708 -0.732001
14.950000 -1.202207 -0.735634
15.000000 -1.168496 -0.739194
15.050000 -1.124572 -0.742683
15.100000 -1.071670 -0.746102
15.150000 -1.011231 -0.749453
15.200000 -0.944867 -0.752737
15.250000 -0.874319 -0.755955
15.300000 -0.801416 -0.759108
15.350000 -0.728026 -0.762199
15.400000 -0.656013 -0.765227
15.450000 -0.587191 -0.768196
15.500000 -0.523283 -0.771104
15.550000 -0.465873 -0.773955
15.600000 -0.416376 -0.776749
15.650000 -0.376002 -0.779487
15.700000 -0.345726 -0.782170
15.750000 -0.326272 -0.784799
15.800000 -0.318089 -0.787376
15.850000 -0.321351 -0.789902
15.900000 -0.335949 -0.792377
15.950000 -0.361500 -0.794803
16.000000 -0.397354 -0.797180
16.050000 -0.442616 -0.799510
16.100000 -0.496168 -0.801793
16.150000 -0.556698 -0.804031
16.200000 -0.622734 -0.806224
16.250000 -0.692680 -0.808374
16.300000 -0.764857 -0.810480
16.350000 -0.837544 -0.812545
16.400000 -0.909020 -0.814568
16.450000 -0.977608 -0.816552
16.500000 -1.041710 -0.818495
16.550000 -1.099852 -0.820400
16.600000 -1.150714 -0.822267
16.650000 -1.193162 -0.824097
16.700000 -1.226278 -0.825890
16.750000 -1.249373 -0.827648
16.800000 -1.262010 -0.829370
16.850000 -1.264006 -0.831058
16.900000 -1.255439 -0.832713
16.950000 -1.236641 -0.834335
17.000000 -1.208192 -0.835924
17.050000 -1.170898 -0.837482
17.100000 -1.125776 -0.839009
17.150000 -1.074021 -0.840506
17.200000 -1.016982 -0.841972
17.250000 -0.956124 -0.843410
17.300000 -0.892991 -0.844819
17.350000 -0.829173 -0.846200
17.400000 -0.766260 -0.847553
17.450000 -0.705808 -0.848880
17.500000 -0.649299 -0.850180
17.550000 -0.598108 -0.851455
17.600000 -0.553470 -0.852704
17.650000 -0.516447 -0.853928
17.700000 -0.487910 -0.855128
17.750000 -0.468515 -0.856304
17.800000 -0.458689 -0.857457
17.850000 -0.458623 -0.858587
17.900000 -0.468269 -0.859695
17.950000 -0.487343 -0.860780
18.000000 -0.515333 -0.861844
18.050000 -0.551512 -0.862887
18.100000 -0.594963 -0.863909
18.150000 -0.644595 -0.864911
18.200000 -0.699178 -0.865893
18.250000 -0.757369 -0.866856
18.300000 -0.817747 -0.867799
18.350000 -0.878852 -0.868724
18.400000 -0.939213 -0.869631
18.450000 -0.997391 -0.870519
18.500000 -1.052012 -0.871390
18.550000 -1.101796 -0.872244
18.600000 -1.145593 -0.873080
18.650000 -1.182405 -0.873900
18.700000 -1.211414 -0.874704
18.750000 -1.231995 -0.875492
18.800000 -1.243735 -0.876265
18.850000 -1.246438 -0.877022
18.900000 -1.240127 -0.877764
18.950000 -1.225048 -0.878491
19.000000 -1.201653 -0.879204
19.050000 -1.170595 -0.879903
19.100000 -1.132708 -0.880588
19.150000 -1.088984 -0.881260
19.200000 -1.040549 -0.881918
19.250000 -0.988634 -0.882563
19.300000 -0.934546 -0.883196
19.350000 -0.879631 -0.883815
19.400000 -0.825247 -0.884423
19.450000 -0.772728 -0.885019
19.500000 -0.723349 -0.885603
19.550000 -0.678301 -0.886175
19.600000 -0.638660 -0.886736
19.650000 -0.605358 -0.887286
19.700000 -0.579171 -0.887825
19.750000 -0.560689 -0.888354
19.800000 -0.550316 -0.888871
19.850000 -0.548251 -0.889379
19.900000 -0.554491 -0.889877
19.950000 -0.568830 -0.890365
20.000000 -0.590868 -0.890843
20.050000 -0.620018 -0.891312
20.100000 -0.655528 -0.891771
20.150000 -0.696494 -0.892222
20.200000 -0.741888 -0.892664
20.250000 -0.790583 -0.893096
20.300000 -0.841377 -0.893521
20.350000 -0.893030 -0.893937
20.400000 -0.944290 -0.894345
20.450000 -0.993923 -0.894744
20.500000 -1.040745 -0.895136
20.550000 -1.083650 -0.895520
20.600000 -1.121634 -0.895897
20.650000 -1.153823 -0.896266
20.700000 -1.179490 -0.896628
20.750000 -1.198070 -0.896982
20.800000 -1.209178 -0.897330
20.850000 -1.212611 -0.897671
20.900000 -1.208354 -0.898005
20.950000 -1.196582 -0.898333
21.000000 -1.177647 -0.898654
21.050000 -1.152075 -0.898968
21.100000 -1.120549 -0.899277
21.150000 -1.083890 -0.899579
21.200000 -1.043037 -0.899876
21.250000 -0.999025 -0.900167
21.300000 -0.952955 -0.900452
21.350000 -0.905972 -0.900731
21.400000 -0.859231 -0.901005
21.450000 -0.813875 -0.901273
21.500000 -0.771002 -0.901536
21.550000 -0.731640 -0.901794
21.600000 -0.696725 -0.902047
21.650000 -0.667078 -0.902295
21.700000 -0.643383 -0.902538
21.750000 -0.626174 -0.902777
21.800000 -0.615825 -0.903010
21.850000 -0.612539 -0.903239
21.900000 -0.616344 -0.903464
21.950000 -0.627098 -0.903684
22.000000 -0.644489 -0.903900
22.050000 -0.668046 -0.904111
22.100000 -0.697154 -0.904318
22.150000 -0.731065 -0.904522
22.200000 -0.768921 -0.904721
22.250000 -0.809776 -0.904916
22.300000 -0.852617 -0.905108
22.350000 -0.896392 -0.905296
22.400000 -0.940033 -0.905480
22.450000 -0.982484 -0.905660
22.500000 -1.022728 -0.905837
22.550000 -1.059808 -0.906011
22.600000 -1.092851 -0.906181
22.650000 -1.121090 -0.906347
22.700000 -1.143882 -0.906511
22.750000 -1.160719 -0.906671
22.800000 -1.171242 -0.906828
22.850000 -1.175252 -0.906982
22.900000 -1.172704 -0.907133
22.950000 -1.163718 -0.907281
23.000000 -1.148566 -0.907426
23.050000 -1.127670 -0.907568
23.100000 -1.101586 -0.907708
23.150000 -1.070994 -0.907844
23.200000 -1.036677 -0.907978
23.250000 -0.999502 -0.908110
23.300000 -0.960399 -0.908238
23.350000 -0.920336 -0.908365
23.400000 -0.880300 -0.908489
23.450000 -0.841267 -0.908610
23.500000 -0.804179 -0.908729
23.550000 -0.769927 -0.908846
23.600000 -0.739325 -0.908960
23.650000 -0.713088 -0.909072
23.700000 -0.691825 -0.909182
23.750000 -0.676014 -0.909290
23.800000 -0.666000 -0.909396
23.850000 -0.661982 -0.909499
23.900000 -0.664013 -0.909601
23.950000 -0.671999 -0.909700
24.000000 -0.685699 -0.909798
24.050000 -0.704739 -0.909894
24.100000 -0.728614 -0.909988
24.150000 -0.756708 -0.910080
24.200000 -0.788307 -0.910170
24.250000 -0.822617 -0.910258
24.300000 -0.858784 -0.910345
24.350000 -0.895916 -0.910430
24.400000 -0.933104 -0.910513
24.450000 -0.969447 -0.910595
24.500000 -1.004069 -0.910675
24.550000 -1.036143 -0.910754
24.600000 -1.064913 -0.910831
24.650000 -1.089707 -0.910906
24.700000 -1.109955 -0.910980
24.750000 -1.125203 -0.911053
24.800000 -1.135122 -0.911124
24.850000 -1.139515 -0.911193
24.900000 -1.138321 -0.911262
24.950000 -1.131614 -0.911329
25.000000 -1.119604 -0.911395
25.050000 -1.102626 -0.911459
25.100000 -1.081133 -0.911522
25.150000 -1.055687 -0.911584
25.200000 -1.026939 -0.911645
25.250000 -0.995616 -0.911705
25.300000 -0.962500 -0.911763
25.350000 -0.928413 -0.911820
25.400000 -0.894194 -0.911876
25.450000 -0.860675 -0.911931
25.500000 -0.828669 -0.911985
25.550000 -0.798943 -0.912038
25.600000 -0.772202 -0.912090
25.650000 -0.749075 -0.912141
25.700000 -0.730096 -0.912191
25.750000 -0.715695 -0.912240
25.800000 -0.706186 -0.912288
25.850000 -0.701765 -0.912335
25.900000 -0.702497 -0.912381
25.950000 -0.708327 -0.912426
26.000000 -0.719073 -0.912470
26.050000 -0.734434 -0.912514
26.100000 -0.754004 -0.912556
26.150000 -0.777272 -0.912598
26.200000 -0.803645 -0.912639
26.250000 -0.832458 -0.912679
26.300000 -0.862993 -0.912718
26.350000 -0.894493 -0.912757
26.400000 -0.926186 -0.912795
26.450000 -0.957301 -0.912832
26.500000 -0.987087 -0.912868
26.550000 -1.014831 -0.912904
26.600000 -1.039876 -0.912939
26.650000 -1.061634 -0.912973
26.700000 -1.079605 -0.913007
26.750000 -1.093382 -0.913040
26.800000 -1.102663 -0.913072
26.850000 -1.107261 -0.913104
26.900000 -1.107100 -0.913135
26.950000 -1.102225 -0.913165
27.000000 -1.092791 -0.913195
27.050000 -1.079064 -0.913224
27.100000 -1.061414 -0.913253
27.150000 -1.040302 -0.913281
27.200000 -1.016269 -0.913309
27.250000 -0.989923 -0.913336
27.300000 -0.961924 -0.913362
27.350000 -0.932966 -0.913388
27.400000 -0.903763 -0.913414
27.450000 -0.875026 -0.913439
27.500000 -0.847451 -0.913463
27.550000 -0.821700 -0.913487
27.600000 -0.798386 -0.913511
27.650000 -0.778056 -0.913534
27.700000 -0.761182 -0.913557
27.750000 -0.748146 -0.913579
27.800000 -0.739237 -0.913601
27.850000 -0.734637 -0.913622
27.900000 -0.734426 -0.913643
27.950000 -0.738574 -0.913664
28.000000 -0.746946 -0.913684
28.050000 -0.759305 -0.913704
28.100000 -0.775321 -0.913723
28.150000 -0.794573 -0.913742
28.200000 -0.816570 -0.913761
28.250000 -0.840755 -0.913779
28.300000 -0.866524 -0.913797
28.350000 -0.893236 -0.913814
28.400000 -0.920236 -0.913831
28.450000 -0.946866 -0.913848
28.500000 -0.972480 -0.913865
28.550000 -0.996466 -0.913881
28.600000 -1.018253 -0.913897
28.650000 -1.037329 -0.913913
28.700000 -1.053252 -0.913928
28.750000 -1.065661 -0.913943
28.800000 -1.074282 -0.913958
28.850000 -1.078935 -0.913972
28.900000 -1.079541 -0.913986
28.950000 -1.076116 -0.914000
29.000000 -1.068777 -0.914014
29.050000 -1.057733 -0.914027
29.100000 -1.043282 -0.914040
29.150000 -1.025803 -0.914053
29.200000 -1.005746 -0.914065
29.250000 -0.983619 -0.914078
29.300000 -0.959977 -0.914090
29.350000 -0.935408 -0.914102
29.400000 -0.910515 -0.914113
29.450000 -0.885908 -0.914125
29.500000 -0.862182 -0.914136
29.550000 -0.839908 -0.914147
29.600000 -0.819616 -0.914158
29.650000 -0.801785 -0.914168
29.700000 -0.786827 -0.914178
29.750000 -0.775085 -0.914189
29.800000 -0.766818 -0.914198
29.850000 -0.762201 -0.914208
29.900000 -0.761316 -0.914218
29.950000 -0.764156 -0.914227
30.000000 -0.770622 -0.914236
30.050000 -0.780528 -0.914245
30.100000 -0.793607 -0.914254
30.150000 -0.809516 -0.914263
30.200000 -0.827845 -0.914271
30.250000 -0.848129 -0.914280
30.300000 -0.869860 -0.914288
30.350000 -0.892499 -0.914296
30.400000 -0.915488 -0.914304
30.450000 -0.938264 -0.914311
30.500000 -0.960278 -0.914319
30.550000 -0.980998 -0.914326
30.600000 -0.999933 -0.914333
30.650000 -1.016636 -0.914341
30.700000 -1.030718 -0.914348
30.750000 -1.041859 -0.914354
30.800000 -1.049811 -0.914361
30.850000 -1.054406 -0.914368
30.900000 -1.055560 -0.914374
30.950000 -1.053271 -0.914380
31.000000 -1.047624 -0.914387
31.050000 -1.038781 -0.914393
31.100000 -1.026985 -0.914399
31.150000 -1.012544 -0.914404
31.200000 -0.995832 -0.914410
31.250000 -0.977274 -0.914416
31.300000 -0.957334 -0.914421
31.350000 -0.936509 -0.914427
31.400000 -0.915313 -0.914432
31.450000 -0.894264 -0.914437
31.500000 -0.873873 -0.914442
31.550000 -0.854630 -0.914447
31.600000 -0.836995 -0.914452
31.650000 -0.821383 -0.914457
31.700000 -0.808159 -0.914462
31.750000 -0.797624 -0.914466
31.800000 -0.790014 -0.914471
31.850000 -0.785491 -0.914475
31.900000 -0.784140 -0.914480
31.950000 -0.785968 -0.914484
32.000000 -0.790907 -0.914488
32.050000 -0.798812 -0.914492
32.100000 -0.809466 -0.914496
32.150000 -0.822589 -0.914500
32.200000 -0.837843 -0.914504
32.250000 -0.854840 -0.914508
32.300000 -0.873152 -0.914512
32.350000 -0.892324 -0.914515
32.400000 -0.911883 -0.914519
32.450000 -0.931351 -0.914522
32.500000 -0.950254 -0.914526
32.550000 -0.968139 -0.914529
32.600000 -0.984577 -0.914533
32.650000 -0.999182 -0.914536
32.700000 -1.011613 -0.914539
32.750000 -1.021584 -0.914542
32.800000 -1.028874 -0.914545
32.850000 -1.033325 -0.914548
32.900000 -1.034853 -0.914551
32.950000 -1.033444 -0.914554
33.000000 -1.029155 -0.914557
33.050000 -1.022113 -0.914560
33.100000 -1.012513 -0.914562
33.150000 -1.000607 -0.914565
33.200000 -0.986704 -0.914568
33.250000 -0.971157 -0.914570
33.300000 -0.954358 -0.914573
33.350000 -0.936725 -0.914575
33.400000 -0.918694 -0.914578
33.450000 -0.900706 -0.914580
33.500000 -0.883198 -0.914582
33.550000 -0.866593 -0.914585
33.600000 -0.851286 -0.914587
33.650000 -0.837641 -0.914589
33.700000 -0.825975 -0.914591
33.750000 -0.816556 -0.914593
33.800000 -0.809596 -0.914595
33.850000 -0.805244 -0.914597
33.900000 -0.803586 -0.914599
33.950000 -0.804640 -0.914601
34.000000 -0.808360 -0.914603
34.050000 -0.814633 -0.914605
34.100000 -0.823287 -0.914607
34.150000 -0.834093 -0.914609
34.200000 -0.846771 -0.914611
34.250000 -0.860997 -0.914612
34.300000 -0.876414 -0.914614
34.350000 -0.892636 -0.914616
34.400000 -0.909265 -0.914617
34.450000 -0.925891 -0.914619
34.500000 -0.942111 -0.914620
34.550000 -0.957533 -0.914622
34.600000 -0.971790 -0.914624
34.650000 -0.984543 -0.914625
34.700000 -0.995495 -0.914626
34.750000 -1.004393 -0.914628
34.800000 -1.011038 -0.914629
34.850000 -1.015285 -0.914631
34.900000 -1.017052 -0.914632
34.950000 -1.016314 -0.914633
35.000000 -1.013110 -0.914635
35.050000 -1.007537 -0.914636
35.100000 -0.999749 -0.914637
35.150000 -0.989954 -0.914638
35.200000 -0.978405 -0.914640
35.250000 -0.965397 -0.914641
35.300000 -0.951259 -0.914642
35.350000 -0.936343 -0.914643
35.400000 -0.921018 -0.914644
35.450000 -0.905660 -0.914645
35.500000 -0.890642 -0.914646
35.550000 -0.876328 -0.914647
35.600000 -0.863059 -0.914648
35.650000 -0.851149 -0.914649
35.700000 -0.840879 -0.914650
35.750000 -0.832484 -0.914651
35.800000 -0.826154 -0.914652
35.850000 -0.822025 -0.914653
35.900000 -0.820182 -0.914654
35.950000 -0.820651 -0.914655
36.000000 -0.823401 -0.914656
36.050000 -0.828349 -0.914657
36.100000 -0.835355 -0.914658
36.150000 -0.844234 -0.914658
36.200000 -0.854755 -0.914659
36.250000 -0.866649 -0.914660
36.300000 -0.879616 -0.914661
36.350000 -0.893331 -0.914662
36.400000 -0.907456 -0.914662
36.450000 -0.921644 -0.914663
36.500000 -0.935550 -0.914664
36.550000 -0.948837 -0.914664
36.600000 -0.961187 -0.914665
36.650000 -0.972308 -0.914666
36.700000 -0.981940 -0.914667
36.750000 -0.989858 -0.914667
36.800000 -0.995886 -0.914668
36.850000 -0.999890 -0.914668
36.900000 -1.001791 -0.914669
36.950000 -1.001558 -0.914670
37.000000 -0.999215 -0.914670
37.050000 -0.994834 -0.914671
37.100000 -0.988539 -0.914671
37.150000 -0.980498 -0.914672
37.200000 -0.970920 -0.914673
37.250000 -0.960051 -0.914673
37.300000 -0.948165 -0.914674
37.350000 -0.935559 -0.914674
37.400000 -0.922546 -0.914675
37.450000 -0.909444 -0.914675
37.500000 -0.896574 -0.914676
37.550000 -0.884247 -0.914676
37.600000 -0.872757 -0.914677
37.650000 -0.862378 -0.914677
37.700000 -0.853353 -0.914677
37.750000 -0.845891 -0.914678
37.800000 -0.840161 -0.914678
37.850000 -0.836288 -0.914679
37.900000 -0.834352 -0.914679
37.950000 -0.834385 -0.914680
38.000000 -0.836370 -0.914680
38.050000 -0.840243 -0.914680
38.100000 -0.845895 -0.914681
38.150000 -0.853175 -0.914681
38.200000 -0.861892 -0.914682
38.250000 -0.871824 -0.914682
38.300000 -0.882718 -0.914682
38.350000 -0.894304 -0.914683
38.400000 -0.906293 -0.914683
38.450000 -0.918390 -0.914683
38.500000 -0.930301 -0.914684
38.550000 -0.941738 -0.914684
38.600000 -0.952425 -0.914684
38.650000 -0.962111 -0.914685
38.700000 -0.970566 -0.914685
38.750000 -0.977595 -0.914685
38.800000 -0.983038 -0.914685
38.850000 -0.986776 -0.914686
38.900000 -0.988732 -0.914686
38.950000 -0.988872 -0.914686
39.000000 -0.987206 -0.914687
39.050000 -0.983791 -0.914687
39.100000 -0.978723 -0.914687
39.150000 -0.972137 -0.914687
39.200000 -0.964208 -0.914688
39.250000 -0.955137 -0.914688
39.300000 -0.945155 -0.914688
39.350000 -0.934511 -0.914688
39.400000 -0.923471 -0.914689
39.450000 -0.912304 -0.914689
39.500000 -0.901284 -0.914689
39.550000 -0.890678 -0.914689
39.600000 -0.880740 -0.914689
39.650000 -0.871706 -0.914690
39.700000 -0.863790 -0.914690
39.750000 -0.857173 -0.914690
39.800000 -0.852009 -0.914690
39.850000 -0.848409 -0.914690
39.900000 -0.846449 -0.914691
39.950000 -0.846165 -0.914691
40.000000 -0.847548 -0.914691
40.050000 -0.850554 -0.914691
40.100000 -0.855095 -0.914691
40.150000 -0.861049 -0.914692
40.200000 -0.868260 -0.914692
40.250000 -0.876542 -0.914692
40.300000 -0.885687 -0.914692
40.350000 -0.895463 -0.914692
40.400000 -0.905630 -0.914692
40.450000 -0.915936 -0.914693
40.500000 -0.926130 -0.914693
40.550000 -0.935965 -0.914693
40.600000 -0.945204 -0.914693
40.650000 -0.953628 -0.914693
40.700000 -0.961039 -0.914693
40.750000 -0.967263 -0.914693
40.800000 -0.972160 -0.914694
40.850000 -0.975621 -0.914694
40.900000 -0.977572 -0.914694
40.950000 -0.977979 -0.914694
41.000000 -0.976845 -0.914694
41.050000 -0.974208 -0.914694
41.100000 -0.970145 -0.914694
41.150000 -0.964766 -0.914694
41.200000 -0.958212 -0.914695
41.250000 -0.950652 -0.914695
41.300000 -0.942278 -0.914695
41.350000 -0.933300 -0.914695
41.400000 -0.923941 -0.914695
41.450000 -0.914432 -0.914695
41.500000 -0.905004 -0.914695
41.550000 -0.895888 -0.914695
41.600000 -0.887301 -0.914695
41.650000 -0.879448 -0.914696
41.700000 -0.872515 -0.914696
41.750000 -0.866663 -0.914696
41.800000 -0.862025 -0.914696
41.850000 -0.858704 -0.914696
41.900000 -0.856772 -0.914696
41.950000 -0.856263 -0.914696
42.000000 -0.857179 -0.914696
42.050000 -0.859486 -0.914696
42.100000 -0.863118 -0.914696
42.150000 -0.867974 -0.914696
42.200000 -0.873929 -0.914696
42.250000 -0.880826 -0.914697
42.300000 -0.888493 -0.914697
42.350000 -0.896736 -0.914697
42.400000 -0.905350 -0.914697
42.450000 -0.914123 -0.914697
42.500000 -0.922840 -0.914697
42.550000 -0.931289 -0.914697
42.600000 -0.939268 -0.914697
42.650000 -0.946587 -0.914697
42.700000 -0.953071 -0.914697
42.750000 -0.958571 -0.914697
42.800000 -0.962960 -0.914697
42.850000 -0.966141 -0.914697
42.900000 -0.968046 -0.914697
42.950000 -0.968639 -0.914697
43.000000 -0.967915 -0.914698
43.050000 -0.965903 -0.914698
43.100000 -0.962662 -0.914698
43.150000 -0.958280 -0.914698
43.200000 -0.952874 -0.914698
43.250000 -0.946582 -0.914698
43.300000 -0.939565 -0.914698
43.350000 -0.932000 -0.914698
43.400000 -0.924073 -0.914698
43.450000 -0.915982 -0.914698
43.500000 -0.907924 -0.914698
43.550000 -0.900095 -0.914698
43.600000 -0.892683 -0.914698
43.650000 -0.885865 -0.914698
43.700000 -0.879803 -0.914698
43.750000 -0.874637 -0.914698
43.800000 -0.870486 -0.914698
43.850000 -0.867444 -0.914698
43.900000 -0.865574 -0.914698
43.950000 -0.864914 -0.914698
44.000000 -0.865470 -0.914698
44.050000 -0.867218 -0.914699
44.100000 -0.870107 -0.914699
44.150000 -0.874057 -0.914699
44.200000 -0.878964 -0.914699
44.250000 -0.884700 -0.914699
44.300000 -0.891121 -0.914699
44.350000 -0.898064 -0.914699
44.400000 -0.905356 -0.914699
44.450000 -0.912817 -0.914699
44.500000 -0.920265 -0.914699
44.550000 -0.927518 -0.914699
44.600000 -0.934401 -0.914699
44.650000 -0.940751 -0.914699
44.700000 -0.946417 -0.914699
44.750000 -0.951267 -0.914699
44.800000 -0.955189 -0.914699
44.850000 -0.958095 -0.914699
44.900000 -0.959923 -0.914699
44.950000 -0.960637 -0.914699
45.000000 -0.960228 -0.914699
45.050000 -0.958716 -0.914699
45.100000 -0.956145 -0.914699
45.150000 -0.952587 -0.914699
45.200000 -0.948136 -0.914699
45.250000 -0.942907 -0.914699
45.300000 -0.937034 -0.914699
45.350000 -0.930665 -0.914699
45.400000 -0.923958 -0.914699
45.450000 -0.917079 -0.914699
45.500000 -0.910197 -0.914699
45.550000 -0.903480 -0.914699
45.600000 -0.897088 -0.914699
45.650000 -0.891176 -0.914699
45.700000 -0.885882 -0.914699
45.750000 -0.881332 -0.914699
45.800000 -0.877629 -0.914699
45.850000 -0.874856 -0.914699
45.900000 -0.873075 -0.914700
45.950000 -0.872320 -0.914700
46.000000 -0.872601 -0.914700
46.050000 -0.873904 -0.914700
46.100000 -0.876188 -0.914700
46.150000 -0.879390 -0.914700
46.200000 -0.883426 -0.914700
46.250000 -0.888190 -0.914700
46.300000 -0.893560 -0.914700
46.350000 -0.899402 -0.914700
46.400000 -0.905570 -0.914700
46.450000 -0.911910 -0.914700
46.500000 -0.918268 -0.914700
46.550000 -0.924488 -0.914700
46.600000 -0.930421 -0.914700
46.650000 -0.935925 -0.914700
46.700000 -0.940868 -0.914700
46.750000 -0.945136 -0.914700
46.800000 -0.948630 -0.914700
46.850000 -0.951272 -0.914700
46.900000 -0.953003 -0.914700
46.950000 -0.953789 -0.914700
47.000000 -0.953618 -0.914700
47.050000 -0.952502 -0.914700
47.100000 -0.950476 -0.914700
47.150000 -0.947597 -0.914700
47.200000 -0.943940 -0.914700
47.250000 -0.939601 -0.914700
47.300000 -0.934692 -0.914700
47.350000 -0.929335 -0.914700
47.400000 -0.923665 -0.914700
47.450000 -0.917822 -0.914700
47.500000 -0.911950 -0.914700
47.550000 -0.906191 -0.914700
47.600000 -0.900685 -0.914700
47.650000 -0.895564 -0.914700
47.700000 -0.890948 -0.914700
47.750000 -0.886947 -0.914700
47.800000 -0.883653 -0.914700
47.850000 -0.881139 -0.914700
47.900000 -0.879462 -0.914700
47.950000 -0.878654 -0.914700
48.000000 -0.878730 -0.914700
48.050000 -0.879679 -0.914700
48.100000 -0.881473 -0.914700
48.150000 -0.884060 -0.914700
48.200000 -0.887372 -0.914700
48.250000 -0.891321 -0.914700
48.300000 -0.895808 -0.914700
48.350000 -0.900719 -0.914700
48.400000 -0.905930 -0.914700
48.450000 -0.911313 -0.914700
48.500000 -0.916736 -0.914700
48.550000 -0.922066 -0.914700
48.600000 -0.927175 -0.914700
48.650000 -0.931939 -0.914700
48.700000 -0.936247 -0.914700
48.750000 -0.939997 -0.914700
48.800000 -0.943101 -0.914700
48.850000 -0.945490 -0.914700
48.900000 -0.947112 -0.914700
48.950000 -0.947933 -0.914700
49.000000 -0.947939 -0.914700
49.050000 -0.947137 -0.914700
49.100000 -0.945552 -0.914700
49.150000 -0.943230 -0.914700
49.200000 -0.940233 -0.914700
49.250000 -0.936639 -0.914700
49.300000 -0.932540 -0.914700
49.350000 -0.928039 -0.914700
49.400000 -0.923250 -0.914700
49.450000 -0.918292 -0.914700
49.500000 -0.913285 -0.914700
49.550000 -0.908353 -0.914700
49.600000 -0.903614 -0.914700
49.650000 -0.899183 -0.914700
49.700000 -0.895164 -0.914700
49.750000 -0.891652 -0.914700
49.800000 -0.888728 -0.914700
49.850000 -0.886459 -0.914700
49.900000 -0.884895 -0.914700
49.950000 -0.884068 -0.914700
50.000000 -0.883992 -0.914700
50.050000 -0.884664 -0.914700
50.100000 -0.886061 -0.914700
50.150000 -0.888143 -0.914700
50.200000 -0.890854 -0.914700
50.250000 -0.894123 -0.914700
50.300000 -0.897867 -0.914700
50.350000 -0.901990 -0.914700
50.400000 -0.906389 -0.914700
50.450000 -0.910956 -0.914700
50.500000 -0.915577 -0.914700
50.550000 -0.920141 -0.914700
50.600000 -0.924535 -0.914700
50.650000 -0.928656 -0.914700
50.700000 -0.932404 -0.914700
50.750000 -0.935693 -0.914700
50.800000 -0.938444 -0.914700
50.850000 -0.940597 -0.914700
50.900000 -0.942102 -0.914700
50.950000 -0.942930 -0.914700
51.000000 -0.943064 -0.914700
51.050000 -0.942508 -0.914700
51.100000 -0.941280 -0.914700
51.150000 -0.939415 -0.914700
51.200000 -0.936965 -0.914700
51.250000 -0.933992 -0.914700
51.300000 -0.930574 -0.914700
51.350000 -0.926798 -0.914700
51.400000 -0.922757 -0.914700
51.450000 -0.918552 -0.914700
51.500000 -0.914287 -0.914700
51.550000 -0.910066 -0.914700
51.600000 -0.905992 -0.914700
51.650000 -0.902161 -0.914700
51.700000 -0.898666 -0.914700
51.750000 -0.895589 -0.914700
51.800000 -0.893000 -0.914700
51.850000 -0.890960 -0.914700
51.900000 -0.889514 -0.914700
51.950000 -0.888691 -0.914700
52.000000 -0.888507 -0.914700
52.050000 -0.888962 -0.914700
52.100000 -0.890039 -0.914700
52.150000 -0.891706 -0.914700
52.200000 -0.893920 -0.914700
52.250000 -0.896622 -0.914700
52.300000 -0.899741 -0.914700
52.350000 -0.903199 -0.914700
52.400000 -0.906910 -0.914700
52.450000 -0.910780 -0.914700
52.500000 -0.914715 -0.914700
52.550000 -0.918619 -0.914700
52.600000 -0.922396 -0.914700
52.650000 -0.925956 -0.914700
52.700000 -0.929214 -0.914700
52.750000 -0.932093 -0.914700
52.800000 -0.934526 -0.914700
52.850000 -0.936458 -0.914700
52.900000 -0.937846 -0.914700
52.950000 -0.938659 -0.914700
53.000000 -0.938884 -0.914700
53.050000 -0.938519 -0.914700
53.100000 -0.937577 -0.914700
53.150000 -0.936087 -0.914700
53.200000 -0.934089 -0.914700
53.250000 -0.931635 -0.914700
53.300000 -0.928789 -0.914700
53.350000 -0.925623 -0.914700
53.400000 -0.922217 -0.914700
53.450000 -0.918655 -0.914700
53.500000 -0.915025 -0.914700
53.550000 -0.911416 -0.914700
53.600000 -0.907915 -0.914700
53.650000 -0.904608 -0.914700
53.700000 -0.901572 -0.914700
53.750000 -0.898879 -0.914700
53.800000 -0.896593 -0.914700
53.850000 -0.894765 -0.914700
53.900000 -0.893436 -0.914700
53.950000 -0.892635 -0.914700
54.000000 -0.892377 -0.914700
54.050000 -0.892664 -0.914700
54.100000 -0.893484 -0.914700
54.150000 -0.894813 -0.914700
54.200000 -0.896616 -0.914700
54.250000 -0.898844 -0.914700
54.300000 -0.901440 -0.914700
54.350000 -0.904337 -0.914700
54.400000 -0.907464 -0.914700
54.450000 -0.910741 -0.914700
54.500000 -0.914089 -0.914700
54.550000 -0.917425 -0.914700
54.600000 -0.920668 -0.914700
54.650000 -0.923741 -0.914700
54.700000 -0.926569 -0.914700
54.750000 -0.929086 -0.914700
54.800000 -0.931233 -0.914700
54.850000 -0.932961 -0.914700
54.900000 -0.934232 -0.914700
54.950000 -0.935017 -0.914700
55.000000 -0.935302 -0.914700
55.050000 -0.935084 -0.914700
55.100000 -0.934372 -0.914700
55.150000 -0.933188 -0.914700
55.200000 -0.931563 -0.914700
55.250000 -0.929541 -0.914700
55.300000 -0.927175 -0.914700
55.350000 -0.924524 -0.914700
55.400000 -0.921655 -0.914700
55.450000 -0.918640 -0.914700
55.500000 -0.915553 -0.914700
55.550000 -0.912470 -0.914700
55.600000 -0.909466 -0.914700
55.650000 -0.906612 -0.914700
55.700000 -0.903979 -0.914700
55.750000 -0.901626 -0.914700
55.800000 -0.899611 -0.914700
55.850000 -0.897978 -0.914700
55.900000 -0.896765 -0.914700
55.950000 -0.895998 -0.914700
56.000000 -0.895691 -0.914700
56.050000 -0.895849 -0.914700
56.100000 -0.896465 -0.914700
56.150000 -0.897518 -0.914700
56.200000 -0.898982 -0.914700
56.250000 -0.900815 -0.914700
56.300000 -0.902972 -0.914700
56.350000 -0.905397 -0.914700
56.400000 -0.908029 -0.914700
56.450000 -0.910802 -0.914700
56.500000 -0.913647 -0.914700
56.550000 -0.916496 -0.914700
56.600000 -0.919279 -0.914700
56.650000 -0.921928 -0.914700
56.700000 -0.924380 -0.914700
56.750000 -0.926577 -0.914700
56.800000 -0.928468 -0.914700
56.850000 -0.930009 -0.914700
56.900000 -0.931166 -0.914700
56.950000 -0.931913 -0.914700
57.000000 -0.932236 -0.914700
57.050000 -0.932130 -0.914700
57.100000 -0.931601 -0.914700
57.150000 -0.930665 -0.914700
57.200000 -0.929348 -0.914700
57.250000 -0.927686 -0.914700
57.300000 -0.925721 -0.914700
57.350000 -0.923504 -0.914700
57.400000 -0.921091 -0.914700
57.450000 -0.918541 -0.914700
57.500000 -0.915918 -0.914700
57.550000 -0.913286 -0.914700
57.600000 -0.910710 -0.914700
57.650000 -0.908251 -0.914700
57.700000 -0.905969 -0.914700
57.750000 -0.903917 -0.914700
57.800000 -0.902143 -0.914700
57.850000 -0.900689 -0.914700
57.900000 -0.899587 -0.914700
57.950000 -0.898862 -0.914700
58.000000 -0.898527 -0.914700
58.050000 -0.898588 -0.914700
58.100000 -0.899041 -0.914700
58.150000 -0.899871 -0.914700
58.200000 -0.901054 -0.914700
58.250000 -0.902560 -0.914700
58.300000 -0.904350 -0.914700
58.350000 -0.906376 -0.914700
58.400000 -0.908589 -0.914700
58.450000 -0.910933 -0.914700
58.500000 -0.913350 -0.914700
58.550000 -0.915781 -0.914700
58.600000 -0.918166 -0.914700
58.650000 -0.920448 -0.914700
58.700000 -0.922571 -0.914700
58.750000 -0.924487 -0.914700
58.800000 -0.926149 -0.914700
58.850000 -0.927520 -0.914700
58.900000 -0.928568 -0.914700
58.950000 -0.929271 -0.914700
59.000000 -0.929614 -0.914700
59.050000 -0.929591 -0.914700
59.100000 -0.929207 -0.914700
59.150000 -0.928473 -0.914700
59.200000 -0.927410 -0.914700
59.250000 -0.926046 -0.914700
59.300000 -0.924417 -0.914700
59.350000 -0.922565 -0.914700
59.400000 -0.920537 -0.914700
59.450000 -0.918382 -0.914700
59.500000 -0.916156 -0.914700
59.550000 -0.913911 -0.914700
59.600000 -0.911704 -0.914700
59.650000 -0.909587 -0.914700
59.700000 -0.907611 -0.914700
59.750000 -0.905824 -0.914700
59.800000 -0.904266 -0.914700
59.850000 -0.902974 -0.914700
59.900000 -0.901978 -0.914700
59.950000 -0.901299 -0.914700
60.000000 -0.900952 -0.914700
60.050000 -0.900941 -0.914700
60.100000 -0.901265 -0.914700
60.150000 -0.901914 -0.914700
60.200000 -0.902867 -0.914700
60.250000 -0.904102 -0.914700
60.300000 -0.905583 -0.914700
60.350000 -0.907275 -0.914700
60.400000 -0.909134 -0.914700
60.450000 -0.911114 -0.914700
60.500000 -0.913165 -0.914700
60.550000 -0.915237 -0.914700
60.600000 -0.917279 -0.914700
60.650000 -0.919243 -0.914700
60.700000 -0.921080 -0.914700
60.750000 -0.922748 -0.914700
60.800000 -0.924207 -0.914700
60.850000 -0.925423 -0.914700
60.900000 -0.926369 -0.914700
60.950000 -0.927023 -0.914700
61.000000 -0.927373 -0.914700
61.050000 -0.927411 -0.914700
61.100000 -0.927141 -0.914700
61.150000 -0.926570 -0.914700
61.200000 -0.925715 -0.914700
61.250000 -0.924599 -0.914700
61.300000 -0.923251 -0.914700
61.350000 -0.921706 -0.914700
61.400000 -0.920003 -0.914700
61.450000 -0.918184 -0.914700
61.500000 -0.916296 -0.914700
61.550000 -0.914383 -0.914700
61.600000 -0.912494 -0.914700
61.650000 -0.910673 -0.914700
61.700000 -0.908964 -0.914700
61.750000 -0.907409 -0.914700
61.800000 -0.906043 -0.914700
61.850000 -0.904899 -0.914700
61.900000 -0.904002 -0.914700
61.950000 -0.903372 -0.914700
62.000000 -0.903023 -0.914700
62.050000 -0.902960 -0.914700
62.100000 -0.903184 -0.914700
62.150000 -0.903686 -0.914700
62.200000 -0.904451 -0.914700
62.250000 -0.905460 -0.914700
62.300000 -0.906685 -0.914700
62.350000 -0.908096 -0.914700
62.400000 -0.909655 -0.914700
62.450000 -0.911326 -0.914700
62.500000 -0.913064 -0.914700
62.550000 -0.914829 -0.914700
62.600000 -0.916577 -0.914700
62.650000 -0.918265 -0.914700
62.700000 -0.919853 -0.914700
62.750000 -0.921303 -0.914700
62.800000 -0.922581 -0.914700
62.850000 -0.923658 -0.914700
62.900000 -0.924508 -0.914700
62.950000 -0.925112 -0.914700
63.000000 -0.925459 -0.914700
63.050000 -0.925541 -0.914700
63.100000 -0.925360 -0.914700
63.150000 -0.924920 -0.914700
63.200000 -0.924235 -0.914700
63.250000 -0.923324 -0.914700
63.300000 -0.922211 -0.914700
63.350000 -0.920924 -0.914700
63.400000 -0.919495 -0.914700
63.450000 -0.917962 -0.914700
63.500000 -0.916361 -0.914700
63.550000 -0.914733 -0.914700
63.600000 -0.913117 -0.914700
63.650000 -0.911552 -0.914700
63.700000 -0.910076 -0.914700
63.750000 -0.908725 -0.914700
63.800000 -0.907529 -0.914700
63.850000 -0.906518 -0.914700
63.900000 -0.905713 -0.914700
63.950000 -0.905133 -0.914700
64.000000 -0.904791 -0.914700
64.050000 -0.904692 -0.914700
64.100000 -0.904837 -0.914700
64.150000 -0.905221 -0.914700
64.200000 -0.905833 -0.914700
64.250000 -0.906655 -0.914700
64.300000 -0.907666 -0.914700
64.350000 -0.908840 -0.914700
64.400000 -0.910148 -0.914700
64.450000 -0.911555 -0.914700
64.500000 -0.913028 -0.914700
64.550000 -0.914530 -0.914700
64.600000 -0.916025 -0.914700
64.650000 -0.917475 -0.914700
64.700000 -0.918846 -0.914700
64.750000 -0.920105 -0.914700
64.800000 -0.921223 -0.914700
64.850000 -0.922174 -0.914700
64.900000 -0.922935 -0.914700
64.950000 -0.923490 -0.914700
65.000000 -0.923827 -0.914700
65.050000 -0.923939 -0.914700
65.100000 -0.923825 -0.914700
65.150000 -0.923491 -0.914700
65.200000 -0.922946 -0.914700
65.250000 -0.922204 -0.914700
65.300000 -0.921286 -0.914700
65.350000 -0.920215 -0.914700
65.400000 -0.919019 -0.914700
65.450000 -0.917727 -0.914700
65.500000 -0.916372 -0.914700
65.550000 -0.914987 -0.914700
65.600000 -0.913606 -0.914700
65.650000 -0.912262 -0.914700
65.700000 -0.910989 -0.914700
65.750000 -0.909815 -0.914700
65.800000 -0.908770 -0.914700
65.850000 -0.907878 -0.914700
65.900000 -0.907158 -0.914700
65.950000 -0.906628 -0.914700
66.000000 -0.906298 -0.914700
66.050000 -0.906175 -0.914700
66.100000 -0.906260 -0.914700
66.150000 -0.906550 -0.914700
66.200000 -0.907036 -0.914700
66.250000 -0.907704 -0.914700
66.300000 -0.908537 -0.914700
66.350000 -0.909513 -0.914700
66.400000 -0.910608 -0.914700
66.450000 -0.911793 -0.914700
66.500000 -0.913040 -0.914700
66.550000 -0.914317 -0.914700
66.600000 -0.915593 -0.914700
66.650000 -0.916838 -0.914700
66.700000 -0.918020 -0.914700
66.750000 -0.919113 -0.914700
66.800000 -0.920089 -0.914700
66.850000 -0.920927 -0.914700
66.900000 -0.921607 -0.914700
66.950000 -0.922113 -0.914700
67.000000 -0.922435 -0.914700
67.050000 -0.922566 -0.914700
67.100000 -0.922505 -0.914700
67.150000 -0.922255 -0.914700
67.200000 -0.921823 -0.914700
67.250000 -0.921222 -0.914700
67.300000 -0.920466 -0.914700
67.350000 -0.919577 -0.914700
67.400000 -0.918576 -0.914700
67.450000 -0.917488 -0.914700
67.500000 -0.916342 -0.914700
67.550000 -0.915164 -0.914700
67.600000 -0.913985 -0.914700
67.650000 -0.912833 -0.914700
67.700000 -0.911735 -0.914700
67.750000 -0.910718 -0.914700
67.800000 -0.909806 -0.914700
67.850000 -0.909020 -0.914700
67.900000 -0.908378 -0.914700
67.950000 -0.907896 -0.914700
68.000000 -0.907582 -0.914700
68.050000 -0.907445 -0.914700
68.100000 -0.907484 -0.914700
68.150000 -0.907699 -0.914700
68.200000 -0.908083 -0.914700
68.250000 -0.908624 -0.914700
68.300000 -0.909309 -0.914700
68.350000 -0.910119 -0.914700
68.400000 -0.911034 -0.914700
68.450000 -0.912031 -0.914700
68.500000 -0.913086 -0.914700
68.550000 -0.914171 -0.914700
68.600000 -0.915260 -0.914700
68.650000 -0.916327 -0.914700
68.700000 -0.917346 -0.914700
68.750000 -0.918292 -0.914700
68.800000 -0.919144 -0.914700
68.850000 -0.919881 -0.914700
68.900000 -0.920486 -0.914700
68.950000 -0.920946 -0.914700
69.000000 -0.921250 -0.914700
69.050000 -0.921392 -0.914700
69.100000 -0.921371 -0.914700
69.150000 -0.921187 -0.914700
69.200000 -0.920847 -0.914700
69.250000 -0.920361 -0.914700
69.300000 -0.919741 -0.914700
69.350000 -0.919003 -0.914700
69.400000 -0.918166 -0.914700
69.450000 -0.917252 -0.914700
69.500000 -0.916283 -0.914700
69.550000 -0.915283 -0.914700
69.600000 -0.914277 -0.914700
69.650000 -0.913290 -0.914700
69.700000 -0.912344 -0.914700
69.750000 -0.911463 -0.914700
69.800000 -0.910668 -0.914700
69.850000 -0.909978 -0.914700
69.900000 -0.909407 -0.914700
69.950000 -0.908970 -0.914700
70.000000 -0.908676 -0.914700
70.050000 -0.908530 -0.914700
70.100000 -0.908536 -0.914700
70.150000 -0.908692 -0.914700
70.200000 -0.908992 -0.914700
70.250000 -0.909429 -0.914700
70.300000 -0.909991 -0.914700
70.350000 -0.910662 -0.914700
70.400000 -0.911427 -0.914700
70.450000 -0.912265 -0.914700
70.500000 -0.913155 -0.914700
70.550000 -0.914076 -0.914700
70.600000 -0.915005 -0.914700
70.650000 -0.915919 -0.914700
70.700000 -0.916796 -0.914700
70.750000 -0.917616 -0.914700
70.800000 -0.918357 -0.914700
70.850000 -0.919004 -0.914700
70.900000 -0.919542 -0.914700
70.950000 -0.919957 -0.914700
71.000000 -0.920241 -0.914700
71.050000 -0.920388 -0.914700
71.100000 -0.920396 -0.914700
71.150000 -0.920265 -0.914700
71.200000 -0.920000 -0.914700
71.250000 -0.919608 -0.914700
71.300000 -0.919100 -0.914700
71.350000 -0.918489 -0.914700
71.400000 -0.917791 -0.914700
71.450000 -0.917023 -0.914700
71.500000 -0.916205 -0.914700
71.550000 -0.915356 -0.914700
71.600000 -0.914499 -0.914700
71.650000 -0.913653 -0.914700
71.700000 -0.912840 -0.914700
71.750000 -0.912078 -0.914700
71.800000 -0.911386 -0.914700
71.850000 -0.910780 -0.914700
71.900000 -0.910274 -0.914700
71.950000 -0.909880 -0.914700
72.000000 -0.909606 -0.914700
72.050000 -0.909458 -0.914700
72.100000 -0.909439 -0.914700
72.150000 -0.909548 -0.914700
72.200000 -0.909781 -0.914700
72.250000 -0.910133 -0.914700
72.300000 -0.910592 -0.914700
72.350000 -0.911148 -0.914700
72.400000 -0.911785 -0.914700
72.450000 -0.912489 -0.914700
72.500000 -0.913240 -0.914700
72.550000 -0.914022 -0.914700
72.600000 -0.914813 -0.914700
72.650000 -0.915595 -0.914700
72.700000 -0.916350 -0.914700
72.750000 -0.917058 -0.914700
72.800000 -0.917704 -0.914700
72.850000 -0.918271 -0.914700
72.900000 -0.918747 -0.914700
72.950000 -0.919120 -0.914700
73.000000 -0.919384 -0.914700
73.050000 -0.919531 -0.914700
73.100000 -0.919560 -0.914700
73.150000 -0.919470 -0.914700
73.200000 -0.919265 -0.914700
73.250000 -0.918951 -0.914700
73.300000 -0.918536 -0.914700
73.350000 -0.918031 -0.914700
73.400000 -0.917448 -0.914700
73.450000 -0.916804 -0.914700
73.500000 -0.916114 -0.914700
73.550000 -0.915395 -0.914700
73.600000 -0.914665 -0.914700
73.650000 -0.913941 -0.914700
73.700000 -0.913241 -0.914700
73.750000 -0.912583 -0.914700
73.800000 -0.911981 -0.914700
73.850000 -0.911451 -0.914700
73.900000 -0.911003 -0.914700
73.950000 -0.910649 -0.914700
74.000000 -0.910396 -0.914700
74.050000 -0.910250 -0.914700
74.100000 -0.910214 -0.914700
74.150000 -0.910286 -0.914700
74.200000 -0.910466 -0.914700
74.250000 -0.910747 -0.914700
74.300000 -0.911122 -0.914700
74.350000 -0.911580 -0.914700
74.400000 -0.912112 -0.914700
74.450000 -0.912701 -0.914700
74.500000 -0.913335 -0.914700
74.550000 -0.913997 -0.914700
74.600000 -0.914671 -0.914700
74.650000 -0.915340 -0.914700
74.700000 -0.915988 -0.914700
74.750000 -0.916600 -0.914700
74.800000 -0.917161 -0.914700
74.850000 -0.917657 -0.914700
74.900000 -0.918078 -0.914700
74.950000 -0.918413 -0.914700
75.000000 -0.918655 -0.914700
75.050000 -0.918799 -0.914700
75.100000 -0.918843 -0.914700
75.150000 -0.918785 -0.914700
75.200000 -0.918628 -0.914700
75.250000 -0.918377 -0.914700
75.300000 -0.918039 -0.914700
75.350000 -0.917622 -0.914700
75.400000 -0.917138 -0.914700
75.450000 -0.916598 -0.914700
75.500000 -0.916016 -0.914700
75.550000 -0.915407 -0.914700
75.600000 -0.914786 -0.914700
75.650000 -0.914167 -0.914700
75.700000 -0.913566 -0.914700
75.750000 -0.912998 -0.914700
75.800000 -0.912476 -0.914700
75.850000 -0.912011 -0.914700
75.900000 -0.911616 -0.914700
75.950000 -0.911299 -0.914700
76.000000 -0.911068 -0.914700
76.050000 -0.910926 -0.914700
76.100000 -0.910877 -0.914700
76.150000 -0.910922 -0.914700
76.200000 -0.911058 -0.914700
76.250000 -0.911282 -0.914700
76.300000 -0.911587 -0.914700
76.350000 -0.911965 -0.914700
76.400000 -0.912407 -0.914700
76.450000 -0.912901 -0.914700
76.500000 -0.913435 -0.914700
76.550000 -0.913995 -0.914700
76.600000 -0.914568 -0.914700
76.650000 -0.915140 -0.914700
76.700000 -0.915697 -0.914700
76.750000 -0.916224 -0.914700
76.800000 -0.916711 -0.914700
76.850000 -0.917145 -0.914700
76.900000 -0.917516 -0.914700
76.950000 -0.917815 -0.914700
77.000000 -0.918037 -0.914700
77.050000 -0.918175 -0.914700
77.100000 -0.918228 -0.914700
77.150000 -0.918195 -0.914700
77.200000 -0.918077 -0.914700
77.250000 -0.917878 -0.914700
77.300000 -0.917603 -0.914700
77.350000 -0.917260 -0.914700
77.400000 -0.916857 -0.914700
77.450000 -0.916405 -0.914700
77.500000 -0.915916 -0.914700
77.550000 -0.915400 -0.914700
77.600000 -0.914872 -0.914700
77.650000 -0.914343 -0.914700
77.700000 -0.913828 -0.914700
77.750000 -0.913338 -0.914700
77.800000 -0.912885 -0.914700
77.850000 -0.912479 -0.914700
77.900000 -0.912131 -0.914700
77.950000 -0.911848 -0.914700
78.000000 -0.911637 -0.914700
78.050000 -0.911502 -0.914700
78.100000 -0.911446 -0.914700
78.150000 -0.911469 -0.914700
78.200000 -0.911571 -0.914700
78.250000 -0.911748 -0.914700
78.300000 -0.911995 -0.914700
78.350000 -0.912306 -0.914700
78.400000 -0.912673 -0.914700
78.450000 -0.913086 -0.914700
78.500000 -0.913536 -0.914700
78.550000 -0.914010 -0.914700
78.600000 -0.914497 -0.914700
78.650000 -0.914985 -0.914700
78.700000 -0.915462 -0.914700
78.750000 -0.915917 -0.914700
78.800000 -0.916339 -0.914700
78.850000 -0.916718 -0.914700
78.900000 -0.917044 -0.914700
78.950000 -0.917311 -0.914700
79.000000 -0.917513 -0.914700
79.050000 -0.917644 -0.914700
79.100000 -0.917703 -0.914700
79.150000 -0.917688 -0.914700
79.200000 -0.917601 -0.914700
79.250000 -0.917444 -0.914700
79.300000 -0.917221 -0.914700
79.350000 -0.916939 -0.914700
79.400000 -0.916605 -0.914700
79.450000 -0.916227 -0.914700
79.500000 -0.915815 -0.914700
79.550000 -0.915379 -0.914700
79.600000 -0.914931 -0.914700
79.650000 -0.914480 -0.914700
79.700000 -0.914038 -0.914700
79.750000 -0.913615 -0.914700
79.800000 -0.913223 -0.914700
79.850000 -0.912869 -0.914700
79.900000 -0.912563 -0.914700
79.950000 -0.912311 -0.914700
80.000000 -0.912120 -0.914700
80.050000 -0.911992 -0.914700
80.100000 -0.911932 -0.914700
80.150000 -0.911939 -0.914700
80.200000 -0.912013 -0.914700
80.250000 -0.912153 -0.914700
80.300000 -0.912352 -0.914700
80.350000 -0.912608 -0.914700
80.400000 -0.912912 -0.914700
80.450000 -0.913258 -0.914700
80.500000 -0.913635 -0.914700
80.550000 -0.914036 -0.914700
80.600000 -0.914449 -0.914700
80.650000 -0.914866 -0.914700
80.700000 -0.915275 -0.914700
80.750000 -0.915667 -0.914700
80.800000 -0.916032 -0.914700
80.850000 -0.916362 -0.914700
80.900000 -0.916649 -0.914700
80.950000 -0.916886 -0.914700
81.000000 -0.917068 -0.914700
81.050000 -0.917191 -0.914700
81.100000 -0.917253 -0.914700
81.150000 -0.917252 -0.914700
81.200000 -0.917189 -0.914700
81.250000 -0.917066 -0.914700
81.300000 -0.916887 -0.914700
81.350000 -0.916656 -0.914700
81.400000 -0.916379 -0.914700
81.450000 -0.916063 -0.914700
81.500000 -0.915717 -0.914700
81.550000 -0.915349 -0.914700
81.600000 -0.914968 -0.914700
81.650000 -0.914584 -0.914700
81.700000 -0.914205 -0.914700
81.750000 -0.913842 -0.914700
81.800000 -0.913502 -0.914700
81.850000 -0.913194 -0.914700
81.900000 -0.912925 -0.914700
81.950000 -0.912702 -0.914700
82.000000 -0.912529 -0.914700
82.050000 -0.912410 -0.914700
82.100000 -0.912347 -0.914700
82.150000 -0.912343 -0.914700
82.200000 -0.912396 -0.914700
82.250000 -0.912504 -0.914700
82.300000 -0.912665 -0.914700
82.350000 -0.912874 -0.914700
82.400000 -0.913126 -0.914700
82.450000 -0.913414 -0.914700
82.500000 -0.913731 -0.914700
82.550000 -0.914070 -0.914700
82.600000 -0.914421 -0.914700
82.650000 -0.914775 -0.914700
82.700000 -0.915126 -0.914700
82.750000 -0.915463 -0.914700
82.800000 -0.915779 -0.914700
82.850000 -0.916066 -0.914700
82.900000 -0.916318 -0.914700
82.950000 -0.916528 -0.914700
83.000000 -0.916692 -0.914700
83.050000 -0.916807 -0.914700
83.100000 -0.916869 -0.914700
83.150000 -0.916878 -0.914700
83.200000 -0.916834 -0.914700
83.250000 -0.916739 -0.914700
83.300000 -0.916595 -0.914700
83.350000 -0.916406 -0.914700
83.400000 -0.916177 -0.914700
83.450000 -0.915913 -0.914700
83.500000 -0.915623 -0.914700
83.550000 -0.915312 -0.914700
83.600000 -0.914989 -0.914700
83.650000 -0.914662 -0.914700
83.700000 -0.914338 -0.914700
83.750000 -0.914025 -0.914700
83.800000 -0.913731 -0.914700
83.850000 -0.913464 -0.914700
83.900000 -0.913228 -0.914700
83.950000 -0.913030 -0.914700
84.000000 -0.912875 -0.914700
84.050000 -0.912764 -0.914700
84.100000 -0.912702 -0.914700
84.150000 -0.912689 -0.914700
84.200000 -0.912725 -0.914700
84.250000 -0.912809 -0.914700
84.300000 -0.912938 -0.914700
84.350000 -0.913109 -0.914700
84.400000 -0.913317 -0.914700
84.450000 -0.913557 -0.914700
84.500000 -0.913823 -0.914700
84.550000 -0.914109 -0.914700
84.600000 -0.914406 -0.914700
84.650000 -0.914708 -0.914700
84.700000 -0.915008 -0.914700
84.750000 -0.915297 -0.914700
84.800000 -0.915570 -0.914700
84.850000 -0.915820 -0.914700
84.900000 -0.916040 -0.914700
84.950000 -0.916227 -0.914700
85.000000 -0.916374 -0.914700
85.050000 -0.916480 -0.914700
85.100000 -0.916541 -0.914700
85.150000 -0.916557 -0.914700
85.200000 -0.916528 -0.914700
85.250000 -0.916455 -0.914700
85.300000 -0.916340 -0.914700
85.350000 -0.916186 -0.914700
85.400000 -0.915997 -0.914700
85.450000 -0.915777 -0.914700
85.500000 -0.915534 -0.914700
85.550000 -0.915272 -0.914700
85.600000 -0.914998 -0.914700
85.650000 -0.914719 -0.914700
85.700000 -0.914442 -0.914700
85.750000 -0.914174 -0.914700
85.800000 -0.913920 -0.914700
85.850000 -0.913688 -0.914700
85.900000 -0.913481 -0.914700
85.950000 -0.913307 -0.914700
86.000000 -0.913167 -0.914700
86.050000 -0.913066 -0.914700
86.100000 -0.913005 -0.914700
86.150000 -0.912986 -0.914700
86.200000 -0.913009 -0.914700
86.250000 -0.913073 -0.914700
86.300000 -0.913176 -0.914700
86.350000 -0.913315 -0.914700
86.400000 -0.913487 -0.914700
86.450000 -0.913687 -0.914700
86.500000 -0.913910 -0.914700
86.550000 -0.914150 -0.914700
86.600000 -0.914402 -0.914700
86.650000 -0.914659 -0.914700
86.700000 -0.914915 -0.914700
86.750000 -0.915164 -0.914700
86.800000 -0.915400 -0.914700
86.850000 -0.915616 -0.914700
86.900000 -0.915809 -0.914700
86.950000 -0.915973 -0.914700
87.000000 -0.916105 -0.914700
87.050000 -0.916202 -0.914700
87.100000 -0.916261 -0.914700
87.150000 -0.916283 -0.914700
87.200000 -0.916265 -0.914700
87.250000 -0.916210 -0.914700
87.300000 -0.916118 -0.914700
87.350000 -0.915992 -0.914700
87.400000 -0.915836 -0.914700
87.450000 -0.915654 -0.914700
87.500000 -0.915450 -0.914700
87.550000 -0.915230 -0.914700
87.600000 -0.914998 -0.914700
87.650000 -0.914761 -0.914700
87.700000 -0.914524 -0.914700
87.750000 -0.914294 -0.914700
87.800000 -0.914075 -0.914700
87.850000 -0.913873 -0.914700
87.900000 -0.913693 -0.914700
87.950000 -0.913539 -0.914700
88.000000 -0.913414 -0.914700
88.050000 -0.913322 -0.914700
88.100000 -0.913263 -0.914700
88.150000 -0.913241 -0.914700
88.200000 -0.913253 -0.914700
88.250000 -0.913301 -0.914700
88.300000 -0.913383 -0.914700
88.350000 -0.913496 -0.914700
88.400000 -0.913638 -0.914700
88.450000 -0.913804 -0.914700
88.500000 -0.913990 -0.914700
88.550000 -0.914193 -0.914700
88.600000 -0.914406 -0.914700
88.650000 -0.914624 -0.914700
88.700000 -0.914843 -0.914700
88.750000 -0.915057 -0.914700
88.800000 -0.915260 -0.914700
88.850000 -0.915448 -0.914700
88.900000 -0.915616 -0.914700
88.950000 -0.915761 -0.914700
89.000000 -0.915878 -0.914700
89.050000 -0.915966 -0.914700
89.100000 -0.916023 -0.914700
89.150000 -0.916047 -0.914700
89.200000 -0.916038 -0.914700
89.250000 -0.915997 -0.914700
89.300000 -0.915925 -0.914700
89.350000 -0.915823 -0.914700
89.400000 -0.915695 -0.914700
89.450000 -0.915543 -0.914700
89.500000 -0.915373 -0.914700
89.550000 -0.915187 -0.914700
89.600000 -0.914991 -0.914700
89.650000 -0.914790 -0.914700
89.700000 -0.914588 -0.914700
89.750000 -0.914390 -0.914700
89.800000 -0.914201 -0.914700
89.850000 -0.914026 -0.914700
89.900000 -0.913869 -0.914700
89.950000 -0.913733 -0.914700
90.000000 -0.913622 -0.914700
90.050000 -0.913538 -0.914700
90.100000 -0.913483 -0.914700
90.150000 -0.913458 -0.914700
90.200000 -0.913464 -0.914700
90.250000 -0.913499 -0.914700
90.300000 -0.913563 -0.914700
90.350000 -0.913655 -0.914700
90.400000 -0.913771 -0.914700
90.450000 -0.913909 -0.914700
90.500000 -0.914065 -0.914700
90.550000 -0.914235 -0.914700
90.600000 -0.914415 -0.914700
90.650000 -0.914601 -0.914700
90.700000 -0.914787 -0.914700
90.750000 -0.914970 -0.914700
90.800000 -0.915145 -0.914700
90.850000 -0.915308 -0.914700
90.900000 -0.915455 -0.914700
90.950000 -0.915582 -0.914700
91.000000 -0.915687 -0.914700
91.050000 -0.915767 -0.914700
91.100000 -0.915820 -0.914700
91.150000 -0.915846 -0.914700
91.200000 -0.915844 -0.914700
91.250000 -0.915813 -0.914700
91.300000 -0.915757 -0.914700
91.350000 -0.915674 -0.914700
91.400000 -0.915569 -0.914700
91.450000 -0.915444 -0.914700
91.500000 -0.915301 -0.914700
91.550000 -0.915145 -0.914700
91.600000 -0.914980 -0.914700
91.650000 -0.914808 -0.914700
91.700000 -0.914636 -0.914700
91.750000 -0.914467 -0.914700
91.800000 -0.914304 -0.914700
91.850000 -0.914153 -0.914700
91.900000 -0.914016 -0.914700
91.950000 -0.913897 -0.914700
92.000000 -0.913798 -0.914700
92.050000 -0.913722 -0.914700
92.100000 -0.913671 -0.914700
92.150000 -0.913644 -0.914700
92.200000 -0.913644 -0.914700
92.250000 -0.913670 -0.914700
92.300000 -0.913720 -0.914700
92.350000 -0.913794 -0.914700
92.400000 -0.913889 -0.914700
92.450000 -0.914003 -0.914700
92.500000 -0.914133 -0.914700
92.550000 -0.914276 -0.914700
92.600000 -0.914428 -0.914700
92.650000 -0.914586 -0.914700
92.700000 -0.914745 -0.914700
92.750000 -0.914902 -0.914700
92.800000 -0.915052 -0.914700
92.850000 -0.915193 -0.914700
92.900000 -0.915321 -0.914700
92.950000 -0.915433 -0.914700
93.000000 -0.915526 -0.914700
93.050000 -0.915598 -0.914700
93.100000 -0.915648 -0.914700
93.150000 -0.915674 -0.914700
93.200000 -0.915676 -0.914700
93.250000 -0.915655 -0.914700
93.300000 -0.915611 -0.914700
93.350000 -0.915545 -0.914700
93.400000 -0.915459 -0.914700
93.450000 -0.915355 -0.914700
93.500000 -0.915236 -0.914700
93.550000 -0.915105 -0.914700
93.600000 -0.914965 -0.914700
93.650000 -0.914820 -0.914700
93.700000 -0.914673 -0.914700
93.750000 -0.914528 -0.914700
93.800000 -0.914388 -0.914700
93.850000 -0.914257 -0.914700
93.900000 -0.914138 -0.914700
93.950000 -0.914034 -0.914700
94.000000 -0.913946 -0.914700
94.050000 -0.913878 -0.914700
94.100000 -0.913830 -0.914700
94.150000 -0.913803 -0.914700
94.200000 -0.913799 -0.914700
94.250000 -0.913817 -0.914700
94.300000 -0.913856 -0.914700
94.350000 -0.913915 -0.914700
94.400000 -0.913993 -0.914700
94.450000 -0.914087 -0.914700
94.500000 -0.914196 -0.914700
94.550000 -0.914316 -0.914700
94.600000 -0.914444 -0.914700
94.650000 -0.914578 -0.914700
94.700000 -0.914713 -0.914700
94.750000 -0.914847 -0.914700
94.800000 -0.914977 -0.914700
94.850000 -0.915099 -0.914700
94.900000 -0.915210 -0.914700
94.950000 -0.915308 -0.914700
95.000000 -0.915390 -0.914700
95.050000 -0.915455 -0.914700
95.100000 -0.915501 -0.914700
95.150000 -0.915527 -0.914700
95.200000 -0.915533 -0.914700
95.250000 -0.915518 -0.914700
95.300000 -0.915484 -0.914700
95.350000 -0.915431 -0.914700
95.400000 -0.915361 -0.914700
95.450000 -0.915275 -0.914700
95.500000 -0.915176 -0.914700
95.550000 -0.915066 -0.914700
95.600000 -0.914948 -0.914700
95.650000 -0.914825 -0.914700
95.700000 -0.914700 -0.914700
95.750000 -0.914576 -0.914700
95.800000 -0.914456 -0.914700
95.850000 -0.914343 -0.914700
95.900000 -0.914239 -0.914700
95.950000 -0.914148 -0.914700
96.000000 -0.914071 -0.914700
96.050000 -0.914009 -0.914700
96.100000 -0.913965 -0.914700
96.150000 -0.913939 -0.914700
96.200000 -0.913932 -0.914700
96.250000 -0.913943 -0.914700
96.300000 -0.913973 -0.914700
96.350000 -0.914021 -0.914700
96.400000 -0.914084 -0.914700
96.450000 -0.914162 -0.914700
96.500000 -0.914253 -0.914700
96.550000 -0.914353 -0.914700
96.600000 -0.914461 -0.914700
96.650000 -0.914575 -0.914700
96.700000 -0.914690 -0.914700
96.750000 -0.914805 -0.914700
96.800000 -0.914916 -0.914700
96.850000 -0.915021 -0.914700
96.900000 -0.915117 -0.914700
96.950000 -0.915203 -0.914700
97.000000 -0.915276 -0.914700
97.050000 -0.915334 -0.914700
97.100000 -0.915376 -0.914700
97.150000 -0.915402 -0.914700
97.200000 -0.915410 -0.914700
97.250000 -0.915401 -0.914700
97.300000 -0.915375 -0.914700
97.350000 -0.915333 -0.914700
97.400000 -0.915275 -0.914700
97.450000 -0.915205 -0.914700
97.500000 -0.915122 -0.914700
97.550000 -0.915030 -0.914700
97.600000 -0.914931 -0.914700
97.650000 -0.914827 -0.914700
97.700000 -0.914720 -0.914700
97.750000 -0.914614 -0.914700
97.800000 -0.914511 -0.914700
97.850000 -0.914413 -0.914700
97.900000 -0.914323 -0.914700
97.950000 -0.914243 -0.914700
98.000000 -0.914175 -0.914700
98.050000 -0.914120 -0.914700
98.100000 -0.914080 -0.914700
98.150000 -0.914055 -0.914700
98.200000 -0.914046 -0.914700
98.250000 -0.914053 -0.914700
98.300000 -0.914075 -0.914700
98.350000 -0.914113 -0.914700
98.400000 -0.914164 -0.914700
98.450000 -0.914229 -0.914700
98.500000 -0.914304 -0.914700
98.550000 -0.914388 -0.914700
98.600000 -0.914479 -0.914700
98.650000 -0.914575 -0.914700
98.700000 -0.914673 -0.914700
98.750000 -0.914771 -0.914700
98.800000 -0.914867 -0.914700
98.850000 -0.914957 -0.914700
98.900000 -0.915041 -0.914700
98.950000 -0.915116 -0.914700
99.000000 -0.915180 -0.914700
99.050000 -0.915232 -0.914700
99.100000 -0.915270 -0.914700
99.150000 -0.915295 -0.914700
99.200000 -0.915305 -0.914700
99.250000 -0.915300 -0.914700
99.300000 -0.915280 -0.914700
99.350000 -0.915247 -0.914700
99.400000 -0.915200 -0.914700
99.450000 -0.915142 -0.914700
99.500000 -0.915073 -0.914700
99.550000 -0.914996 -0.914700
99.600000 -0.914913 -0.914700
99.650000 -0.914825 -0.914700
99.700000 -0.914734 -0.914700
99.750000 -0.914644 -0.914700
99.800000 -0.914555 -0.914700
99.850000 -0.914471 -0.914700
99.900000 -0.914393 -0.914700
99.950000 -0.914323 -0.914700
100.000000 -0.914263 -0.914700
100.050000 -0.914214 -0.914700
100.100000 -0.914177 -0.914700
100.150000 -0.914153 -0.914700
100.200000 -0.914143 -0.914700
100.250000 -0.914147 -0.914700
100.300000 -0.914163 -0.914700
100.350000 -0.914193 -0.914700
100.400000 -0.914235 -0.914700
100.450000 -0.914288 -0.914700
100.500000 -0.914350 -0.914700
100.550000 -0.914421 -0.914700
100.600000 -0.914497 -0.914700
100.650000 -0.914578 -0.914700
100.700000 -0.914662 -0.914700
100.750000 -0.914745 -0.914700
100.800000 -0.914827 -0.914700
100.850000 -0.914905 -0.914700
100.900000 -0.914978 -0.914700
100.950000 -0.915043 -0.914700
101.000000 -0.915099 -0.914700
101.050000 -0.915146 -0.914700
101.100000 -0.915181 -0.914700
101.150000 -0.915204 -0.914700
101.200000 -0.915214 -0.914700
101.250000 -0.915213 -0.914700
101.300000 -0.915198 -0.914700
101.350000 -0.915172 -0.914700
101.400000 -0.915134 -0.914700
101.450000 -0.915086 -0.914700
101.500000 -0.915030 -0.914700
101.550000 -0.914965 -0.914700
101.600000 -0.914895 -0.914700
101.650000 -0.914820 -0.914700
101.700000 -0.914744 -0.914700
101.750000 -0.914666 -0.914700
101.800000 -0.914591 -0.914700
101.850000 -0.914518 -0.914700
101.900000 -0.914450 -0.914700
101.950000 -0.914390 -0.914700
102.000000 -0.914337 -0.914700
102.050000 -0.914293 -0.914700
102.100000 -0.914260 -0.914700
102.150000 -0.914237 -0.914700
102.200000 -0.914227 -0.914700
102.250000 -0.914227 -0.914700
102.300000 -0.914239 -0.914700
102.350000 -0.914263 -0.914700
102.400000 -0.914296 -0.914700
102.450000 -0.914340 -0.914700
102.500000 -0.914392 -0.914700
102.550000 -0.914450 -0.914700
102.600000 -0.914515 -0.914700
102.650000 -0.914583 -0.914700
102.700000 -0.914654 -0.914700
102.750000 -0.914725 -0.914700
102.800000 -0.914796 -0.914700
102.850000 -0.914863 -0.914700
102.900000 -0.914926 -0.914700
102.950000 -0.914982 -0.914700
103.000000 -0.915032 -0.914700
103.050000 -0.915073 -0.914700
103.100000 -0.915105 -0.914700
103.150000 -0.915126 -0.914700
103.200000 -0.915137 -0.914700
103.250000 -0.915138 -0.914700
103.300000 -0.915127 -0.914700
103.350000 -0.915107 -0.914700
103.400000 -0.915077 -0.914700
103.450000 -0.915037 -0.914700
103.500000 -0.914990 -0.914700
103.550000 -0.914937 -0.914700
103.600000 -0.914877 -0.914700
103.650000 -0.914815 -0.914700
103.700000 -0.914749 -0.914700
103.750000 -0.914684 -0.914700
103.800000 -0.914619 -0.914700
103.850000 -0.914556 -0.914700
103.900000 -0.914498 -0.914700
103.950000 -0.914445 -0.914700
104.000000 -0.914398 -0.914700
104.050000 -0.914360 -0.914700
104.100000 -0.914330 -0.914700
104.150000 -0.914309 -0.914700
104.200000 -0.914298 -0.914700
104.250000 -0.914297 -0.914700
104.300000 -0.914305 -0.914700
104.350000 -0.914323 -0.914700
104.400000 -0.914350 -0.914700
104.450000 -0.914386 -0.914700
104.500000 -0.914429 -0.914700
104.550000 -0.914478 -0.914700
104.600000 -0.914532 -0.914700
104.650000 -0.914590 -0.914700
104.700000 -0.914650 -0.914700
104.750000 -0.914710 -0.914700
104.800000 -0.914770 -0.914700
104.850000 -0.914828 -0.914700
104.900000 -0.914883 -0.914700
104.950000 -0.914932 -0.914700
105.000000 -0.914975 -0.914700
105.050000 -0.915012 -0.914700
105.100000 -0.915040 -0.914700
105.150000 -0.915060 -0.914700
105.200000 -0.915072 -0.914700
105.250000 -0.915074 -0.914700
105.300000 -0.915066 -0.914700
105.350000 -0.915051 -0.914700
105.400000 -0.915026 -0.914700
105.450000 -0.914994 -0.914700
105.500000 -0.914955 -0.914700
105.550000 -0.914910 -0.914700
105.600000 -0.914861 -0.914700
105.650000 -0.914808 -0.914700
105.700000 -0.914753 -0.914700
105.750000 -0.914696 -0.914700
105.800000 -0.914641 -0.914700
105.850000 -0.914587 -0.914700
105.900000 -0.914537 -0.914700
105.950000 -0.914491 -0.914700
106.000000 -0.914450 -0.914700
106.050000 -0.914416 -0.914700
106.100000 -0.914389 -0.914700
106.150000 -0.914370 -0.914700
106.200000 -0.914359 -0.914700
106.250000 -0.914356 -0.914700
106.300000 -0.914362 -0.914700
106.350000 -0.914376 -0.914700
106.400000 -0.914397 -0.914700
106.450000 -0.914426 -0.914700
106.500000 -0.914462 -0.914700
106.550000 -0.914503 -0.914700
106.600000 -0.914548 -0.914700
106.650000 -0.914597 -0.914700
106.700000 -0.914648 -0.914700
106.750000 -0.914699 -0.914700
106.800000 -0.914751 -0.914700
106.850000 -0.914800 -0.914700
106.900000 -0.914847 -0.914700
106.950000 -0.914890 -0.914700
107.000000 -0.914928 -0.914700
107.050000 -0.914960 -0.914700
107.100000 -0.914986 -0.914700
107.150000 -0.915004 -0.914700
107.200000 -0.915015 -0.914700
107.250000 -0.915019 -0.914700
107.300000 -0.915014 -0.914700
107.350000 -0.915002 -0.914700
107.400000 -0.914982 -0.914700
107.450000 -0.914956 -0.914700
107.500000 -0.914924 -0.914700
107.550000 -0.914887 -0.914700
107.600000 -0.914845 -0.914700
107.650000 -0.914801 -0.914700
107.700000 -0.914754 -0.914700
107.750000 -0.914706 -0.914700
107.800000 -0.914658 -0.914700
107.850000 -0.914612 -0.914700
107.900000 -0.914569 -0.914700
107.950000 -0.914529 -0.914700
108.000000 -0.914493 -0.914700
108.050000 -0.914463 -0.914700
108.100000 -0.914439 -0.914700
108.150000 -0.914421 -0.914700
108.200000 -0.914410 -0.914700
108.250000 -0.914407 -0.914700
108.300000 -0.914410 -0.914700
108.350000 -0.914421 -0.914700
108.400000 -0.914438 -0.914700
108.450000 -0.914462 -0.914700
108.500000 -0.914491 -0.914700
108.550000 -0.914525 -0.914700
108.600000 -0.914563 -0.914700
108.650000 -0.914604 -0.914700
108.700000 -0.914647 -0.914700
108.750000 -0.914691 -0.914700
108.800000 -0.914735 -0.914700
108.850000 -0.914778 -0.914700
108.900000 -0.914818 -0.914700
108.950000 -0.914856 -0.914700
109.000000 -0.914889 -0.914700
109.050000 -0.914917 -0.914700
109.100000 -0.914940 -0.914700
109.150000 -0.914957 -0.914700
109.200000 -0.914967 -0.914700
109.250000 -0.914971 -0.914700
109.300000 -0.914969 -0.914700
109.350000 -0.914959 -0.914700
109.400000 -0.914944 -0.914700
109.450000 -0.914923 -0.914700
109.500000 -0.914896 -0.914700
109.550000 -0.914865 -0.914700
109.600000 -0.914831 -0.914700
109.650000 -0.914793 -0.914700
109.700000 -0.914753 -0.914700
109.750000 -0.914713 -0.914700
109.800000 -0.914672 -0.914700
109.850000 -0.914633 -0.914700
109.900000 -0.914595 -0.914700
109.950000 -0.914560 -0.914700
110.000000 -0.914529 -0.914700
110.050000 -0.914503 -0.914700
110.100000 -0.914481 -0.914700
110.150000 -0.914465 -0.914700
110.200000 -0.914455 -0.914700
110.250000 -0.914450 -0.914700
110.300000 -0.914452 -0.914700
110.350000 -0.914460 -0.914700
110.400000 -0.914474 -0.914700
110.450000 -0.914493 -0.914700
110.500000 -0.914517 -0.914700
110.550000 -0.914545 -0.914700
110.600000 -0.914577 -0.914700
110.650000 -0.914612 -0.914700
110.700000 -0.914648 -0.914700
110.750000 -0.914686 -0.914700
110.800000 -0.914723 -0.914700
110.850000 -0.914760 -0.914700
110.900000 -0.914795 -0.914700
110.950000 -0.914827 -0.914700
111.000000 -0.914856 -0.914700
111.050000 -0.914881 -0.914700
111.100000 -0.914901 -0.914700
111.150000 -0.914917 -0.914700
111.200000 -0.914927 -0.914700
111.250000 -0.914931 -0.914700
111.300000 -0.914930 -0.914700
111.350000 -0.914923 -0.914700
111.400000 -0.914911 -0.914700
111.450000 -0.914894 -0.914700
111.500000 -0.914872 -0.914700
111.550000 -0.914846 -0.914700
111.600000 -0.914817 -0.914700
111.650000 -0.914785 -0.914700
111.700000 -0.914752 -0.914700
111.750000 -0.914717 -0.914700
111.800000 -0.914683 -0.914700
111.850000 -0.914649 -0.914700
111.900000 -0.914616 -0.914700
111.950000 -0.914586 -0.914700
112.000000 -0.914559 -0.914700
112.050000 -0.914536 -0.914700
112.100000 -0.914517 -0.914700
112.150000 -0.914502 -0.914700
112.200000 -0.914492 -0.914700
112.250000 -0.914488 -0.914700
112.300000 -0.914488 -0.914700
112.350000 -0.914494 -0.914700
112.400000 -0.914505 -0.914700
112.450000 -0.914521 -0.914700
112.500000 -0.914540 -0.914700
112.550000 -0.914564 -0.914700
112.600000 -0.914590 -0.914700
112.650000 -0.914619 -0.914700
112.700000 -0.914650 -0.914700
112.750000 -0.914682 -0.914700
112.800000 -0.914714 -0.914700
112.850000 -0.914745 -0.914700
112.900000 -0.914775 -0.914700
112.950000 -0.914803 -0.914700
113.000000 -0.914829 -0.914700
113.050000 -0.914851 -0.914700
113.100000 -0.914869 -0.914700
113.150000 -0.914883 -0.914700
113.200000 -0.914892 -0.914700
113.250000 -0.914897 -0.914700
113.300000 -0.914896 -0.914700
113.350000 -0.914891 -0.914700
113.400000 -0.914882 -0.914700
113.450000 -0.914868 -0.914700
113.500000 -0.914850 -0.914700
113.550000 -0.914829 -0.914700
113.600000 -0.914805 -0.914700
113.650000 -0.914778 -0.914700
113.700000 -0.914750 -0.914700
113.750000 -0.914720 -0.914700
113.800000 -0.914691 -0.914700
113.850000 -0.914662 -0.914700
113.900000 -0.914634 -0.914700
113.950000 -0.914608 -0.914700
114.000000 -0.914584 -0.914700
114.050000 -0.914564 -0.914700
114.100000 -0.914547 -0.914700
114.150000 -0.914533 -0.914700
114.200000 -0.914524 -0.914700
114.250000 -0.914520 -0.914700
114.300000 -0.914519 -0.914700
114.350000 -0.914524 -0.914700
114.400000 -0.914532 -0.914700
114.450000 -0.914544 -0.914700
114.500000 -0.914561 -0.914700
114.550000 -0.914580 -0.914700
114.600000 -0.914602 -0.914700
114.650000 -0.914627 -0.914700
114.700000 -0.914653 -0.914700
114.750000 -0.914680 -0.914700
114.800000 -0.914707 -0.914700
114.850000 -0.914734 -0.914700
114.900000 -0.914760 -0.914700
114.950000 -0.914784 -0.914700
115.000000 -0.914806 -0.914700
115.050000 -0.914825 -0.914700
115.100000 -0.914841 -0.914700
115.150000 -0.914854 -0.914700
115.200000 -0.914862 -0.914700
115.250000 -0.914867 -0.914700
115.300000 -0.914868 -0.914700
115.350000 -0.914864 -0.914700
115.400000 -0.914857 -0.914700
115.450000 -0.914846 -0.914700
115.500000 -0.914831 -0.914700
115.550000 -0.914813 -0.914700
115.600000 -0.914793 -0.914700
115.650000 -0.914771 -0.914700
115.700000 -0.914747 -0.914700
115.750000 -0.914722 -0.914700
115.800000 -0.914697 -0.914700
115.850000 -0.914672 -0.914700
115.900000 -0.914648 -0.914700
115.950000 -0.914626 -0.914700
116.000000 -0.914605 -0.914700
116.050000 -0.914587 -0.914700
116.100000 -0.914572 -0.914700
116.150000 -0.914560 -0.914700
116.200000 -0.914552 -0.914700
116.250000 -0.914547 -0.914700
116.300000 -0.914546 -0.914700
116.350000 -0.914549 -0.914700
116.400000 -0.914555 -0.914700
116.450000 -0.914565 -0.914700
116.500000 -0.914579 -0.914700
116.550000 -0.914595 -0.914700
116.600000 -0.914613 -0.914700
116.650000 -0.914634 -0.914700
116.700000 -0.914655 -0.914700
116.750000 -0.914678 -0.914700
116.800000 -0.914702 -0.914700
116.850000 -0.914725 -0.914700
116.900000 -0.914747 -0.914700
116.950000 -0.914768 -0.914700
117.000000 -0.914787 -0.914700
117.050000 -0.914804 -0.914700
117.100000 -0.914818 -0.914700
117.150000 -0.914829 -0.914700
117.200000 -0.914837 -0.914700
117.250000 -0.914842 -0.914700
117.300000 -0.914843 -0.914700
117.350000 -0.914841 -0.914700
117.400000 -0.914835 -0.914700
117.450000 -0.914826 -0.914700
117.500000 -0.914814 -0.914700
117.550000 -0.914800 -0.914700
117.600000 -0.914783 -0.914700
117.650000 -0.914764 -0.914700
117.700000 -0.914744 -0.914700
117.750000 -0.914723 -0.914700
117.800000 -0.914701 -0.914700
117.850000 -0.914680 -0.914700
117.900000 -0.914660 -0.914700
117.950000 -0.914640 -0.914700
118.000000 -0.914622 -0.914700
118.050000 -0.914607 -0.914700
118.100000 -0.914593 -0.914700
118.150000 -0.914582 -0.914700
118.200000 -0.914575 -0.914700
118.250000 -0.914570 -0.914700
118.300000 -0.914569 -0.914700
118.350000 -0.914571 -0.914700
118.400000 -0.914576 -0.914700
118.450000 -0.914584 -0.914700
118.500000 -0.914594 -0.914700
118.550000 -0.914608 -0.914700
118.600000 -0.914623 -0.914700
118.650000 -0.914640 -0.914700
118.700000 -0.914659 -0.914700
118.750000 -0.914678 -0.914700
118.800000 -0.914698 -0.914700
118.850000 -0.914717 -0.914700
118.900000 -0.914736 -0.914700
118.950000 -0.914755 -0.914700
119.000000 -0.914771 -0.914700
119.050000 -0.914786 -0.914700
119.100000 -0.914798 -0.914700
119.150000 -0.914809 -0.914700
119.200000 -0.914816 -0.914700
119.250000 -0.914820 -0.914700
119.300000 -0.914822 -0.914700
119.350000 -0.914821 -0.914700
119.400000 -0.914816 -0.914700
119.450000 -0.914809 -0.914700
119.500000 -0.914799 -0.914700
119.550000 -0.914787 -0.914700
119.600000 -0.914773 -0.914700
119.650000 -0.914758 -0.914700
119.700000 -0.914741 -0.914700
119.750000 -0.914723 -0.914700
119.800000 -0.914705 -0.914700
119.850000 -0.914687 -0.914700
119.900000 -0.914669 -0.914700
119.950000 -0.914652 -0.914700
120.000000 -0.914637 -0.914700
120.050000 -0.914623 -0.914700
120.100000 -0.914611 -0.914700
120.150000 -0.914601 -0.914700
120.200000 -0.914594 -0.914700
120.250000 -0.914590 -0.914700
120.300000 -0.914588 -0.914700
120.350000 -0.914589 -0.914700
120.400000 -0.914593 -0.914700
120.450000 -0.914599 -0.914700
120.500000 -0.914608 -0.914700
120.550000 -0.914619 -0.914700
120.600000 -0.914632 -0.914700
120.650000 -0.914646 -0.914700
120.700000 -0.914662 -0.914700
120.750000 -0.914678 -0.914700
120.800000 -0.914695 -0.914700
120.850000 -0.914712 -0.914700
120.900000 -0.914728 -0.914700
120.950000 -0.914744 -0.914700
121.000000 -0.914758 -0.914700
121.050000 -0.914771 -0.914700
121.100000 -0.914782 -0.914700
121.150000 -0.914791 -0.914700
121.200000 -0.914798 -0.914700
121.250000 -0.914802 -0.914700
121.300000 -0.914804 -0.914700
121.350000 -0.914803 -0.914700
121.400000 -0.914800 -0.914700
121.450000 -0.914794 -0.914700
121.500000 -0.914786 -0.914700
121.550000 -0.914777 -0.914700
121.600000 -0.914765 -0.914700
121.650000 -0.914752 -0.914700
121.700000 -0.914738 -0.914700
121.750000 -0.914722 -0.914700
121.800000 -0.914707 -0.914700
121.850000 -0.914691 -0.914700
121.900000 -0.914676 -0.914700
121.950000 -0.914662 -0.914700
122.000000 -0.914648 -0.914700
122.050000 -0.914636 -0.914700
122.100000 -0.914626 -0.914700
122.150000 -0.914618 -0.914700
122.200000 -0.914611 -0.914700
122.250000 -0.914607 -0.914700
122.300000 -0.914605 -0.914700
122.350000 -0.914606 -0.914700
122.400000 -0.914608 -0.914700
122.450000 -0.914613 -0.914700
122.500000 -0.914620 -0.914700
122.550000 -0.914629 -0.914700
122.600000 -0.914640 -0.914700
122.650000 -0.914652 -0.914700
122.700000 -0.914665 -0.914700
122.750000 -0.914679 -0.914700
122.800000 -0.914693 -0.914700
122.850000 -0.914707 -0.914700
122.900000 -0.914721 -0.914700
122.950000 -0.914735 -0.914700
123.000000 -0.914747 -0.914700
123.050000 -0.914759 -0.914700
123.100000 -0.914768 -0.914700
123.150000 -0.914776 -0.914700
123.200000 -0.914782 -0.914700
123.250000 -0.914787 -0.914700
123.300000 -0.914788 -0.914700
123.350000 -0.914788 -0.914700
123.400000 -0.914786 -0.914700
123.450000 -0.914781 -0.914700
123.500000 -0.914775 -0.914700
123.550000 -0.914767 -0.914700
123.600000 -0.914757 -0.914700
123.650000 -0.914746 -0.914700
123.700000 -0.914734 -0.914700
123.750000 -0.914722 -0.914700
123.800000 -0.914708 -0.914700
123.850000 -0.914695 -0.914700
123.900000 -0.914682 -0.914700
123.950000 -0.914670 -0.914700
124.000000 -0.914658 -0.914700
124.050000 -0.914648 -0.914700
124.100000 -0.914639 -0.914700
124.150000 -0.914631 -0.914700
124.200000 -0.914625 -0.914700
124.250000 -0.914621 -0.914700
124.300000 -0.914619 -0.914700
124.350000 -0.914619 -0.914700
124.400000 -0.914621 -0.914700
124.450000 -0.914625 -0.914700
124.500000 -0.914631 -0.914700
124.550000 -0.914638 -0.914700
124.600000 -0.914647 -0.914700
124.650000 -0.914657 -0.914700
124.700000 -0.914668 -0.914700
124.750000 -0.914680 -0.914700
124.800000 -0.914692 -0.914700
124.850000 -0.914704 -0.914700
124.900000 -0.914716 -0.914700
124.950000 -0.914728 -0.914700
125.000000 -0.914739 -0.914700
125.050000 -0.914748 -0.914700
125.100000 -0.914757 -0.914700
125.150000 -0.914764 -0.914700
125.200000 -0.914769 -0.914700
125.250000 -0.914773 -0.914700
125.300000 -0.914775 -0.914700
125.350000 -0.914775 -0.914700
125.400000 -0.914774 -0.914700
125.450000 -0.914770 -0.914700
125.500000 -0.914765 -0.914700
125.550000 -0.914759 -0.914700
125.600000 -0.914751 -0.914700
125.650000 -0.914741 -0.914700
125.700000 -0.914731 -0.914700
125.750000 -0.914721 -0.914700
125.800000 -0.914709 -0.914700
125.850000 -0.914698 -0.914700
125.900000 -0.914687 -0.914700
125.950000 -0.914676 -0.914700
126.000000 -0.914666 -0.914700
126.050000 -0.914657 -0.914700
126.100000 -0.914649 -0.914700
126.150000 -0.914642 -0.914700
126.200000 -0.914637 -0.914700
126.250000 -0.914634 -0.914700
126.300000 -0.914632 -0.914700
126.350000 -0.914631 -0.914700
126.400000 -0.914633 -0.914700
126.450000 -0.914636 -0.914700
126.500000 -0.914640 -0.914700
126.550000 -0.914646 -0.914700
126.600000 -0.914654 -0.914700
126.650000 -0.914662 -0.914700
126.700000 -0.914671 -0.914700
126.750000 -0.914681 -0.914700
126.800000 -0.914691 -0.914700
126.850000 -0.914702 -0.914700
126.900000 -0.914712 -0.914700
126.950000 -0.914722 -0.914700
127.000000 -0.914731 -0.914700
127.050000 -0.914740 -0.914700
127.100000 -0.914747 -0.914700
127.150000 -0.914754 -0.914700
127.200000 -0.914758 -0.914700
127.250000 -0.914762 -0.914700
127.300000 -0.914764 -0.914700
127.350000 -0.914764 -0.914700
127.400000 -0.914763 -0.914700
127.450000 -0.914761 -0.914700
127.500000 -0.914756 -0.914700
127.550000 -0.914751 -0.914700
127.600000 -0.914744 -0.914700
127.650000 -0.914737 -0.914700
127.700000 -0.914728 -0.914700
127.750000 -0.914719 -0.914700
127.800000 -0.914710 -0.914700
127.850000 -0.914700 -0.914700
127.900000 -0.914691 -0.914700
127.950000 -0.914682 -0.914700
128.000000 -0.914673 -0.914700
128.050000 -0.914665 -0.914700
128.100000 -0.914658 -0.914700
128.150000 -0.914652 -0.914700
128.200000 -0.914647 -0.914700
128.250000 -0.914644 -0.914700
128.300000 -0.914642 -0.914700
128.350000 -0.914641 -0.914700
128.400000 -0.914642 -0.914700
128.450000 -0.914645 -0.914700
128.500000 -0.914648 -0.914700
128.550000 -0.914653 -0.914700
128.600000 -0.914659 -0.914700
128.650000 -0.914666 -0.914700
128.700000 -0.914674 -0.914700
128.750000 -0.914682 -0.914700
128.800000 -0.914691 -0.914700
128.850000 -0.914700 -0.914700
128.900000 -0.914709 -0.914700
128.950000 -0.914717 -0.914700
129.000000 -0.914725 -0.914700
129.050000 -0.914733 -0.914700
129.100000 -0.914739 -0.914700
129.150000 -0.914745 -0.914700
129.200000 -0.914749 -0.914700
129.250000 -0.914752 -0.914700
129.300000 -0.914754 -0.914700
129.350000 -0.914755 -0.914700
129.400000 -0.914754 -0.914700
129.450000 -0.914752 -0.914700
129.500000 -0.914749 -0.914700
129.550000 -0.914744 -0.914700
129.600000 -0.914739 -0.914700
129.650000 -0.914733 -0.914700
129.700000 -0.914726 -0.914700
129.750000 -0.914718 -0.914700
129.800000 -0.914710 -0.914700
129.850000 -0.914702 -0.914700
129.900000 -0.914694 -0.914700
129.950000 -0.914686 -0.914700
130.000000 -0.914678 -0.914700
130.050000 -0.914671 -0.914700
130.100000 -0.914665 -0.914700
130.150000 -0.914660 -0.914700
130.200000 -0.914656 -0.914700
130.250000 -0.914653 -0.914700
130.300000 -0.914651 -0.914700
130.350000 -0.914650 -0.914700
130.400000 -0.914651 -0.914700
130.450000 -0.914652 -0.914700
130.500000 -0.914655 -0.914700
130.550000 -0.914659 -0.914700
130.600000 -0.914664 -0.914700
130.650000 -0.914670 -0.914700
130.700000 -0.914677 -0.914700
130.750000 -0.914684 -0.914700
130.800000 -0.914691 -0.914700
130.850000 -0.914699 -0.914700
130.900000 -0.914706 -0.914700
130.950000 -0.914713 -0.914700
131.000000 -0.914720 -0.914700
131.050000 -0.914727 -0.914700
131.100000 -0.914732 -0.914700
131.150000 -0.914737 -0.914700
131.200000 -0.914741 -0.914700
131.250000 -0.914744 -0.914700
131.300000 -0.914746 -0.914700
131.350000 -0.914747 -0.914700
131.400000 -0.914746 -0.914700
131.450000 -0.914745 -0.914700
131.500000 -0.914742 -0.914700
131.550000 -0.914739 -0.914700
131.600000 -0.914734 -0.914700
131.650000 -0.914729 -0.914700
131.700000 -0.914723 -0.914700
131.750000 -0.914717 -0.914700
131.800000 -0.914710 -0.914700
131.850000 -0.914703 -0.914700
131.900000 -0.914696 -0.914700
131.950000 -0.914689 -0.914700
132.000000 -0.914683 -0.914700
132.050000 -0.914677 -0.914700
132.100000 -0.914671 -0.914700
132.150000 -0.914667 -0.914700
132.200000 -0.914663 -0.914700
132.250000 -0.914660 -0.914700
132.300000 -0.914658 -0.914700
132.350000 -0.914658 -0.914700
132.400000 -0.914658 -0.914700
132.450000 -0.914659 -0.914700
132.500000 -0.914662 -0.914700
132.550000 -0.914665 -0.914700
132.600000 -0.914669 -0.914700
132.650000 -0.914674 -0.914700
132.700000 -0.914679 -0.914700
132.750000 -0.914685 -0.914700
132.800000 -0.914691 -0.914700
132.850000 -0.914698 -0.914700
132.900000 -0.914704 -0.914700
132.950000 -0.914710 -0.914700
133.000000 -0.914716 -0.914700
133.050000 -0.914722 -0.914700
133.100000 -0.914727 -0.914700
133.150000 -0.914731 -0.914700
133.200000 -0.914735 -0.914700
133.250000 -0.914737 -0.914700
133.300000 -0.914739 -0.914700
133.350000 -0.914740 -0.914700
133.400000 -0.914740 -0.914700
133.450000 -0.914739 -0.914700
133.500000 -0.914737 -0.914700
133.550000 -0.914734 -0.914700
133.600000 -0.914730 -0.914700
133.650000 -0.914726 -0.914700
133.700000 -0.914721 -0.914700
133.750000 -0.914715 -0.914700
133.800000 -0.914710 -0.914700
133.850000 -0.914704 -0.914700
133.900000 -0.914698 -0.914700
133.950000 -0.914692 -0.914700
134.000000 -0.914686 -0.914700
134.050000 -0.914681 -0.914700
134.100000 -0.914676 -0.914700
134.150000 -0.914672 -0.914700
134.200000 -0.914669 -0.914700
134.250000 -0.914667 -0.914700
134.300000 -0.914665 -0.914700
134.350000 -0.914664 -0.914700
134.400000 -0.914664 -0.914700
134.450000 -0.914665 -0.914700
134.500000 -0.914667 -0.914700
134.550000 -0.914669 -0.914700
134.600000 -0.914673 -0.914700
134.650000 -0.914677 -0.914700
134.700000 -0.914681 -0.914700
134.750000 -0.914686 -0.914700
134.800000 -0.914692 -0.914700
134.850000 -0.914697 -0.914700
134.900000 -0.914702 -0.914700
134.950000 -0.914708 -0.914700
135.000000 -0.914713 -0.914700
135.050000 -0.914718 -0.914700
135.100000 -0.914722 -0.914700
135.150000 -0.914726 -0.914700
135.200000 -0.914729 -0.914700
135.250000 -0.914732 -0.914700
135.300000 -0.914733 -0.914700
135.350000 -0.914734 -0.914700
135.400000 -0.914734 -0.914700
135.450000 -0.914733 -0.914700
135.500000 -0.914732 -0.914700
135.550000 -0.914729 -0.914700
135.600000 -0.914726 -0.914700
135.650000 -0.914723 -0.914700
135.700000 -0.914718 -0.914700
135.750000 -0.914714 -0.914700
135.800000 -0.914709 -0.914700
135.850000 -0.914704 -0.914700
135.900000 -0.914699 -0.914700
135.950000 -0.914694 -0.914700
136.000000 -0.914689 -0.914700
136.050000 -0.914685 -0.914700
136.100000 -0.914681 -0.914700
136.150000 -0.914677 -0.914700
136.200000 -0.914674 -0.914700
136.250000 -0.914672 -0.914700
136.300000 -0.914670 -0.914700
136.350000 -0.914670 -0.914700
136.400000 -0.914669 -0.914700
136.450000 -0.914670 -0.914700
136.500000 -0.914672 -0.914700
136.550000 -0.914674 -0.914700
136.600000 -0.914676 -0.914700
136.650000 -0.914680 -0.914700
136.700000 -0.914683 -0.914700
136.750000 -0.914688 -0.914700
136.800000 -0.914692 -0.914700
136.850000 -0.914697 -0.914700
136.900000 -0.914701 -0.914700
136.950000 -0.914706 -0.914700
137.000000 -0.914710 -0.914700
137.050000 -0.914715 -0.914700
137.100000 -0.914718 -0.914700
137.150000 -0.914722 -0.914700
137.200000 -0.914724 -0.914700
137.250000 -0.914727 -0.914700
137.300000 -0.914728 -0.914700
137.350000 -0.914729 -0.914700
137.400000 -0.914729 -0.914700
137.450000 -0.914729 -0.914700
137.500000 -0.914727 -0.914700
137.550000 -0.914725 -0.914700
137.600000 -0.914723 -0.914700
137.650000 -0.914720 -0.914700
137.700000 -0.914717 -0.914700
137.750000 -0.914713 -0.914700
137.800000 -0.914709 -0.914700
137.850000 -0.914704 -0.914700
137.900000 -0.914700 -0.914700
137.950000 -0.914696 -0.914700
138.000000 -0.914692 -0.914700
138.050000 -0.914688 -0.914700
138.100000 -0.914684 -0.914700
138.150000 -0.914681 -0.914700
138.200000 -0.914679 -0.914700
138.250000 -0.914676 -0.914700
138.300000 -0.914675 -0.914700
138.350000 -0.914674 -0.914700
138.400000 -0.914674 -0.914700
138.450000 -0.914674 -0.914700
138.500000 -0.914676 -0.914700
138.550000 -0.914677 -0.914700
138.600000 -0.914679 -0.914700
138.650000 -0.914682 -0.914700
138.700000 -0.914685 -0.914700
138.750000 -0.914689 -0.914700
138.800000 -0.914693 -0.914700
138.850000 -0.914696 -0.914700
138.900000 -0.914700 -0.914700
138.950000 -0.914704 -0.914700
139.000000 -0.914708 -0.914700
139.050000 -0.914712 -0.914700
139.100000 -0.914715 -0.914700
139.150000 -0.914718 -0.914700
139.200000 -0.914720 -0.914700
139.250000 -0.914722 -0.914700
139.300000 -0.914724 -0.914700
139.350000 -0.914725 -0.914700
139.400000 -0.914725 -0.914700
139.450000 -0.914725 -0.914700
139.500000 -0.914724 -0.914700
139.550000 -0.914722 -0.914700
139.600000 -0.914720 -0.914700
139.650000 -0.914718 -0.914700
139.700000 -0.914715 -0.914700
139.750000 -0.914712 -0.914700
139.800000 -0.914708 -0.914700
139.850000 -0.914704 -0.914700
139.900000 -0.914701 -0.914700
139.950000 -0.914697 -0.914700
140.000000 -0.914694 -0.914700
140.050000 -0.914690 -0.914700
140.100000 -0.914687 -0.914700
140.150000 -0.914684 -0.914700
140.200000 -0.914682 -0.914700
140.250000 -0.914680 -0.914700
140.300000 -0.914679 -0.914700
140.350000 -0.914678 -0.914700
140.400000 -0.914678 -0.914700
140.450000 -0.914678 -0.914700
140.500000 -0.914679 -0.914700
140.550000 -0.914680 -0.914700
140.600000 -0.914682 -0.914700
140.650000 -0.914684 -0.914700
140.700000 -0.914687 -0.914700
140.750000 -0.914690 -0.914700
140.800000 -0.914693 -0.914700
140.850000 -0.914696 -0.914700
140.900000 -0.914700 -0.914700
140.950000 -0.914703 -0.914700
141.000000 -0.914706 -0.914700
141.050000 -0.914710 -0.914700
141.100000 -0.914712 -0.914700
141.150000 -0.914715 -0.914700
141.200000 -0.914717 -0.914700
141.250000 -0.914719 -0.914700
141.300000 -0.914720 -0.914700
141.350000 -0.914721 -0.914700
141.400000 -0.914721 -0.914700
141.450000 -0.914721 -0.914700
141.500000 -0.914720 -0.914700
141.550000 -0.914719 -0.914700
141.600000 -0.914717 -0.914700
141.650000 -0.914715 -0.914700
141.700000 -0.914713 -0.914700
141.750000 -0.914710 -0.914700
141.800000 -0.914707 -0.914700
141.850000 -0.914704 -0.914700
141.900000 -0.914701 -0.914700
141.950000 -0.914698 -0.914700
142.000000 -0.914695 -0.914700
142.050000 -0.914692 -0.914700
142.100000 -0.914690 -0.914700
142.150000 -0.914687 -0.914700
142.200000 -0.914685 -0.914700
142.250000 -0.914684 -0.914700
142.300000 -0.914682 -0.914700
142.350000 -0.914682 -0.914700
142.400000 -0.914681 -0.914700
142.450000 -0.914681 -0.914700
142.500000 -0.914682 -0.914700
142.550000 -0.914683 -0.914700
142.600000 -0.914685 -0.914700
142.650000 -0.914686 -0.914700
142.700000 -0.914689 -0.914700
142.750000 -0.914691 -0.914700
142.800000 -0.914694 -0.914700
142.850000 -0.914697 -0.914700
142.900000 -0.914699 -0.914700
142.950000 -0.914702 -0.914700
143.000000 -0.914705 -0.914700
143.050000 -0.914708 -0.914700
143.100000 -0.914710 -0.914700
143.150000 -0.914712 -0.914700
143.200000 -0.914714 -0.914700
143.250000 -0.914716 -0.914700
143.300000 -0.914717 -0.914700
143.350000 -0.914718 -0.914700
143.400000 -0.914718 -0.914700
143.450000 -0.914718 -0.914700
143.500000 -0.914718 -0.914700
143.550000 -0.914717 -0.914700
143.600000 -0.914715 -0.914700
143.650000 -0.914714 -0.914700
143.700000 -0.914712 -0.914700
143.750000 -0.914709 -0.914700
143.800000 -0.914707 -0.914700
143.850000 -0.914704 -0.914700
143.900000 -0.914702 -0.914700
143.950000 -0.914699 -0.914700
144.000000 -0.914696 -0.914700
144.050000 -0.914694 -0.914700
144.100000 -0.914692 -0.914700
144.150000 -0.914690 -0.914700
144.200000 -0.914688 -0.914700
144.250000 -0.914686 -0.914700
144.300000 -0.914685 -0.914700
144.350000 -0.914684 -0.914700
144.400000 -0.914684 -0.914700
144.450000 -0.914684 -0.914700
144.500000 -0.914685 -0.914700
144.550000 -0.914685 -0.914700
144.600000 -0.914687 -0.914700
144.650000 -0.914688 -0.914700
144.700000 -0.914690 -0.914700
144.750000 -0.914692 -0.914700
144.800000 -0.914694 -0.914700
144.850000 -0.914697 -0.914700
144.900000 -0.914699 -0.914700
144.950000 -0.914702 -0.914700
145.000000 -0.914704 -0.914700
145.050000 -0.914706 -0.914700
145.100000 -0.914708 -0.914700
145.150000 -0.914710 -0.914700
145.200000 -0.914712 -0.914700
145.250000 -0.914713 -0.914700
145.300000 -0.914714 -0.914700
145.350000 -0.914715 -0.914700
145.400000 -0.914716 -0.914700
145.450000 -0.914715 -0.914700
145.500000 -0.914715 -0.914700
145.550000 -0.914714 -0.914700
145.600000 -0.914713 -0.914700
145.650000 -0.914712 -0.914700
145.700000 -0.914710 -0.914700
145.750000 -0.914708 -0.914700
145.800000 -0.914706 -0.914700
145.850000 -0.914704 -0.914700
145.900000 -0.914702 -0.914700
145.950000 -0.914700 -0.914700
146.000000 -0.914697 -0.914700
146.050000 -0.914695 -0.914700
146.100000 -0.914693 -0.914700
146.150000 -0.914691 -0.914700
146.200000 -0.914690 -0.914700
146.250000 -0.914689 -0.914700
146.300000 -0.914688 -0.914700
146.350000 -0.914687 -0.914700
146.400000 -0.914687 -0.914700
146.450000 -0.914687 -0.914700
146.500000 -0.914687 -0.914700
146.550000 -0.914688 -0.914700
146.600000 -0.914689 -0.914700
146.650000 -0.914690 -0.914700
146.700000 -0.914691 -0.914700
146.750000 -0.914693 -0.914700
146.800000 -0.914695 -0.914700
146.850000 -0.914697 -0.914700
146.900000 -0.914699 -0.914700
146.950000 -0.914701 -0.914700
147.000000 -0.914703 -0.914700
147.050000 -0.914705 -0.914700
147.100000 -0.914707 -0.914700
147.150000 -0.914709 -0.914700
147.200000 -0.914710 -0.914700
147.250000 -0.914711 -0.914700
147.300000 -0.914712 -0.914700
147.350000 -0.914713 -0.914700
147.400000 -0.914713 -0.914700
147.450000 -0.914713 -0.914700
147.500000 -0.914713 -0.914700
147.550000 -0.914712 -0.914700
147.600000 -0.914712 -0.914700
147.650000 -0.914710 -0.914700
147.700000 -0.914709 -0.914700
147.750000 -0.914708 -0.914700
147.800000 -0.914706 -0.914700
147.850000 -0.914704 -0.914700
147.900000 -0.914702 -0.914700
147.950000 -0.914700 -0.914700
148.000000 -0.914698 -0.914700
148.050000 -0.914696 -0.914700
148.100000 -0.914695 -0.914700
148.150000 -0.914693 -0.914700
148.200000 -0.914692 -0.914700
148.250000 -0.914691 -0.914700
148.300000 -0.914690 -0.914700
148.350000 -0.914689 -0.914700
148.400000 -0.914689 -0.914700
148.450000 -0.914689 -0.914700
148.500000 -0.914689 -0.914700
148.550000 -0.914689 -0.914700
148.600000 -0.914690 -0.914700
148.650000 -0.914691 -0.914700
148.700000 -0.914692 -0.914700
148.750000 -0.914694 -0.914700
148.800000 -0.914695 -0.914700
148.850000 -0.914697 -0.914700
148.900000 -0.914699 -0.914700
148.950000 -0.914701 -0.914700
149.000000 -0.914702 -0.914700
149.050000 -0.914704 -0.914700
149.100000 -0.914706 -0.914700
149.150000 -0.914707 -0.914700
149.200000 -0.914708 -0.914700
149.250000 -0.914709 -0.914700
149.300000 -0.914710 -0.914700
149.350000 -0.914711 -0.914700
149.400000 -0.914711 -0.914700
149.450000 -0.914711 -0.914700
149.500000 -0.914711 -0.914700
149.550000 -0.914711 -0.914700
149.600000 -0.914710 -0.914700
149.650000 -0.914709 -0.914700
149.700000 -0.914708 -0.914700
149.750000 -0.914707 -0.914700
149.800000 -0.914705 -0.914700
149.850000 -0.914704 -0.914700
149.900000 -0.914702 -0.914700
149.950000 -0.914700 -0.914700
150.000000 -0.914699 -0.914700
150.050000 -0.914697 -0.914700
150.100000 -0.914696 -0.914700
150.150000 -0.914694 -0.914700
150.200000 -0.914693 -0.914700
150.250000 -0.914692 -0.914700
150.300000 -0.914691 -0.914700
150.350000 -0.914691 -0.914700
150.400000 -0.914690 -0.914700
150.450000 -0.914690 -0.914700
150.500000 -0.914690 -0.914700
150.550000 -0.914691 -0.914700
150.600000 -0.914691 -0.914700
150.650000 -0.914692 -0.914700
150.700000 -0.914693 -0.914700
150.750000 -0.914695 -0.914700
150.800000 -0.914696 -0.914700
150.850000 -0.914697 -0.914700
150.900000 -0.914699 -0.914700
150.950000 -0.914700 -0.914700
151.000000 -0.914702 -0.914700
151.050000 -0.914703 -0.914700
151.100000 -0.914705 -0.914700
151.150000 -0.914706 -0.914700
151.200000 -0.914707 -0.914700
151.250000 -0.914708 -0.914700
151.300000 -0.914709 -0.914700
151.350000 -0.914709 -0.914700
151.400000 -0.914710 -0.914700
151.450000 -0.914710 -0.914700
151.500000 -0.914710 -0.914700
151.550000 -0.914709 -0.914700
151.600000 -0.914709 -0.914700
151.650000 -0.914708 -0.914700
151.700000 -0.914707 -0.914700
151.750000 -0.914706 -0.914700
151.800000 -0.914705 -0.914700
151.850000 -0.914704 -0.914700
151.900000 -0.914702 -0.914700
151.950000 -0.914701 -0.914700
152.000000 -0.914699 -0.914700
152.050000 -0.914698 -0.914700
152.100000 -0.914697 -0.914700
152.150000 -0.914696 -0.914700
152.200000 -0.914694 -0.914700
152.250000 -0.914694 -0.914700
152.300000 -0.914693 -0.914700
152.350000 -0.914692 -0.914700
152.400000 -0.914692 -0.914700
152.450000 -0.914692 -0.914700
152.500000 -0.914692 -0.914700
152.550000 -0.914692 -0.914700
152.600000 -0.914693 -0.914700
152.650000 -0.914693 -0.914700
152.700000 -0.914694 -0.914700
152.750000 -0.914695 -0.914700
152.800000 -0.914696 -0.914700
152.850000 -0.914698 -0.914700
152.900000 -0.914699 -0.914700
152.950000 -0.914700 -0.914700
153.000000 -0.914701 -0.914700
153.050000 -0.914703 -0.914700
153.100000 -0.914704 -0.914700
153.150000 -0.914705 -0.914700
153.200000 -0.914706 -0.914700
153.250000 -0.914707 -0.914700
153.300000 -0.914707 -0.914700
153.350000 -0.914708 -0.914700
153.400000 -0.914708 -0.914700
153.450000 -0.914708 -0.914700
153.500000 -0.914708 -0.914700
153.550000 -0.914708 -0.914700
153.600000 -0.914708 -0.914700
153.650000 -0.914707 -0.914700
153.700000 -0.914706 -0.914700
153.750000 -0.914705 -0.914700
153.800000 -0.914704 -0.914700
153.850000 -0.914703 -0.914700
153.900000 -0.914702 -0.914700
153.950000 -0.914701 -0.914700
154.000000 -0.914700 -0.914700
154.050000 -0.914699 -0.914700
154.100000 -0.914697 -0.914700
154.150000 -0.914696 -0.914700
154.200000 -0.914696 -0.914700
154.250000 -0.914695 -0.914700
154.300000 -0.914694 -0.914700
154.350000 -0.914694 -0.914700
154.400000 -0.914693 -0.914700
154.450000 -0.914693 -0.914700
154.500000 -0.914693 -0.914700
154.550000 -0.914693 -0.914700
154.600000 -0.914694 -0.914700
154.650000 -0.914694 -0.914700
154.700000 -0.914695 -0.914700
154.750000 -0.914696 -0.914700
154.800000 -0.914697 -0.914700
154.850000 -0.914698 -0.914700
154.900000 -0.914699 -0.914700
154.950000 -0.914700 -0.914700
155.000000 -0.914701 -0.914700
155.050000 -0.914702 -0.914700
155.100000 -0.914703 -0.914700
155.150000 -0.914704 -0.914700
155.200000 -0.914705 -0.914700
155.250000 -0.914706 -0.914700
155.300000 -0.914706 -0.914700
155.350000 -0.914707 -0.914700
155.400000 -0.914707 -0.914700
155.450000 -0.914707 -0.914700
155.500000 -0.914707 -0.914700
155.550000 -0.914707 -0.914700
155.600000 -0.914707 -0.914700
155.650000 -0.914706 -0.914700
155.700000 -0.914706 -0.914700
155.750000 -0.914705 -0.914700
155.800000 -0.914704 -0.914700
155.850000 -0.914703 -0.914700
155.900000 -0.914702 -0.914700
155.950000 -0.914701 -0.914700
156.000000 -0.914700 -0.914700
156.050000 -0.914699 -0.914700
156.100000 -0.914698 -0.914700
156.150000 -0.914697 -0.914700
156.200000 -0.914696 -0.914700
156.250000 -0.914696 -0.914700
156.300000 -0.914695 -0.914700
156.350000 -0.914695 -0.914700
156.400000 -0.914694 -0.914700
156.450000 -0.914694 -0.914700
156.500000 -0.914694 -0.914700
156.550000 -0.914694 -0.914700
156.600000 -0.914695 -0.914700
156.650000 -0.914695 -0.914700
156.700000 -0.914696 -0.914700
156.750000 -0.914696 -0.914700
156.800000 -0.914697 -0.914700
156.850000 -0.914698 -0.914700
156.900000 -0.914699 -0.914700
156.950000 -0.914700 -0.914700
157.000000 -0.914701 -0.914700
157.050000 -0.914702 -0.914700
157.100000 -0.914703 -0.914700
157.150000 -0.914703 -0.914700
157.200000 -0.914704 -0.914700
157.250000 -0.914705 -0.914700
157.300000 -0.914705 -0.914700
157.350000 -0.914706 -0.914700
157.400000 -0.914706 -0.914700
157.450000 -0.914706 -0.914700
157.500000 -0.914706 -0.914700
157.550000 -0.914706 -0.914700
157.600000 -0.914706 -0.914700
157.650000 -0.914705 -0.914700
157.700000 -0.914705 -0.914700
157.750000 -0.914704 -0.914700
157.800000 -0.914704 -0.914700
157.850000 -0.914703 -0.914700
157.900000 -0.914702 -0.914700
157.950000 -0.914701 -0.914700
158.000000 -0.914700 -0.914700
158.050000 -0.914699 -0.914700
158.100000 -0.914699 -0.914700
158.150000 -0.914698 -0.914700
158.200000 -0.914697 -0.914700
158.250000 -0.914696 -0.914700
158.300000 -0.914696 -0.914700
158.350000 -0.914696 -0.914700
158.400000 -0.914695 -0.914700
158.450000 -0.914695 -0.914700
158.500000 -0.914695 -0.914700
158.550000 -0.914695 -0.914700
158.600000 -0.914695 -0.914700
158.650000 -0.914696 -0.914700
158.700000 -0.914696 -0.914700
158.750000 -0.914697 -0.914700
158.800000 -0.914698 -0.914700
158.850000 -0.914698 -0.914700
158.900000 -0.914699 -0.914700
158.950000 -0.914700 -0.914700
159.000000 -0.914701 -0.914700
159.050000 -0.914701 -0.914700
159.100000 -0.914702 -0.914700
159.150000 -0.914703 -0.914700
159.200000 -0.914703 -0.914700
159.250000 -0.914704 -0.914700
159.300000 -0.914705 -0.914700
159.350000 -0.914705 -0.914700
159.400000 -0.914705 -0.914700
159.450000 -0.914705 -0.914700
159.500000 -0.914705 -0.914700
159.550000 -0.914705 -0.914700
159.600000 -0.914705 -0.914700
159.650000 -0.914705 -0.914700
159.700000 -0.914704 -0.914700
159.750000 -0.914704 -0.914700
159.800000 -0.914703 -0.914700
159.850000 -0.914703 -0.914700
159.900000 -0.914702 -0.914700
159.950000 -0.914701 -0.914700
160.000000 -0.914700 -0.914700
160.050000 -0.914700 -0.914700
160.100000 -0.914699 -0.914700
160.150000 -0.914698 -0.914700
160.200000 -0.914698 -0.914700
160.250000 -0.914697 -0.914700
160.300000 -0.914697 -0.914700
160.350000 -0.914696 -0.914700
160.400000 -0.914696 -0.914700
160.450000 -0.914696 -0.914700
160.500000 -0.914696 -0.914700
160.550000 -0.914696 -0.914700
160.600000 -0.914696 -0.914700
160.650000 -0.914696 -0.914700
160.700000 -0.914697 -0.914700
160.750000 -0.914697 -0.914700
160.800000 -0.914698 -0.914700
160.850000 -0.914698 -0.914700
160.900000 -0.914699 -0.914700
160.950000 -0.914700 -0.914700
161.000000 -0.914700 -0.914700
161.050000 -0.914701 -0.914700
161.100000 -0.914702 -0.914700
161.150000 -0.914702 -0.914700
161.200000 -0.914703 -0.914700
161.250000 -0.914703 -0.914700
161.300000 -0.914704 -0.914700
161.350000 -0.914704 -0.914700
161.400000 -0.914704 -0.914700
161.450000 -0.914705 -0.914700
161.500000 -0.914705 -0.914700
161.550000 -0.914705 -0.914700
161.600000 -0.914704 -0.914700
161.650000 -0.914704 -0.914700
161.700000 -0.914704 -0.914700
161.750000 -0.914703 -0.914700
161.800000 -0.914703 -0.914700
161.850000 -0.914702 -0.914700
161.900000 -0.914702 -0.914700
161.950000 -0.914701 -0.914700
162.000000 -0.914701 -0.914700
162.050000 -0.914700 -0.914700
162.100000 -0.914699 -0.914700
162.150000 -0.914699 -0.914700
162.200000 -0.914698 -0.914700
162.250000 -0.914698 -0.914700
162.300000 -0.914697 -0.914700
162.350000 -0.914697 -0.914700
162.400000 -0.914697 -0.914700
162.450000 -0.914697 -0.914700
162.500000 -0.914697 -0.914700
162.550000 -0.914697 -0.914700
162.600000 -0.914697 -0.914700
162.650000 -0.914697 -0.914700
162.700000 -0.914697 -0.914700
162.750000 -0.914698 -0.914700
162.800000 -0.914698 -0.914700
162.850000 -0.914699 -0.914700
162.900000 -0.914699 -0.914700
162.950000 -0.914700 -0.914700
163.000000 -0.914700 -0.914700
163.050000 -0.914701 -0.914700
163.100000 -0.914701 -0.914700
163.150000 -0.914702 -0.914700
163.200000 -0.914702 -0.914700
163.250000 -0.914703 -0.914700
163.300000 -0.914703 -0.914700
163.350000 -0.914704 -0.914700
163.400000 -0.914704 -0.914700
163.450000 -0.914704 -0.914700
163.500000 -0.914704 -0.914700
163.550000 -0.914704 -0.914700
163.600000 -0.914704 -0.914700
163.650000 -0.914704 -0.914700
163.700000 -0.914703 -0.914700
163.750000 -0.914703 -0.914700
163.800000 -0.914703 -0.914700
163.850000 -0.914702 -0.914700
163.900000 -0.914702 -0.914700
163.950000 -0.914701 -0.914700
164.000000 -0.914701 -0.914700
164.050000 -0.914700 -0.914700
164.100000 -0.914700 -0.914700
164.150000 -0.914699 -0.914700
164.200000 -0.914699 -0.914700
164.250000 -0.914698 -0.914700
164.300000 -0.914698 -0.914700
164.350000 -0.914698 -0.914700
164.400000 -0.914697 -0.914700
164.450000 -0.914697 -0.914700
164.500000 -0.914697 -0.914700
164.550000 -0.914697 -0.914700
164.600000 -0.914697 -0.914700
164.650000 -0.914697 -0.914700
164.700000 -0.914698 -0.914700
164.750000 -0.914698 -0.914700
164.800000 -0.914698 -0.914700
164.850000 -0.914699 -0.914700
164.900000 -0.914699 -0.914700
164.950000 -0.914700 -0.914700
165.000000 -0.914700 -0.914700
165.050000 -0.914701 -0.914700
165.100000 -0.914701 -0.914700
165.150000 -0.914702 -0.914700
165.200000 -0.914702 -0.914700
165.250000 -0.914702 -0.914700
165.300000 -0.914703 -0.914700
165.350000 -0.914703 -0.914700
165.400000 -0.914703 -0.914700
165.450000 -0.914703 -0.914700
165.500000 -0.914703 -0.914700
165.550000 -0.914703 -0.914700
165.600000 -0.914703 -0.914700
165.650000 -0.914703 -0.914700
165.700000 -0.914703 -0.914700
165.750000 -0.914703 -0.914700
165.800000 -0.914702 -0.914700
165.850000 -0.914702 -0.914700
165.900000 -0.914702 -0.914700
165.950000 -0.914701 -0.914700
166.000000 -0.914701 -0.914700
166.050000 -0.914700 -0.914700
166.100000 -0.914700 -0.914700
166.150000 -0.914699 -0.914700
166.200000 -0.914699 -0.914700
166.250000 -0.914699 -0.914700
166.300000 -0.914698 -0.914700
166.350000 -0.914698 -0.914700
166.400000 -0.914698 -0.914700
166.450000 -0.914698 -0.914700
166.500000 -0.914698 -0.914700
166.550000 -0.914698 -0.914700
166.600000 -0.914698 -0.914700
166.650000 -0.914698 -0.914700
166.700000 -0.914698 -0.914700
166.750000 -0.914698 -0.914700
166.800000 -0.914699 -0.914700
166.850000 -0.914699 -0.914700
166.900000 -0.914699 -0.914700
166.950000 -0.914700 -0.914700
167.000000 -0.914700 -0.914700
167.050000 -0.914701 -0.914700
167.100000 -0.914701 -0.914700
167.150000 -0.914701 -0.914700
167.200000 -0.914702 -0.914700
167.250000 -0.914702 -0.914700
167.300000 -0.914702 -0.914700
167.350000 -0.914703 -0.914700
167.400000 -0.914703 -0.914700
167.450000 -0.914703 -0.914700
167.500000 -0.914703 -0.914700
167.550000 -0.914703 -0.914700
167.600000 -0.914703 -0.914700
167.650000 -0.914703 -0.914700
167.700000 -0.914703 -0.914700
167.750000 -0.914702 -0.914700
167.800000 -0.914702 -0.914700
167.850000 -0.914702 -0.914700
167.900000 -0.914701 -0.914700
167.950000 -0.914701 -0.914700
168.000000 -0.914701 -0.914700
168.050000 -0.914700 -0.914700
168.100000 -0.914700 -0.914700
168.150000 -0.914700 -0.914700
168.200000 -0.914699 -0.914700
168.250000 -0.914699 -0.914700
168.300000 -0.914699 -0.914700
168.350000 -0.914698 -0.914700
168.400000 -0.914698 -0.914700
168.450000 -0.914698 -0.914700
168.500000 -0.914698 -0.914700
168.550000 -0.914698 -0.914700
168.600000 -0.914698 -0.914700
168.650000 -0.914698 -0.914700
168.700000 -0.914698 -0.914700
168.750000 -0.914699 -0.914700
168.800000 -0.914699 -0.914700
168.850000 -0.914699 -0.914700
168.900000 -0.914699 -0.914700
168.950000 -0.914700 -0.914700
169.000000 -0.914700 -0.914700
169.050000 -0.914701 -0.914700
169.100000 -0.914701 -0.914700
169.150000 -0.914701 -0.914700
169.200000 -0.914702 -0.914700
169.250000 -0.914702 -0.914700
169.300000 -0.914702 -0.914700
169.350000 -0.914702 -0.914700
169.400000 -0.914702 -0.914700
169.450000 -0.914703 -0.914700
169.500000 -0.914703 -0.914700
169.550000 -0.914703 -0.914700
169.600000 -0.914703 -0.914700
169.650000 -0.914703 -0.914700
169.700000 -0.914702 -0.914700
169.750000 -0.914702 -0.914700
169.800000 -0.914702 -0.914700
169.850000 -0.914702 -0.914700
169.900000 -0.914701 -0.914700
169.950000 -0.914701 -0.914700
170.000000 -0.914701 -0.914700
170.050000 -0.914700 -0.914700
170.100000 -0.914700 -0.914700
170.150000 -0.914700 -0.914700
170.200000 -0.914699 -0.914700
170.250000 -0.914699 -0.914700
170.300000 -0.914699 -0.914700
170.350000 -0.914699 -0.914700
170.400000 -0.914699 -0.914700
170.450000 -0.914699 -0.914700
170.500000 -0.914698 -0.914700
170.550000 -0.914698 -0.914700
170.600000 -0.914698 -0.914700
170.650000 -0.914699 -0.914700
170.700000 -0.914699 -0.914700
170.750000 -0.914699 -0.914700
170.800000 -0.914699 -0.914700
170.850000 -0.914699 -0.914700
170.900000 -0.914700 -0.914700
170.950000 -0.914700 -0.914700
171.000000 -0.914700 -0.914700
171.050000 -0.914700 -0.914700
171.100000 -0.914701 -0.914700
171.150000 -0.914701 -0.914700
171.200000 -0.914701 -0.914700
171.250000 -0.914702 -0.914700
171.300000 -0.914702 -0.914700
171.350000 -0.914702 -0.914700
171.400000 -0.914702 -0.914700
171.450000 -0.914702 -0.914700
171.500000 -0.914702 -0.914700
171.550000 -0.914702 -0.914700
171.600000 -0.914702 -0.914700
171.650000 -0.914702 -0.914700
171.700000 -0.914702 -0.914700
171.750000 -0.914702 -0.914700
171.800000 -0.914702 -0.914700
171.850000 -0.914702 -0.914700
171.900000 -0.914701 -0.914700
171.950000 -0.914701 -0.914700
172.000000 -0.914701 -0.914700
172.050000 -0.914700 -0.914700
172.100000 -0.914700 -0.914700
172.150000 -0.914700 -0.914700
172.200000 -0.914700 -0.914700
172.250000 -0.914699 -0.914700
172.300000 -0.914699 -0.914700
172.350000 -0.914699 -0.914700
172.400000 -0.914699 -0.914700
172.450000 -0.914699 -0.914700
172.500000 -0.914699 -0.914700
172.550000 -0.914699 -0.914700
172.600000 -0.914699 -0.914700
172.650000 -0.914699 -0.914700
172.700000 -0.914699 -0.914700
172.750000 -0.914699 -0.914700
172.800000 -0.914699 -0.914700
172.850000 -0.914699 -0.914700
172.900000 -0.914700 -0.914700
172.950000 -0.914700 -0.914700
173.000000 -0.914700 -0.914700
173.050000 -0.914700 -0.914700
173.100000 -0.914701 -0.914700
173.150000 -0.914701 -0.914700
173.200000 -0.914701 -0.914700
173.250000 -0.914701 -0.914700
173.300000 -0.914702 -0.914700
173.350000 -0.914702 -0.914700
173.400000 -0.914702 -0.914700
173.450000 -0.914702 -0.914700
173.500000 -0.914702 -0.914700
173.550000 -0.914702 -0.914700
173.600000 -0.914702 -0.914700
173.650000 -0.914702 -0.914700
173.700000 -0.914702 -0.914700
173.750000 -0.914702 -0.914700
173.800000 -0.914702 -0.914700
173.850000 -0.914701 -0.914700
173.900000 -0.914701 -0.914700
173.950000 -0.914701 -0.914700
174.000000 -0.914701 -0.914700
174.050000 -0.914701 -0.914700
174.100000 -0.914700 -0.914700
174.150000 -0.914700 -0.914700
174.200000 -0.914700 -0.914700
174.250000 -0.914700 -0.914700
174.300000 -0.914699 -0.914700
174.350000 -0.914699 -0.914700
174.400000 -0.914699 -0.914700
174.450000 -0.914699 -0.914700
174.500000 -0.914699 -0.914700
174.550000 -0.914699 -0.914700
174.600000 -0.914699 -0.914700
174.650000 -0.914699 -0.914700
174.700000 -0.914699 -0.914700
174.750000 -0.914699 -0.914700
174.800000 -0.914699 -0.914700
174.850000 -0.914700 -0.914700
174.900000 -0.914700 -0.914700
174.950000 -0.914700 -0.914700
175.000000 -0.914700 -0.914700
175.050000 -0.914700 -0.914700
175.100000 -0.914701 -0.914700
175.150000 -0.914701 -0.914700
175.200000 -0.914701 -0.914700
175.250000 -0.914701 -0.914700
175.300000 -0.914701 -0.914700
175.350000 -0.914702 -0.914700
175.400000 -0.914702 -0.914700
175.450000 -0.914702 -0.914700
175.500000 -0.914702 -0.914700
175.550000 -0.914702 -0.914700
175.600000 -0.914702 -0.914700
175.650000 -0.914702 -0.914700
175.700000 -0.914702 -0.914700
175.750000 -0.914702 -0.914700
175.800000 -0.914701 -0.914700
175.850000 -0.914701 -0.914700
175.900000 -0.914701 -0.914700
175.950000 -0.914701 -0.914700
176.000000 -0.914701 -0.914700
176.050000 -0.914701 -0.914700
176.100000 -0.914700 -0.914700
176.150000 -0.914700 -0.914700
176.200000 -0.914700 -0.914700
176.250000 -0.914700 -0.914700
176.300000 -0.914700 -0.914700
176.350000 -0.914699 -0.914700
176.400000 -0.914699 -0.914700
176.450000 -0.914699 -0.914700
176.500000 -0.914699 -0.914700
176.550000 -0.914699 -0.914700
176.600000 -0.914699 -0.914700
176.650000 -0.914699 -0.914700
176.700000 -0.914699 -0.914700
176.750000 -0.914699 -0.914700
176.800000 -0.914700 -0.914700
176.850000 -0.914700 -0.914700
176.900000 -0.914700 -0.914700
176.950000 -0.914700 -0.914700
177.000000 -0.914700 -0.914700
177.050000 -0.914700 -0.914700
177.100000 -0.914701 -0.914700
177.150000 -0.914701 -0.914700
177.200000 -0.914701 -0.914700
177.250000 -0.914701 -0.914700
177.300000 -0.914701 -0.914700
177.350000 -0.914701 -0.914700
177.400000 -0.914701 -0.914700
177.450000 -0.914702 -0.914700
177.500000 -0.914702 -0.914700
177.550000 -0.914702 -0.914700
177.600000 -0.914702 -0.914700
177.650000 -0.914702 -0.914700
177.700000 -0.914702 -0.914700
177.750000 -0.914701 -0.914700
177.800000 -0.914701 -0.914700
177.850000 -0.914701 -0.914700
177.900000 -0.914701 -0.914700
177.950000 -0.914701 -0.914700
178.000000 -0.914701 -0.914700
178.050000 -0.914701 -0.914700
178.100000 -0.914700 -0.914700
178.150000 -0.914700 -0.914700
178.200000 -0.914700 -0.914700
178.250000 -0.914700 -0.914700
178.300000 -0.914700 -0.914700
178.350000 -0.914700 -0.914700
178.400000 -0.914700 -0.914700
178.450000 -0.914699 -0.914700
178.500000 -0.914699 -0.914700
178.550000 -0.914699 -0.914700
178.600000 -0.914699 -0.914700
178.650000 -0.914699 -0.914700
178.700000 -0.914699 -0.914700
178.750000 -0.914700 -0.914700
178.800000 -0.914700 -0.914700
178.850000 -0.914700 -0.914700
178.900000 -0.914700 -0.914700
178.950000 -0.914700 -0.914700
179.000000 -0.914700 -0.914700
179.050000 -0.914700 -0.914700
179.100000 -0.914701 -0.914700
179.150000 -0.914701 -0.914700
179.200000 -0.914701 -0.914700
179.250000 -0.914701 -0.914700
179.300000 -0.914701 -0.914700
179.350000 -0.914701 -0.914700
179.400000 -0.914701 -0.914700
179.450000 -0.914701 -0.914700
179.500000 -0.914701 -0.914700
179.550000 -0.914701 -0.914700
179.600000 -0.914701 -0.914700
179.650000 -0.914701 -0.914700
179.700000 -0.914701 -0.914700
179.750000 -0.914701 -0.914700
179.800000 -0.914701 -0.914700
179.850000 -0.914701 -0.914700
179.900000 -0.914701 -0.914700
179.950000 -0.914701 -0.914700
180.000000 -0.914701 -0.914700
180.050000 -0.914701 -0.914700
180.100000 -0.914700 -0.914700
180.150000 -0.914700 -0.914700
180.200000 -0.914700 -0.914700
180.250000 -0.914700 -0.914700
180.300000 -0.914700 -0.914700
180.350000 -0.914700 -0.914700
180.400000 -0.914700 -0.914700
180.450000 -0.914700 -0.914700
180.500000 -0.914700 -0.914700
180.550000 -0.914700 -0.914700
180.600000 -0.914700 -0.914700
180.650000 -0.914700 -0.914700
180.700000 -0.914700 -0.914700
180.750000 -0.914700 -0.914700
180.800000 -0.914700 -0.914700
180.850000 -0.914700 -0.914700
180.900000 -0.914700 -0.914700
180.950000 -0.914700 -0.914700
181.000000 -0.914700 -0.914700
181.050000 -0.914700 -0.914700
181.100000 -0.914700 -0.914700
181.150000 -0.914701 -0.914700
181.200000 -0.914701 -0.914700
181.250000 -0.914701 -0.914700
181.300000 -0.914701 -0.914700
181.350000 -0.914701 -0.914700
181.400000 -0.914701 -0.914700
181.450000 -0.914701 -0.914700
181.500000 -0.914701 -0.914700
181.550000 -0.914701 -0.914700
181.600000 -0.914701 -0.914700
181.650000 -0.914701 -0.914700
181.700000 -0.914701 -0.914700
181.750000 -0.914701 -0.914700
181.800000 -0.914701 -0.914700
181.850000 -0.914701 -0.914700
181.900000 -0.914701 -0.914700
181.950000 -0.914701 -0.914700
182.000000 -0.914701 -0.914700
182.050000 -0.914701 -0.914700
182.100000 -0.914700 -0.914700
182.150000 -0.914700 -0.914700
182.200000 -0.914700 -0.914700
182.250000 -0.914700 -0.914700
182.300000 -0.914700 -0.914700
182.350000 -0.914700 -0.914700
182.400000 -0.914700 -0.914700
182.450000 -0.914700 -0.914700
182.500000 -0.914700 -0.914700
182.550000 -0.914700 -0.914700
182.600000 -0.914700 -0.914700
182.650000 -0.914700 -0.914700
182.700000 -0.914700 -0.914700
182.750000 -0.914700 -0.914700
182.800000 -0.914700 -0.914700
182.850000 -0.914700 -0.914700
182.900000 -0.914700 -0.914700
182.950000 -0.914700 -0.914700
183.000000 -0.914700 -0.914700
183.050000 -0.914700 -0.914700
183.100000 -0.914700 -0.914700
183.150000 -0.914701 -0.914700
183.200000 -0.914701 -0.914700
183.250000 -0.914701 -0.914700
183.300000 -0.914701 -0.914700
183.350000 -0.914701 -0.914700
183.400000 -0.914701 -0.914700
183.450000 -0.914701 -0.914700
183.500000 -0.914701 -0.914700
183.550000 -0.914701 -0.914700
183.600000 -0.914701 -0.914700
183.650000 -0.914701 -0.914700
183.700000 -0.914701 -0.914700
183.750000 -0.914701 -0.914700
183.800000 -0.914701 -0.914700
183.850000 -0.914701 -0.914700
183.900000 -0.914701 -0.914700
183.950000 -0.914701 -0.914700
184.000000 -0.914701 -0.914700
184.050000 -0.914701 -0.914700
184.100000 -0.914700 -0.914700
184.150000 -0.914700 -0.914700
184.200000 -0.914700 -0.914700
184.250000 -0.914700 -0.914700
184.300000 -0.914700 -0.914700
184.350000 -0.914700 -0.914700
184.400000 -0.914700 -0.914700
184.450000 -0.914700 -0.914700
184.500000 -0.914700 -0.914700
184.550000 -0.914700 -0.914700
184.600000 -0.914700 -0.914700
184.650000 -0.914700 -0.914700
184.700000 -0.914700 -0.914700
184.750000 -0.914700 -0.914700
184.800000 -0.914700 -0.914700
184.850000 -0.914700 -0.914700
184.900000 -0.914700 -0.914700
184.950000 -0.914700 -0.914700
185.000000 -0.914700 -0.914700
185.050000 -0.914700 -0.914700
185.100000 -0.914700 -0.914700
185.150000 -0.914701 -0.914700
185.200000 -0.914701 -0.914700
185.250000 -0.914701 -0.914700
185.300000 -0.914701 -0.914700
185.350000 -0.914701 -0.914700
185.400000 -0.914701 -0.914700
185.450000 -0.914701 -0.914700
185.500000 -0.914701 -0.914700
185.550000 -0.914701 -0.914700
185.600000 -0.914701 -0.914700
185.650000 -0.914701 -0.914700
185.700000 -0.914701 -0.914700
185.750000 -0.914701 -0.914700
185.800000 -0.914701 -0.914700
185.850000 -0.914701 -0.914700
185.900000 -0.914701 -0.914700
185.950000 -0.914701 -0.914700
186.000000 -0.914701 -0.914700
186.050000 -0.914701 -0.914700
186.100000 -0.914700 -0.914700
186.150000 -0.914700 -0.914700
186.200000 -0.914700 -0.914700
186.250000 -0.914700 -0.914700
186.300000 -0.914700 -0.914700
186.350000 -0.914700 -0.914700
186.400000 -0.914700 -0.914700
186.450000 -0.914700 -0.914700
186.500000 -0.914700 -0.914700
186.550000 -0.914700 -0.914700
186.600000 -0.914700 -0.914700
186.650000 -0.914700 -0.914700
186.700000 -0.914700 -0.914700
186.750000 -0.914700 -0.914700
186.800000 -0.914700 -0.914700
186.850000 -0.914700 -0.914700
