time[ns] Raw_signal[mV]
-11.150000 0.214803
-11.100000 0.252488
-11.050000 0.286746
-11.000000 0.303876
-10.950000 0.317580
-10.900000 0.310728
-10.850000 0.242211
-10.800000 0.142860
-10.750000 0.098323
-10.700000 0.091471
-10.650000 0.081193
-10.600000 0.088046
-10.550000 0.146285
-10.500000 0.211378
-10.450000 0.262765
-10.400000 0.327858
-10.350000 0.413505
-10.300000 0.471745
-10.250000 0.461468
-10.200000 0.406653
-10.150000 0.344987
-10.100000 0.266192
-10.050000 0.122304
-10.000000 -0.062694
-9.950000 -0.227137
-9.900000 -0.340191
-9.850000 -0.422413
-9.800000 -0.487504
-9.750000 -0.487504
-9.700000 -0.401857
-9.650000 -0.302506
-9.600000 -0.237414
-9.550000 -0.182600
-9.500000 -0.100378
-9.450000 -0.025009
-9.400000 0.009250
-9.350000 0.019527
-9.300000 0.009250
-9.250000 -0.045564
-9.200000 -0.117508
-9.150000 -0.189452
-9.100000 -0.247692
-9.050000 -0.292229
-9.000000 -0.326487
-8.950000 -0.340191
-8.900000 -0.312784
-8.850000 -0.261395
-8.800000 -0.216859
-8.750000 -0.168896
-8.700000 -0.107230
-8.650000 -0.072971
-8.600000 -0.083249
-8.550000 -0.100379
-8.500000 -0.107230
-8.450000 -0.127786
-8.400000 -0.162045
-8.350000 -0.175749
-8.300000 -0.165471
-8.250000 -0.155193
-8.200000 -0.144915
-8.150000 -0.103805
-8.100000 -0.055842
-8.050000 -0.014731
-8.000000 0.050361
-7.950000 0.125731
-7.900000 0.166841
-7.850000 0.163415
-7.800000 0.136008
-7.750000 0.094897
-7.700000 0.033231
-7.650000 -0.025009
-7.600000 -0.090101
-7.550000 -0.148341
-7.500000 -0.168897
-7.450000 -0.158619
-7.400000 -0.151767
-7.350000 -0.127786
-7.300000 -0.048990
-7.250000 0.081193
-7.200000 0.225080
-7.150000 0.358691
-7.100000 0.478597
-7.050000 0.557392
-7.000000 0.598503
-6.950000 0.601929
-6.900000 0.550541
-6.850000 0.464894
-6.800000 0.372395
-6.750000 0.266192
-6.700000 0.105175
-6.650000 -0.072971
-6.600000 -0.216859
-6.550000 -0.347043
-6.500000 -0.473801
-6.450000 -0.556022
-6.400000 -0.593707
-6.350000 -0.645095
-6.300000 -0.682780
-6.250000 -0.693058
-6.200000 -0.717038
-6.150000 -0.754724
-6.100000 -0.758149
-6.050000 -0.727316
-6.000000 -0.696484
-5.950000 -0.648521
-5.900000 -0.586855
-5.850000 -0.538893
-5.800000 -0.501208
-5.750000 -0.453246
-5.700000 -0.425839
-5.650000 -0.446394
-5.600000 -0.484078
-5.550000 -0.511485
-5.500000 -0.552596
-5.450000 -0.603984
-5.400000 -0.648522
-5.350000 -0.655372
-5.300000 -0.607411
-5.250000 -0.525189
-5.200000 -0.429264
-5.150000 -0.302506
-5.100000 -0.165470
-5.050000 -0.045565
-5.000000 0.060638
-4.950000 0.129156
-4.900000 0.156563
-4.850000 0.166840
-4.800000 0.142860
-4.750000 0.046935
-4.700000 -0.086675
-4.650000 -0.227137
-4.600000 -0.388153
-4.550000 -0.549170
-4.500000 -0.655372
-4.450000 -0.734168
-4.400000 -0.819816
-4.350000 -0.850648
-4.300000 -0.792408
-4.250000 -0.723890
-4.200000 -0.665651
-4.150000 -0.583429
-4.100000 -0.494356
-4.050000 -0.422413
-4.000000 -0.347042
-3.950000 -0.271674
-3.900000 -0.230563
-3.850000 -0.206581
-3.800000 -0.155193
-3.750000 -0.096953
-3.700000 -0.079823
-3.650000 -0.066119
-3.600000 -0.038713
-3.550000 -0.031861
-3.500000 -0.042139
-3.450000 -0.069545
-3.400000 -0.103805
-3.350000 -0.148341
-3.300000 -0.257970
-3.250000 -0.449819
-3.200000 -0.552596
-3.150000 -0.501208
-3.100000 -0.521763
-3.050000 -0.645095
-3.000000 -0.583429
-2.950000 -0.371024
-2.900000 -0.305932
-2.850000 -0.299080
-2.800000 -0.158619
-2.750000 -0.076397
-2.700000 -0.035287
-2.650000 0.183970
-2.600000 0.368968
-2.550000 0.283321
-2.500000 0.276469
-2.450000 0.468319
-2.400000 0.458041
-2.350000 0.293599
-2.300000 0.365542
-2.250000 0.464893
-2.200000 0.307302
-2.150000 0.266192
-2.100000 0.461468
-2.050000 0.488874
-2.000000 0.307302
-1.950000 0.245637
-1.900000 0.310728
-1.850000 0.399801
-1.800000 0.547114
-1.750000 0.595077
-1.700000 0.482023
-1.650000 0.478597
-1.600000 0.629336
-1.550000 0.608781
-1.500000 0.478597
-1.450000 0.540263
-1.400000 0.646465
-1.350000 0.574522
-1.300000 0.461467
-1.250000 0.372394
-1.200000 0.190822
-1.150000 0.094897
-1.100000 0.204525
-1.050000 0.153137
-1.000000 -0.131212
-0.950000 -0.189452
-0.900000 -0.011305
-0.850000 0.016102
-0.800000 -0.021584
-0.750000 0.118878
-0.700000 0.187396
-0.650000 0.050360
-0.600000 -0.001027
-0.550000 0.060638
-0.500000 -0.014731
-0.450000 -0.175748
-0.400000 -0.213433
-0.350000 -0.206581
-0.300000 -0.278524
-0.250000 -0.353894
-0.200000 -0.364172
-0.150000 -0.364173
-0.100000 -0.353894
-0.050000 -0.319635
0.000000 -0.254544
0.050000 -0.210007
0.100000 -0.251118
0.150000 -0.343616
0.200000 -0.347043
0.250000 -0.295655
0.300000 -0.377876
0.350000 -0.545744
0.400000 -0.562873
0.450000 -0.442968
0.500000 -0.388154
0.550000 -0.364172
0.600000 -0.261395
0.650000 -0.155193
0.700000 -0.076398
0.750000 0.098323
0.800000 0.434060
0.850000 0.906833
0.900000 1.581733
0.950000 2.595797
1.000000 4.031245
1.050000 5.987428
1.100000 8.625364
1.150000 12.034127
1.200000 16.203430
1.250000 21.105876
1.300000 26.724339
1.350000 32.873812
1.400000 39.324765
1.450000 45.947005
1.500000 52.644625
1.550000 59.236037
1.600000 65.529396
1.650000 71.411658
1.700000 76.855398
1.750000 81.802378
1.800000 86.156688
1.850000 89.901178
1.900000 93.118098
1.950000 95.858798
2.000000 98.017108
2.050000 99.541638
2.100000 100.476908
2.150000 100.846908
2.200000 100.576248
2.250000 99.610148
2.300000 97.952028
2.350000 95.656678
2.400000 92.765228
2.450000 89.308508
2.500000 85.372158
2.550000 81.065808
2.600000 76.475118
2.650000 71.651458
2.700000 66.762718
2.750000 61.939068
2.800000 57.197628
2.850000 52.589818
2.900000 48.324578
2.950000 44.501278
3.000000 41.054838
3.050000 38.077738
3.100000 35.724158
3.150000 33.928988
3.200000 32.613448
3.250000 31.825488
3.300000 31.547992
3.350000 31.650768
3.400000 32.092706
3.450000 32.873813
3.500000 33.863893
3.550000 34.953325
3.600000 36.101008
3.650000 37.252108
3.700000 38.338108
3.750000 39.341898
3.800000 40.242908
3.850000 40.962348
3.900000 41.445388
3.950000 41.681778
4.000000 41.688628
4.050000 41.452248
4.100000 40.907518
4.150000 39.999658
4.200000 38.769768
4.250000 37.317188
4.300000 35.641938
4.350000 33.702878
4.400000 31.585678
4.450000 29.451348
4.500000 27.293038
4.550000 25.090188
4.600000 22.976418
4.650000 21.064770
4.700000 19.310712
4.750000 17.714251
4.800000 16.333619
4.850000 15.199645
4.900000 14.302060
4.950000 13.616885
5.000000 13.096151
5.050000 12.756985
5.100000 12.643929
5.150000 12.746708
5.200000 13.037911
5.250000 13.476424
5.300000 14.027987
5.350000 14.685767
5.400000 15.439464
5.450000 16.223989
5.500000 17.008514
5.550000 17.769068
5.600000 18.447394
5.650000 18.981825
5.700000 19.344969
5.750000 19.543672
5.800000 19.557375
5.850000 19.416915
5.900000 19.146274
5.950000 18.728313
6.000000 18.187019
6.050000 17.563513
6.100000 16.850926
6.150000 16.059541
6.200000 15.233901
6.250000 14.374007
6.300000 13.462720
6.350000 12.534304
6.400000 11.629869
6.450000 10.691175
6.500000 9.704519
6.550000 8.748695
6.600000 7.868242
6.650000 7.052880
6.700000 6.319739
6.750000 5.709931
6.800000 5.257714
6.850000 4.963087
6.900000 4.798644
6.950000 4.781515
7.000000 4.952809
7.050000 5.274843
7.100000 5.655117
7.150000 6.069650
7.200000 6.538996
7.250000 7.049454
7.300000 7.539356
7.350000 7.988148
7.400000 8.385552
7.450000 8.714436
7.500000 8.967952
7.550000 9.152951
7.600000 9.245450
7.650000 9.259153
7.700000 9.204338
7.750000 9.074155
7.800000 8.854898
7.850000 8.573975
7.900000 8.234812
7.950000 7.833983
8.000000 7.374914
8.050000 6.874733
8.100000 6.336869
8.150000 5.785301
8.200000 5.254287
8.250000 4.740404
8.300000 4.267631
8.350000 3.846246
8.400000 3.486529
8.450000 3.171347
8.500000 2.897275
8.550000 2.657463
8.600000 2.445058
8.650000 2.249782
8.700000 2.068210
8.750000 1.910619
8.800000 1.780435
8.850000 1.677658
8.900000 1.619419
8.950000 1.605715
9.000000 1.622844
9.050000 1.694787
9.100000 1.862656
9.150000 2.102468
9.200000 2.366263
9.250000 2.633481
9.300000 2.917831
9.350000 3.174772
9.400000 3.352918
9.450000 3.472825
9.500000 3.558472
9.550000 3.579027
9.600000 3.537916
9.650000 3.493380
9.700000 3.445418
9.750000 3.352919
9.800000 3.229586
9.850000 3.126809
9.900000 3.030885
9.950000 2.893849
10.000000 2.722555
10.050000 2.568390
10.100000 2.403947
10.150000 2.198393
10.200000 1.944877
10.250000 1.681084
10.300000 1.437846
10.350000 1.204885
10.400000 0.982203
10.450000 0.780075
10.500000 0.622484
10.550000 0.492301
10.600000 0.375820
10.650000 0.297025
10.700000 0.252488
10.750000 0.221655
10.800000 0.211377
10.850000 0.231932
10.900000 0.269618
10.950000 0.344987
11.000000 0.454615
11.050000 0.591652
11.100000 0.756094
11.150000 0.971925
11.200000 1.228867
11.250000 1.499512
11.300000 1.739325
11.350000 1.917471
11.400000 2.030525
11.450000 2.092191
11.500000 2.068210
11.550000 1.917470
11.600000 1.708491
11.650000 1.509789
11.700000 1.276829
11.750000 1.002758
11.800000 0.797205
11.850000 0.680724
11.900000 0.560818
11.950000 0.464893
12.000000 0.451190
12.050000 0.440912
12.100000 0.372394
12.150000 0.269617
12.200000 0.146285
12.250000 -0.025009
12.300000 -0.237414
12.350000 -0.484078
12.400000 -0.761576
12.450000 -1.008239
12.500000 -1.162404
12.550000 -1.251478
12.600000 -1.285736
12.650000 -1.234349
12.700000 -1.087035
12.750000 -0.884907
12.800000 -0.669076
12.850000 -0.480653
12.900000 -0.350468
12.950000 -0.247692
13.000000 -0.203155
13.050000 -0.264822
13.100000 -0.381302
13.150000 -0.511485
13.200000 -0.662224
13.250000 -0.823242
13.300000 -0.929444
13.350000 -0.997962
13.400000 -1.042498
13.450000 -1.015091
13.500000 -0.905462
13.550000 -0.802686
13.600000 -0.706761
13.650000 -0.559448
13.700000 -0.398431
13.750000 -0.312784
13.800000 -0.281951
13.850000 -0.292229
13.900000 -0.371024
13.950000 -0.514912
14.000000 -0.703335
14.050000 -0.929444
14.100000 -1.169256
14.150000 -1.371384
14.200000 -1.518697
14.250000 -1.590641
14.300000 -1.587215
14.350000 -1.532400
14.400000 -1.439902
14.450000 -1.265182
14.500000 -1.028795
14.550000 -0.799260
14.600000 -0.610836
14.650000 -0.449820
14.700000 -0.347043
14.750000 -0.312784
14.800000 -0.357320
14.850000 -0.460097
14.900000 -0.614262
14.950000 -0.778705
15.000000 -0.915740
15.050000 -1.032220
15.100000 -1.117868
15.150000 -1.145275
15.200000 -1.121294
15.250000 -1.052776
15.300000 -0.943148
15.350000 -0.795834
15.400000 -0.645096
15.450000 -0.508060
15.500000 -0.388153
15.550000 -0.292228
15.600000 -0.257970
15.650000 -0.275099
15.700000 -0.340191
15.750000 -0.494356
15.800000 -0.710187
15.850000 -0.922592
15.900000 -1.111017
15.950000 -1.326847
16.000000 -1.525549
16.050000 -1.645455
16.100000 -1.713973
16.150000 -1.758509
16.200000 -1.751658
16.250000 -1.666011
16.300000 -1.528975
16.350000 -1.388513
16.400000 -1.261755
16.450000 -1.158978
16.500000 -1.059627
16.550000 -0.994536
16.600000 -1.011666
16.650000 -1.076757
16.700000 -1.152127
16.750000 -1.268607
16.800000 -1.433050
16.850000 -1.587215
16.900000 -1.689992
16.950000 -1.779064
17.000000 -1.854434
17.050000 -1.844157
17.100000 -1.761936
17.150000 -1.648881
17.200000 -1.498141
17.250000 -1.302866
17.300000 -1.104165
17.350000 -0.915740
17.400000 -0.723890
17.450000 -0.576578
17.500000 -0.504634
17.550000 -0.466949
17.600000 -0.449819
17.650000 -0.473801
17.700000 -0.542319
17.750000 -0.634817
17.800000 -0.730743
17.850000 -0.802686
17.900000 -0.881481
17.950000 -0.991110
18.000000 -1.087035
18.050000 -1.128145
18.100000 -1.158978
18.150000 -1.206941
18.200000 -1.213793
18.250000 -1.179534
18.300000 -1.148701
18.350000 -1.111016
18.400000 -1.042498
18.450000 -0.977407
18.500000 -0.926018
18.550000 -0.878055
18.600000 -0.826668
18.650000 -0.785556
18.700000 -0.768427
18.750000 -0.775279
18.800000 -0.785557
18.850000 -0.788982
18.900000 -0.812964
18.950000 -0.871203
19.000000 -0.926019
19.050000 -0.980832
19.100000 -1.063054
19.150000 -1.145275
19.200000 -1.206941
19.250000 -1.285736
19.300000 -1.367958
19.350000 -1.419347
19.400000 -1.477587
19.450000 -1.570085
19.500000 -1.642029
19.550000 -1.672862
19.600000 -1.720825
19.650000 -1.775639
19.700000 -1.789342
19.750000 -1.785917
19.800000 -1.799620
19.850000 -1.820175
19.900000 -1.837305
19.950000 -1.854434
20.000000 -1.844157
20.050000 -1.813324
20.100000 -1.785917
20.150000 -1.737954
20.200000 -1.642030
20.250000 -1.542678
20.300000 -1.429624
20.350000 -1.275459
20.400000 -1.111017
20.450000 -0.977406
20.500000 -0.847223
20.550000 -0.717039
20.600000 -0.624540
20.650000 -0.559448
20.700000 -0.490930
20.750000 -0.449820
20.800000 -0.429264
20.850000 -0.412134
20.900000 -0.418986
20.950000 -0.463523
21.000000 -0.497782
21.050000 -0.511486
21.100000 -0.521763
21.150000 -0.542319
21.200000 -0.566300
21.250000 -0.610837
21.300000 -0.679354
21.350000 -0.778705
21.400000 -0.905463
21.450000 -1.042498
21.500000 -1.189812
21.550000 -1.367958
21.600000 -1.563234
21.650000 -1.731102
21.700000 -1.871564
21.750000 -1.981193
21.800000 -2.036007
21.850000 -2.042858
21.900000 -2.012026
21.950000 -1.926378
22.000000 -1.789343
22.050000 -1.648881
22.100000 -1.528975
22.150000 -1.412495
22.200000 -1.299440
22.250000 -1.206941
22.300000 -1.141849
22.350000 -1.104165
22.400000 -1.097313
22.450000 -1.097312
22.500000 -1.093887
22.550000 -1.100739
22.600000 -1.083609
22.650000 -1.015092
22.700000 -0.936296
22.750000 -0.860926
22.800000 -0.768428
22.850000 -0.672502
22.900000 -0.621114
22.950000 -0.600558
23.000000 -0.610837
23.050000 -0.686206
23.100000 -0.830094
23.150000 -1.011666
23.200000 -1.203515
23.250000 -1.419346
23.300000 -1.638603
23.350000 -1.837305
23.400000 -2.001747
23.450000 -2.142210
23.500000 -2.193597
23.550000 -2.128505
23.600000 -1.984619
23.650000 -1.799620
23.700000 -1.587215
23.750000 -1.347402
23.800000 -1.104165
23.850000 -0.881482
23.900000 -0.689632
23.950000 -0.573151
24.000000 -0.528614
24.050000 -0.528615
24.100000 -0.583429
24.150000 -0.717039
24.200000 -0.898611
24.250000 -1.069906
24.300000 -1.203515
24.350000 -1.313144
24.400000 -1.388513
24.450000 -1.412495
24.500000 -1.367958
24.550000 -1.272034
24.600000 -1.148701
24.650000 -1.039072
24.700000 -0.949999
24.750000 -0.888333
24.800000 -0.847223
24.850000 -0.833519
24.900000 -0.857501
24.950000 -0.936296
25.000000 -1.045925
25.050000 -1.176108
25.100000 -1.343977
25.150000 -1.539253
25.200000 -1.731102
25.250000 -1.912674
25.300000 -2.066839
25.350000 -2.186745
25.400000 -2.265541
25.450000 -2.316929
25.500000 -2.334059
25.550000 -2.316929
25.600000 -2.258689
25.650000 -2.152487
25.700000 -1.998322
25.750000 -1.833879
25.800000 -1.683140
25.850000 -1.542678
25.900000 -1.415920
25.950000 -1.316569
26.000000 -1.265181
26.050000 -1.265181
26.100000 -1.289163
26.150000 -1.330274
26.200000 -1.405643
26.250000 -1.491290
26.300000 -1.552956
26.350000 -1.594067
26.400000 -1.655733
26.450000 -1.700270
26.500000 -1.693418
26.550000 -1.676288
26.600000 -1.676288
26.650000 -1.642029
26.700000 -1.604344
26.750000 -1.614622
26.800000 -1.648881
26.850000 -1.669436
26.900000 -1.717398
26.950000 -1.782491
27.000000 -1.844156
27.050000 -1.898971
27.100000 -1.957212
27.150000 -2.001748
27.200000 -2.039432
27.250000 -2.053136
27.300000 -2.025729
27.350000 -1.957211
27.400000 -1.868138
27.450000 -1.782491
27.500000 -1.700269
27.550000 -1.611196
27.600000 -1.525549
27.650000 -1.481013
27.700000 -1.484438
27.750000 -1.484438
27.800000 -1.470734
27.850000 -1.494716
27.900000 -1.559808
27.950000 -1.594067
28.000000 -1.590640
28.050000 -1.594067
28.100000 -1.611197
28.150000 -1.624899
28.200000 -1.621473
28.250000 -1.611196
28.300000 -1.607770
28.350000 -1.638603
28.400000 -1.686566
28.450000 -1.734528
28.500000 -1.816750
28.550000 -1.912674
28.600000 -1.988044
28.650000 -2.025729
28.700000 -2.073692
28.750000 -2.118228
28.800000 -2.114802
28.850000 -2.101099
28.900000 -2.090820
28.950000 -2.039433
29.000000 -1.967489
29.050000 -1.933229
29.100000 -1.905823
29.150000 -1.823602
29.200000 -1.707121
29.250000 -1.611196
29.300000 -1.508420
29.350000 -1.381662
29.400000 -1.268607
29.450000 -1.182960
29.500000 -1.107590
29.550000 -1.042499
29.600000 -1.004814
29.650000 -1.021943
29.700000 -1.093887
29.750000 -1.196664
29.800000 -1.326848
29.850000 -1.491290
29.900000 -1.676288
29.950000 -1.857860
30.000000 -2.042859
30.050000 -2.197024
30.100000 -2.289522
30.150000 -2.334059
30.200000 -2.382022
30.250000 -2.419706
30.300000 -2.423132
30.350000 -2.392299
30.400000 -2.344336
30.450000 -2.282670
30.500000 -2.224430
30.550000 -2.159339
30.600000 -2.049710
30.650000 -1.922952
30.700000 -1.796194
30.750000 -1.679714
30.800000 -1.580363
30.850000 -1.504994
30.900000 -1.436476
30.950000 -1.388513
31.000000 -1.388513
31.050000 -1.419346
31.100000 -1.457031
31.150000 -1.525549
31.200000 -1.618048
31.250000 -1.700269
31.300000 -1.785916
31.350000 -1.871564
31.400000 -1.933230
31.450000 -1.970915
31.500000 -2.022303
31.550000 -2.073691
31.600000 -2.097672
31.650000 -2.121654
31.700000 -2.179894
31.750000 -2.255263
31.800000 -2.330633
31.850000 -2.392299
31.900000 -2.412854
31.950000 -2.409429
32.000000 -2.402576
32.050000 -2.378595
32.100000 -2.327207
32.150000 -2.275819
32.200000 -2.217579
32.250000 -2.142209
32.300000 -2.053136
32.350000 -1.984618
32.400000 -1.940081
32.450000 -1.909248
32.500000 -1.916100
32.550000 -1.967488
32.600000 -2.032580
32.650000 -2.094246
32.700000 -2.179894
32.750000 -2.289522
32.800000 -2.364892
32.850000 -2.395725
32.900000 -2.426558
32.950000 -2.457391
33.000000 -2.464242
33.050000 -2.443688
33.100000 -2.392299
33.150000 -2.344337
33.200000 -2.310078
33.250000 -2.289523
33.300000 -2.275819
33.350000 -2.299800
33.400000 -2.347763
33.450000 -2.385447
33.500000 -2.429984
33.550000 -2.474521
33.600000 -2.488225
33.650000 -2.474520
33.700000 -2.436835
33.750000 -2.337485
33.800000 -2.183320
33.850000 -2.022303
33.900000 -1.857860
33.950000 -1.683140
34.000000 -1.549530
34.050000 -1.491290
34.100000 -1.487864
34.150000 -1.522123
34.200000 -1.611196
34.250000 -1.772213
34.300000 -2.001748
34.350000 -2.231282
34.400000 -2.426558
34.450000 -2.614982
34.500000 -2.782851
34.550000 -2.861646
34.600000 -2.841091
34.650000 -2.772573
34.700000 -2.656093
34.750000 -2.481372
34.800000 -2.289523
34.850000 -2.149061
34.900000 -2.046284
34.950000 -1.970915
35.000000 -1.943508
35.050000 -1.977766
35.100000 -2.066839
35.150000 -2.176468
35.200000 -2.286097
35.250000 -2.406002
35.300000 -2.498501
35.350000 -2.556742
35.400000 -2.597852
35.450000 -2.635537
35.500000 -2.638963
35.550000 -2.594427
35.600000 -2.539612
35.650000 -2.498501
35.700000 -2.477947
35.750000 -2.484798
35.800000 -2.525909
35.850000 -2.577297
35.900000 -2.652667
35.950000 -2.731462
36.000000 -2.793128
36.050000 -2.806831
36.100000 -2.796554
36.150000 -2.765721
36.200000 -2.697204
36.250000 -2.584149
36.300000 -2.464243
36.350000 -2.344336
36.400000 -2.244986
36.450000 -2.193597
36.500000 -2.176468
36.550000 -2.152487
36.600000 -2.145635
36.650000 -2.173042
36.700000 -2.193598
36.750000 -2.217579
36.800000 -2.286097
36.850000 -2.347763
36.900000 -2.375170
36.950000 -2.392299
37.000000 -2.419706
37.050000 -2.406002
37.100000 -2.385447
37.150000 -2.406003
37.200000 -2.436835
37.250000 -2.450539
37.300000 -2.453965
37.350000 -2.453965
37.400000 -2.440262
37.450000 -2.423132
37.500000 -2.382021
37.550000 -2.303226
37.600000 -2.207301
37.650000 -2.121653
37.700000 -2.046284
37.750000 -1.967489
37.800000 -1.936656
37.850000 -1.957211
37.900000 -2.005173
37.950000 -2.101098
38.000000 -2.258690
38.050000 -2.429984
38.100000 -2.584149
38.150000 -2.755443
38.200000 -2.926738
38.250000 -3.029515
38.300000 -3.053496
38.350000 -3.036367
38.400000 -2.940442
38.450000 -2.738314
38.500000 -2.484798
38.550000 -2.244986
38.600000 -2.012025
38.650000 -1.768787
38.700000 -1.559808
38.750000 -1.446754
38.800000 -1.439902
38.850000 -1.491290
38.900000 -1.597492
38.950000 -1.758509
39.000000 -1.970914
39.050000 -2.200449
39.100000 -2.402577
39.150000 -2.560168
39.200000 -2.673222
39.250000 -2.731462
39.300000 -2.724610
39.350000 -2.673222
39.400000 -2.618408
39.450000 -2.556742
39.500000 -2.484798
39.550000 -2.426558
39.600000 -2.412855
39.650000 -2.429984
39.700000 -2.447113
39.750000 -2.457391
39.800000 -2.491650
39.850000 -2.539612
39.900000 -2.570445
39.950000 -2.573871
40.000000 -2.546464
40.050000 -2.512206
40.100000 -2.491650
40.150000 -2.495076
40.200000 -2.495075
40.250000 -2.498502
40.300000 -2.498502
40.350000 -2.505353
40.400000 -2.515631
40.450000 -2.515631
40.500000 -2.484798
40.550000 -2.419706
40.600000 -2.320356
40.650000 -2.197024
40.700000 -2.049710
40.750000 -1.881842
40.800000 -1.717399
40.850000 -1.600918
40.900000 -1.539252
40.950000 -1.518697
41.000000 -1.559808
41.050000 -1.666010
41.100000 -1.830453
41.150000 -2.029155
41.200000 -2.224431
41.250000 -2.385447
41.300000 -2.522483
41.350000 -2.625260
41.400000 -2.666370
41.450000 -2.632112
41.500000 -2.567019
41.550000 -2.481372
41.600000 -2.354615
41.650000 -2.207301
41.700000 -2.111376
41.750000 -2.053136
41.800000 -1.981192
41.850000 -1.919527
41.900000 -1.909248
41.950000 -1.936656
42.000000 -1.977766
42.050000 -2.018878
42.100000 -2.018877
42.150000 -1.991470
42.200000 -1.957211
42.250000 -1.909248
42.300000 -1.851009
42.350000 -1.768787
42.400000 -1.672862
42.450000 -1.587215
42.500000 -1.532401
42.550000 -1.487865
42.600000 -1.467309
42.650000 -1.504994
42.700000 -1.583789
42.750000 -1.666010
42.800000 -1.768788
42.850000 -1.895545
42.900000 -2.008600
42.950000 -2.118228
43.000000 -2.227857
43.050000 -2.310077
43.100000 -2.330633
43.150000 -2.340911
43.200000 -2.354614
43.250000 -2.330633
43.300000 -2.272393
43.350000 -2.227857
43.400000 -2.176468
43.450000 -2.101099
43.500000 -2.039432
43.550000 -2.005174
43.600000 -1.953786
43.650000 -1.885267
43.700000 -1.861286
43.750000 -1.888693
43.800000 -1.926378
43.850000 -1.977767
43.900000 -2.049710
43.950000 -2.131932
44.000000 -2.207301
44.050000 -2.272393
44.100000 -2.340911
44.150000 -2.399151
44.200000 -2.443688
44.250000 -2.464242
44.300000 -2.488224
44.350000 -2.512205
44.400000 -2.515631
44.450000 -2.495076
44.500000 -2.501928
44.550000 -2.543038
44.600000 -2.560167
44.650000 -2.539612
44.700000 -2.549890
44.750000 -2.577297
44.800000 -2.536187
44.850000 -2.457391
44.900000 -2.364892
44.950000 -2.241560
45.000000 -2.094247
45.050000 -1.974341
45.100000 -1.885268
45.150000 -1.789342
45.200000 -1.727676
45.250000 -1.724251
45.300000 -1.748232
45.350000 -1.772213
45.400000 -1.806472
45.450000 -1.861286
45.500000 -1.916100
45.550000 -1.940082
45.600000 -1.919527
45.650000 -1.871564
45.700000 -1.823601
45.750000 -1.792769
45.800000 -1.761935
45.850000 -1.751658
45.900000 -1.772213
45.950000 -1.813324
46.000000 -1.840731
46.050000 -1.871564
46.100000 -1.943507
46.150000 -1.991470
46.200000 -1.960637
46.250000 -1.895545
46.300000 -1.851009
46.350000 -1.803046
46.400000 -1.744806
46.450000 -1.707121
46.500000 -1.713973
46.550000 -1.758510
46.600000 -1.847582
46.650000 -1.953785
46.700000 -2.063414
46.750000 -2.173042
46.800000 -2.286097
46.850000 -2.354615
46.900000 -2.354615
46.950000 -2.316930
47.000000 -2.244986
47.050000 -2.131932
47.100000 -2.005173
47.150000 -1.881841
47.200000 -1.751657
47.250000 -1.642029
47.300000 -1.600918
47.350000 -1.614622
47.400000 -1.652307
47.450000 -1.720825
47.500000 -1.820176
47.550000 -1.916100
47.600000 -2.022303
47.650000 -2.166190
47.700000 -2.286096
47.750000 -2.347762
47.800000 -2.395725
47.850000 -2.443688
47.900000 -2.464243
47.950000 -2.453965
48.000000 -2.423132
48.050000 -2.361466
48.100000 -2.265541
48.150000 -2.155913
48.200000 -2.053136
48.250000 -1.950359
48.300000 -1.864712
48.350000 -1.816749
48.400000 -1.789342
48.450000 -1.772213
48.500000 -1.779065
48.550000 -1.827027
48.600000 -1.905823
48.650000 -1.994896
48.700000 -2.101098
48.750000 -2.231283
48.800000 -2.344337
48.850000 -2.402577
48.900000 -2.440262
48.950000 -2.481373
49.000000 -2.488224
49.050000 -2.457391
49.100000 -2.436836
49.150000 -2.433410
49.200000 -2.423133
49.250000 -2.399151
49.300000 -2.382021
49.350000 -2.364892
49.400000 -2.361466
49.450000 -2.375169
49.500000 -2.378596
49.550000 -2.385448
49.600000 -2.416281
49.650000 -2.440262
49.700000 -2.436836
49.750000 -2.429984
49.800000 -2.443687
49.850000 -2.443687
49.900000 -2.436836
49.950000 -2.436836
50.000000 -2.416280
50.050000 -2.388873
50.100000 -2.361466
50.150000 -2.310078
50.200000 -2.238134
50.250000 -2.183320
50.300000 -2.114802
50.350000 -2.012025
50.400000 -1.933229
50.450000 -1.895545
50.500000 -1.857860
50.550000 -1.820176
50.600000 -1.816750
50.650000 -1.813324
50.700000 -1.775639
50.750000 -1.755084
50.800000 -1.744806
50.850000 -1.717399
50.900000 -1.696844
50.950000 -1.734528
51.000000 -1.785917
51.050000 -1.823602
51.100000 -1.881841
51.150000 -1.974340
51.200000 -2.077117
51.250000 -2.190171
51.300000 -2.303226
51.350000 -2.406003
51.400000 -2.471094
51.450000 -2.508779
51.500000 -2.484798
51.550000 -2.409428
51.600000 -2.320355
51.650000 -2.224431
51.700000 -2.111376
51.750000 -2.018877
51.800000 -1.957211
51.850000 -1.912675
51.900000 -1.888693
51.950000 -1.912674
52.000000 -1.953785
52.050000 -1.994896
52.100000 -2.063413
52.150000 -2.138783
52.200000 -2.190172
52.250000 -2.203875
52.300000 -2.203875
52.350000 -2.193598
52.400000 -2.159339
52.450000 -2.101099
52.500000 -2.025729
52.550000 -1.950360
52.600000 -1.871564
52.650000 -1.820176
52.700000 -1.844157
52.750000 -1.895545
52.800000 -1.940082
52.850000 -2.012026
52.900000 -2.097673
52.950000 -2.152487
53.000000 -2.193598
53.050000 -2.248411
53.100000 -2.255264
53.150000 -2.210726
53.200000 -2.162765
53.250000 -2.114802
53.300000 -2.039432
53.350000 -2.005174
53.400000 -2.032581
53.450000 -2.059988
53.500000 -2.114802
53.550000 -2.251837
53.600000 -2.402576
53.650000 -2.498501
53.700000 -2.608130
53.750000 -2.731463
53.800000 -2.748592
53.850000 -2.649241
53.900000 -2.501928
53.950000 -2.316930
54.000000 -2.077117
54.050000 -1.833879
54.100000 -1.614622
54.150000 -1.433050
54.200000 -1.309718
54.250000 -1.275459
54.300000 -1.330273
54.350000 -1.470734
54.400000 -1.655733
54.450000 -1.847583
54.500000 -2.049710
54.550000 -2.255263
54.600000 -2.402577
54.650000 -2.477947
54.700000 -2.508780
54.750000 -2.484798
54.800000 -2.378595
54.850000 -2.244985
54.900000 -2.135357
54.950000 -2.008600
55.000000 -1.874989
55.050000 -1.799621
55.100000 -1.765362
55.150000 -1.761935
55.200000 -1.816750
55.250000 -1.902397
55.300000 -1.974340
55.350000 -2.066840
55.400000 -2.183320
55.450000 -2.251838
55.500000 -2.265541
55.550000 -2.265541
55.600000 -2.238134
55.650000 -2.193598
55.700000 -2.152486
55.750000 -2.111376
55.800000 -2.073691
55.850000 -2.101098
55.900000 -2.173042
55.950000 -2.217578
56.000000 -2.272393
56.050000 -2.375169
56.100000 -2.471095
56.150000 -2.546464
56.200000 -2.594427
56.250000 -2.573871
56.300000 -2.477946
56.350000 -2.358040
56.400000 -2.200450
56.450000 -1.974341
56.500000 -1.731103
56.550000 -1.525549
56.600000 -1.361106
56.650000 -1.213793
56.700000 -1.117868
56.750000 -1.104164
56.800000 -1.165831
56.850000 -1.282311
56.900000 -1.439902
56.950000 -1.642029
57.000000 -1.892119
57.050000 -2.162765
57.100000 -2.406003
57.150000 -2.601279
57.200000 -2.738314
57.250000 -2.813684
57.300000 -2.834239
57.350000 -2.810257
57.400000 -2.741740
57.450000 -2.625260
57.500000 -2.508780
57.550000 -2.412855
57.600000 -2.296375
57.650000 -2.166190
57.700000 -2.073691
57.750000 -2.029155
57.800000 -1.970915
57.850000 -1.933229
57.900000 -1.974340
57.950000 -2.066840
58.000000 -2.145635
58.050000 -2.227857
58.100000 -2.347763
58.150000 -2.488224
58.200000 -2.638964
58.250000 -2.803406
58.300000 -2.974701
58.350000 -3.142569
58.400000 -3.293308
58.450000 -3.409789
58.500000 -3.474880
58.550000 -3.468029
58.600000 -3.409788
58.650000 -3.320715
58.700000 -3.183680
58.750000 -2.978127
58.800000 -2.758869
58.850000 -2.573871
58.900000 -2.399150
58.950000 -2.231282
59.000000 -2.104524
59.050000 -2.001748
59.100000 -1.898971
59.150000 -1.830453
59.200000 -1.813324
59.250000 -1.823601
59.300000 -1.837305
59.350000 -1.888693
59.400000 -1.957211
59.450000 -2.032581
59.500000 -2.135358
59.550000 -2.262115
59.600000 -2.371744
59.650000 -2.471094
59.700000 -2.573871
59.750000 -2.632111
59.800000 -2.635537
59.850000 -2.621834
59.900000 -2.570445
59.950000 -2.409428
60.000000 -2.166190
60.050000 -1.936656
60.100000 -1.710547
60.150000 -1.460457
60.200000 -1.251477
60.250000 -1.131571
60.300000 -1.066480
60.350000 -1.025369
60.400000 -1.063054
60.450000 -1.179534
60.500000 -1.326848
60.550000 -1.481012
60.600000 -1.648881
60.650000 -1.816750
60.700000 -1.974340
60.750000 -2.097673
60.800000 -2.183320
60.850000 -2.221005
60.900000 -2.231282
60.950000 -2.262116
61.000000 -2.310077
61.050000 -2.334059
61.100000 -2.327207
61.150000 -2.344336
61.200000 -2.402576
61.250000 -2.433410
61.300000 -2.429984
61.350000 -2.429984
61.400000 -2.433410
61.450000 -2.406003
61.500000 -2.361466
61.550000 -2.323782
61.600000 -2.282670
61.650000 -2.251838
61.700000 -2.268967
61.750000 -2.330633
61.800000 -2.385447
61.850000 -2.453965
61.900000 -2.546464
61.950000 -2.638963
62.000000 -2.710906
62.050000 -2.748592
62.100000 -2.752018
62.150000 -2.700629
62.200000 -2.604704
62.250000 -2.498502
62.300000 -2.392300
62.350000 -2.262115
62.400000 -2.145635
62.450000 -2.077117
62.500000 -2.036006
62.550000 -2.018878
62.600000 -2.066840
62.650000 -2.176468
62.700000 -2.296374
62.750000 -2.399151
62.800000 -2.477946
62.850000 -2.512205
62.900000 -2.529335
62.950000 -2.570446
63.000000 -2.584149
63.050000 -2.549890
63.100000 -2.515632
63.150000 -2.488224
63.200000 -2.440261
63.250000 -2.392299
63.300000 -2.382021
63.350000 -2.371744
63.400000 -2.340910
63.450000 -2.334059
63.500000 -2.354615
63.550000 -2.361467
63.600000 -2.351188
63.650000 -2.327207
63.700000 -2.289522
63.750000 -2.244986
63.800000 -2.186746
63.850000 -2.090820
63.900000 -1.988044
63.950000 -1.912674
64.000000 -1.861286
64.050000 -1.809898
64.100000 -1.782491
64.150000 -1.796194
64.200000 -1.830453
64.250000 -1.898971
64.300000 -2.005174
64.350000 -2.114802
64.400000 -2.200449
64.450000 -2.279244
64.500000 -2.334059
64.550000 -2.334059
64.600000 -2.310077
64.650000 -2.289523
64.700000 -2.272393
64.750000 -2.244986
64.800000 -2.224431
64.850000 -2.217579
64.900000 -2.234708
64.950000 -2.282671
65.000000 -2.351189
65.050000 -2.429984
65.100000 -2.536187
65.150000 -2.632112
65.200000 -2.676648
65.250000 -2.710907
65.300000 -2.748592
65.350000 -2.724610
65.400000 -2.635537
65.450000 -2.563594
65.500000 -2.498502
65.550000 -2.416281
65.600000 -2.358040
65.650000 -2.330633
65.700000 -2.296374
65.750000 -2.279245
65.800000 -2.299800
65.850000 -2.320356
65.900000 -2.323781
65.950000 -2.310077
66.000000 -2.275819
66.050000 -2.197023
66.100000 -2.090820
66.150000 -1.960637
66.200000 -1.799620
66.250000 -1.638603
66.300000 -1.515272
66.350000 -1.391939
66.400000 -1.251478
66.450000 -1.138423
66.500000 -1.083609
66.550000 -1.073332
66.600000 -1.090461
66.650000 -1.138424
66.700000 -1.189811
66.750000 -1.254903
66.800000 -1.333699
66.850000 -1.391939
66.900000 -1.419347
66.950000 -1.467308
67.000000 -1.542679
67.050000 -1.576937
67.100000 -1.573511
67.150000 -1.576937
67.200000 -1.576938
67.250000 -1.535827
67.300000 -1.487864
67.350000 -1.460457
67.400000 -1.433050
67.450000 -1.409069
67.500000 -1.395366
67.550000 -1.395365
67.600000 -1.419346
67.650000 -1.470735
67.700000 -1.504994
67.750000 -1.528974
67.800000 -1.594067
67.850000 -1.696843
67.900000 -1.768787
67.950000 -1.809898
68.000000 -1.851009
68.050000 -1.854434
68.100000 -1.806472
68.150000 -1.741380
68.200000 -1.683140
68.250000 -1.587215
68.300000 -1.467309
68.350000 -1.367958
68.400000 -1.299440
68.450000 -1.248052
68.500000 -1.248052
68.550000 -1.309718
68.600000 -1.391939
68.650000 -1.494716
68.700000 -1.635178
68.750000 -1.768788
68.800000 -1.868138
68.850000 -1.943507
68.900000 -1.988044
68.950000 -1.981192
69.000000 -1.933230
69.050000 -1.874989
69.100000 -1.799621
69.150000 -1.717398
69.200000 -1.648881
69.250000 -1.590641
69.300000 -1.559808
69.350000 -1.576937
69.400000 -1.618048
69.450000 -1.666010
69.500000 -1.758509
69.550000 -1.874990
69.600000 -1.977767
69.650000 -2.087395
69.700000 -2.217578
69.750000 -2.303226
69.800000 -2.310078
69.850000 -2.279245
69.900000 -2.227857
69.950000 -2.142209
70.000000 -2.015452
70.050000 -1.874989
70.100000 -1.734528
70.150000 -1.631752
70.200000 -1.546104
70.250000 -1.474160
70.300000 -1.446754
70.350000 -1.487864
70.400000 -1.576937
70.450000 -1.703695
70.500000 -1.895546
70.550000 -2.101099
70.600000 -2.279244
70.650000 -2.433410
70.700000 -2.560168
70.750000 -2.621834
70.800000 -2.645816
70.850000 -2.649241
70.900000 -2.580723
70.950000 -2.457391
71.000000 -2.330634
71.050000 -2.203875
71.100000 -2.046284
71.150000 -1.874990
71.200000 -1.734528
71.250000 -1.614622
71.300000 -1.539252
71.350000 -1.511845
71.400000 -1.528975
71.450000 -1.573511
71.500000 -1.645455
71.550000 -1.731103
71.600000 -1.827027
71.650000 -1.953785
71.700000 -2.083969
71.750000 -2.186746
71.800000 -2.262115
71.850000 -2.340911
71.900000 -2.385447
71.950000 -2.388873
72.000000 -2.358041
72.050000 -2.299800
72.100000 -2.200449
72.150000 -2.087395
72.200000 -1.981192
72.250000 -1.871564
72.300000 -1.782490
72.350000 -1.737955
72.400000 -1.734528
72.450000 -1.744805
72.500000 -1.772213
72.550000 -1.833880
72.600000 -1.933230
72.650000 -2.036006
72.700000 -2.090821
72.750000 -2.097672
72.800000 -2.104524
72.850000 -2.104524
72.900000 -2.042858
72.950000 -1.960637
73.000000 -1.902397
73.050000 -1.837305
73.100000 -1.741380
73.150000 -1.683140
73.200000 -1.696844
73.250000 -1.737954
73.300000 -1.785916
73.350000 -1.851008
73.400000 -1.940081
73.450000 -2.029155
73.500000 -2.107950
73.550000 -2.128506
73.600000 -2.101099
73.650000 -2.073691
73.700000 -2.056562
73.750000 -2.025729
73.800000 -2.001747
73.850000 -2.005173
73.900000 -2.008599
73.950000 -2.036007
74.000000 -2.104525
74.050000 -2.179894
74.100000 -2.248411
74.150000 -2.316929
74.200000 -2.358040
74.250000 -2.337484
74.300000 -2.310077
74.350000 -2.289523
74.400000 -2.241560
74.450000 -2.166191
74.500000 -2.107950
74.550000 -2.059988
74.600000 -2.022303
74.650000 -2.012025
74.700000 -2.032581
74.750000 -2.070265
74.800000 -2.152486
74.850000 -2.262115
74.900000 -2.337485
74.950000 -2.388873
75.000000 -2.464243
75.050000 -2.546464
75.100000 -2.567019
75.150000 -2.536187
75.200000 -2.525909
75.250000 -2.522483
75.300000 -2.484798
75.350000 -2.412855
75.400000 -2.337485
75.450000 -2.286097
75.500000 -2.255264
75.550000 -2.231282
75.600000 -2.197024
75.650000 -2.183320
75.700000 -2.190172
75.750000 -2.193598
75.800000 -2.193598
75.850000 -2.217578
75.900000 -2.248411
75.950000 -2.255263
76.000000 -2.234708
76.050000 -2.207301
76.100000 -2.190171
76.150000 -2.131931
76.200000 -2.022303
76.250000 -1.902397
76.300000 -1.813323
76.350000 -1.717399
76.400000 -1.583789
76.450000 -1.477587
76.500000 -1.429624
76.550000 -1.415921
76.600000 -1.426199
76.650000 -1.470735
76.700000 -1.511845
76.750000 -1.546104
76.800000 -1.597492
76.850000 -1.635178
76.900000 -1.604345
76.950000 -1.532401
77.000000 -1.439902
77.050000 -1.302867
77.100000 -1.162405
77.150000 -1.090461
77.200000 -1.066480
77.250000 -1.052776
77.300000 -1.117868
77.350000 -1.278884
77.400000 -1.484438
77.450000 -1.720824
77.500000 -1.981193
77.550000 -2.221005
77.600000 -2.416280
77.650000 -2.573872
77.700000 -2.642389
77.750000 -2.632111
77.800000 -2.597853
77.850000 -2.543038
77.900000 -2.423132
77.950000 -2.265541
78.000000 -2.166190
78.050000 -2.128506
78.100000 -2.114802
78.150000 -2.125079
78.200000 -2.176468
78.250000 -2.221005
78.300000 -2.258690
78.350000 -2.299800
78.400000 -2.303226
78.450000 -2.279245
78.500000 -2.265541
78.550000 -2.255263
78.600000 -2.217578
78.650000 -2.173042
78.700000 -2.162764
78.750000 -2.166191
78.800000 -2.186746
78.850000 -2.221004
78.900000 -2.251838
78.950000 -2.255263
79.000000 -2.265541
79.050000 -2.289523
79.100000 -2.313503
79.150000 -2.320355
79.200000 -2.292948
79.250000 -2.244986
79.300000 -2.186746
79.350000 -2.121654
79.400000 -2.063414
79.450000 -2.001747
79.500000 -1.940082
79.550000 -1.905822
79.600000 -1.905823
79.650000 -1.902397
79.700000 -1.902397
79.750000 -1.936656
79.800000 -1.991470
79.850000 -2.015451
79.900000 -2.008599
79.950000 -2.015451
80.000000 -2.015452
80.050000 -1.984618
80.100000 -1.936656
80.150000 -1.881841
80.200000 -1.806472
80.250000 -1.748232
80.300000 -1.710547
80.350000 -1.652306
80.400000 -1.580363
80.450000 -1.542678
80.500000 -1.515271
80.550000 -1.463883
80.600000 -1.405643
80.650000 -1.391939
80.700000 -1.412495
80.750000 -1.439902
80.800000 -1.470735
80.850000 -1.518697
80.900000 -1.580364
80.950000 -1.638603
81.000000 -1.700269
81.050000 -1.782491
81.100000 -1.874989
81.150000 -1.953785
81.200000 -2.042859
81.250000 -2.135358
81.300000 -2.197023
81.350000 -2.210727
81.400000 -2.200449
81.450000 -2.166191
81.500000 -2.101098
81.550000 -2.029155
81.600000 -1.974340
81.650000 -1.905822
81.700000 -1.806471
81.750000 -1.703695
81.800000 -1.600919
81.850000 -1.491290
81.900000 -1.381662
81.950000 -1.272034
82.000000 -1.176108
82.050000 -1.111016
82.100000 -1.066479
82.150000 -1.025369
82.200000 -1.032221
82.250000 -1.087035
82.300000 -1.134997
82.350000 -1.169256
82.400000 -1.258330
82.450000 -1.371384
82.500000 -1.436476
82.550000 -1.504994
82.600000 -1.624900
82.650000 -1.741380
82.700000 -1.844157
82.750000 -1.974341
82.800000 -2.107950
82.850000 -2.207301
82.900000 -2.286096
82.950000 -2.347762
83.000000 -2.378595
83.050000 -2.399151
83.100000 -2.392299
83.150000 -2.316929
83.200000 -2.207301
83.250000 -2.107950
83.300000 -2.022303
83.350000 -1.936655
83.400000 -1.861286
83.450000 -1.806472
83.500000 -1.785917
83.550000 -1.806472
83.600000 -1.837305
83.650000 -1.857860
83.700000 -1.868138
83.750000 -1.857860
83.800000 -1.806472
83.850000 -1.741380
83.900000 -1.669436
83.950000 -1.566659
84.000000 -1.446753
84.050000 -1.337125
84.100000 -1.227496
84.150000 -1.117869
84.200000 -1.059628
84.250000 -1.049351
84.300000 -1.028795
84.350000 -1.008240
84.400000 -1.042499
84.450000 -1.124720
84.500000 -1.206941
84.550000 -1.306292
84.600000 -1.426198
84.650000 -1.525549
84.700000 -1.607770
84.750000 -1.707121
84.800000 -1.820175
84.850000 -1.916100
84.900000 -2.005173
84.950000 -2.083969
85.000000 -2.104524
85.050000 -2.094247
85.100000 -2.090821
85.150000 -2.077117
85.200000 -2.025729
85.250000 -1.960637
85.300000 -1.871564
85.350000 -1.751658
85.400000 -1.600918
85.450000 -1.457031
85.500000 -1.330273
85.550000 -1.217218
85.600000 -1.097313
85.650000 -1.001387
85.700000 -0.956851
85.750000 -0.956851
85.800000 -0.991110
85.850000 -1.066480
85.900000 -1.186386
85.950000 -1.326847
86.000000 -1.501567
86.050000 -1.696843
86.100000 -1.868138
86.150000 -2.015451
86.200000 -2.169617
86.250000 -2.296374
86.300000 -2.354614
86.350000 -2.375169
86.400000 -2.392299
86.450000 -2.368318
86.500000 -2.310078
86.550000 -2.268967
86.600000 -2.231282
86.650000 -2.176468
86.700000 -2.118228
86.750000 -2.070266
86.800000 -1.988044
86.850000 -1.892119
86.900000 -1.809898
86.950000 -1.720824
87.000000 -1.614622
87.050000 -1.522123
87.100000 -1.460457
87.150000 -1.388513
87.200000 -1.330273
87.250000 -1.309718
87.300000 -1.316570
87.350000 -1.330273
87.400000 -1.367958
87.450000 -1.412494
87.500000 -1.460457
87.550000 -1.535826
87.600000 -1.618048
87.650000 -1.672863
87.700000 -1.741380
87.750000 -1.827027
87.800000 -1.878416
87.850000 -1.912674
87.900000 -1.964063
87.950000 -1.984618
88.000000 -1.950360
88.050000 -1.909249
88.100000 -1.885267
88.150000 -1.827027
88.200000 -1.727676
88.250000 -1.635177
88.300000 -1.556382
88.350000 -1.474161
88.400000 -1.419347
88.450000 -1.415921
88.500000 -1.429624
88.550000 -1.481012
88.600000 -1.573512
88.650000 -1.710547
88.700000 -1.847583
88.750000 -1.970915
88.800000 -2.066840
88.850000 -2.121654
88.900000 -2.138784
88.950000 -2.142209
89.000000 -2.077117
89.050000 -1.946934
89.100000 -1.830453
89.150000 -1.765361
89.200000 -1.700269
89.250000 -1.635178
89.300000 -1.611196
89.350000 -1.628325
89.400000 -1.659159
89.450000 -1.734528
89.500000 -1.837305
89.550000 -1.926378
89.600000 -2.001748
89.650000 -2.094247
89.700000 -2.183320
89.750000 -2.251838
89.800000 -2.306652
89.850000 -2.361466
89.900000 -2.412855
89.950000 -2.467668
90.000000 -2.515631
90.050000 -2.519057
90.100000 -2.491650
90.150000 -2.450539
90.200000 -2.382022
90.250000 -2.279244
90.300000 -2.176469
90.350000 -2.090821
90.400000 -1.991470
90.450000 -1.892120
90.500000 -1.833879
90.550000 -1.833879
90.600000 -1.874990
90.650000 -1.957211
90.700000 -2.059987
90.750000 -2.173042
90.800000 -2.286096
90.850000 -2.375170
90.900000 -2.453965
90.950000 -2.532760
91.000000 -2.553316
91.050000 -2.498502
91.100000 -2.436836
91.150000 -2.388873
91.200000 -2.299800
91.250000 -2.176468
91.300000 -2.083969
91.350000 -1.988044
91.400000 -1.871564
91.450000 -1.772213
91.500000 -1.703695
91.550000 -1.624900
91.600000 -1.535827
91.650000 -1.477587
91.700000 -1.433050
91.750000 -1.398791
91.800000 -1.378236
91.850000 -1.388514
91.900000 -1.446753
91.950000 -1.552957
92.000000 -1.683140
92.050000 -1.827028
92.100000 -1.946933
92.150000 -2.039432
92.200000 -2.125080
92.250000 -2.203875
92.300000 -2.227856
92.350000 -2.207301
92.400000 -2.207301
92.450000 -2.190171
92.500000 -2.131932
92.550000 -2.080543
92.600000 -2.063414
92.650000 -2.036007
92.700000 -2.022303
92.750000 -2.059988
92.800000 -2.111376
92.850000 -2.145635
92.900000 -2.193597
92.950000 -2.251837
93.000000 -2.275819
93.050000 -2.251838
93.100000 -2.183320
93.150000 -2.066840
93.200000 -1.916101
93.250000 -1.758509
93.300000 -1.587215
93.350000 -1.378235
93.400000 -1.148701
93.450000 -0.953425
93.500000 -0.792408
93.550000 -0.675928
93.600000 -0.638243
93.650000 -0.675928
93.700000 -0.737594
93.750000 -0.843797
93.800000 -1.011665
93.850000 -1.193238
93.900000 -1.354254
93.950000 -1.498142
94.000000 -1.604344
94.050000 -1.659158
94.100000 -1.679714
94.150000 -1.655733
94.200000 -1.583789
94.250000 -1.504994
94.300000 -1.450179
94.350000 -1.422772
94.400000 -1.426198
94.450000 -1.460457
94.500000 -1.515271
94.550000 -1.590641
94.600000 -1.672862
94.650000 -1.751658
94.700000 -1.816749
94.750000 -1.847582
94.800000 -1.837305
94.850000 -1.809898
94.900000 -1.751658
94.950000 -1.676288
95.000000 -1.594066
95.050000 -1.518698
95.100000 -1.457031
95.150000 -1.446754
95.200000 -1.491290
95.250000 -1.542678
95.300000 -1.611196
95.350000 -1.748231
95.400000 -1.922952
95.450000 -2.094247
95.500000 -2.268967
95.550000 -2.447113
95.600000 -2.591001
95.650000 -2.683500
95.700000 -2.724610
95.750000 -2.710907
95.800000 -2.649241
95.850000 -2.556741
95.900000 -2.419706
95.950000 -2.234708
96.000000 -2.036007
96.050000 -1.857860
96.100000 -1.734528
96.150000 -1.655733
96.200000 -1.611196
96.250000 -1.614622
96.300000 -1.700270
96.350000 -1.830453
96.400000 -1.964063
96.450000 -2.090821
96.500000 -2.221004
96.550000 -2.334059
96.600000 -2.402577
96.650000 -2.402576
96.700000 -2.354614
96.750000 -2.299800
96.800000 -2.224431
96.850000 -2.118227
96.900000 -2.022303
96.950000 -1.964063
97.000000 -1.929804
97.050000 -1.922952
97.100000 -1.960637
97.150000 -2.008599
97.200000 -2.039432
97.250000 -2.039433
97.300000 -2.001748
97.350000 -1.943508
97.400000 -1.857861
97.450000 -1.734528
97.500000 -1.594067
97.550000 -1.467309
97.600000 -1.330273
97.650000 -1.210367
97.700000 -1.141849
97.750000 -1.117868
97.800000 -1.124720
97.850000 -1.193238
97.900000 -1.309717
97.950000 -1.429624
98.000000 -1.542678
98.050000 -1.662584
98.100000 -1.761935
98.150000 -1.837305
98.200000 -1.871564
98.250000 -1.851008
98.300000 -1.803046
98.350000 -1.765361
98.400000 -1.717399
98.450000 -1.662584
98.500000 -1.642029
98.550000 -1.645455
98.600000 -1.635177
98.650000 -1.648881
98.700000 -1.713973
98.750000 -1.758509
98.800000 -1.758509
98.850000 -1.761935
98.900000 -1.772213
98.950000 -1.727677
99.000000 -1.631752
99.050000 -1.549530
99.100000 -1.484438
99.150000 -1.443327
99.200000 -1.446754
99.250000 -1.470735
99.300000 -1.494716
99.350000 -1.556382
99.400000 -1.655732
99.450000 -1.765361
99.500000 -1.888693
99.550000 -1.998322
99.600000 -2.059988
99.650000 -2.087395
99.700000 -2.118228
99.750000 -2.125080
99.800000 -2.063414
99.850000 -2.001747
99.900000 -1.967488
99.950000 -1.905823
100.000000 -1.840731
100.050000 -1.823602
100.100000 -1.830453
100.150000 -1.844157
100.200000 -1.885267
100.250000 -1.957211
100.300000 -2.036007
100.350000 -2.128505
100.400000 -2.217578
100.450000 -2.286096
100.500000 -2.337485
100.550000 -2.351189
100.600000 -2.310077
100.650000 -2.248412
100.700000 -2.169616
100.750000 -2.059988
100.800000 -1.967489
100.850000 -1.909249
100.900000 -1.844156
100.950000 -1.782491
101.000000 -1.751658
101.050000 -1.734529
101.100000 -1.720824
101.150000 -1.758509
101.200000 -1.820175
101.250000 -1.857860
101.300000 -1.895545
101.350000 -1.946933
101.400000 -1.981192
101.450000 -2.001748
101.500000 -2.018877
101.550000 -2.029155
101.600000 -2.032581
101.650000 -2.039432
101.700000 -2.066839
101.750000 -2.114802
101.800000 -2.149061
101.850000 -2.159338
101.900000 -2.169617
101.950000 -2.169616
102.000000 -2.138784
102.050000 -2.070266
102.100000 -1.970915
102.150000 -1.854434
102.200000 -1.734528
102.250000 -1.607770
102.300000 -1.481013
102.350000 -1.374809
102.400000 -1.299440
102.450000 -1.230922
102.500000 -1.186386
102.550000 -1.210367
102.600000 -1.299440
102.650000 -1.391939
102.700000 -1.453605
102.750000 -1.511845
102.800000 -1.570086
102.850000 -1.604344
102.900000 -1.624900
102.950000 -1.669436
103.000000 -1.696843
103.050000 -1.707121
103.100000 -1.744806
103.150000 -1.816749
103.200000 -1.868138
103.250000 -1.892119
103.300000 -1.953785
103.350000 -2.049710
103.400000 -2.121654
103.450000 -2.183320
103.500000 -2.251837
103.550000 -2.296374
103.600000 -2.303226
103.650000 -2.289522
103.700000 -2.268968
103.750000 -2.231282
103.800000 -2.176468
103.850000 -2.094247
103.900000 -1.994896
103.950000 -1.909249
104.000000 -1.820176
104.050000 -1.717399
104.100000 -1.652307
104.150000 -1.635177
104.200000 -1.631752
104.250000 -1.662585
104.300000 -1.765361
104.350000 -1.909249
104.400000 -2.053136
104.450000 -2.207301
104.500000 -2.364892
104.550000 -2.501927
104.600000 -2.608130
104.650000 -2.676648
104.700000 -2.728036
104.750000 -2.755444
104.800000 -2.734888
104.850000 -2.683500
104.900000 -2.652667
104.950000 -2.638963
105.000000 -2.601278
105.050000 -2.519058
105.100000 -2.443688
105.150000 -2.382021
105.200000 -2.320355
105.250000 -2.255264
105.300000 -2.179894
105.350000 -2.087395
105.400000 -1.967489
105.450000 -1.857861
105.500000 -1.761935
105.550000 -1.638603
105.600000 -1.501568
105.650000 -1.405643
105.700000 -1.326848
105.750000 -1.237774
105.800000 -1.182960
105.850000 -1.189811
105.900000 -1.224071
105.950000 -1.278885
106.000000 -1.371384
106.050000 -1.487865
106.100000 -1.638603
106.150000 -1.820176
106.200000 -1.998322
106.250000 -2.149061
106.300000 -2.282670
106.350000 -2.409429
106.400000 -2.505353
106.450000 -2.549890
106.500000 -2.543039
106.550000 -2.508780
106.600000 -2.443687
106.650000 -2.347762
106.700000 -2.227857
106.750000 -2.145635
106.800000 -2.104524
106.850000 -2.042858
106.900000 -1.984619
106.950000 -1.994896
107.000000 -2.056562
107.050000 -2.104524
107.100000 -2.149060
107.150000 -2.203875
107.200000 -2.244986
107.250000 -2.268967
107.300000 -2.303226
107.350000 -2.347762
107.400000 -2.375169
107.450000 -2.344337
107.500000 -2.272393
107.550000 -2.214152
107.600000 -2.193597
107.650000 -2.193598
107.700000 -2.186746
107.750000 -2.190172
107.800000 -2.193597
107.850000 -2.210727
107.900000 -2.265541
107.950000 -2.327207
108.000000 -2.354615
108.050000 -2.375169
108.100000 -2.406003
108.150000 -2.416281
108.200000 -2.385447
108.250000 -2.327208
108.300000 -2.265541
108.350000 -2.186746
108.400000 -2.107951
108.450000 -2.018877
108.500000 -1.919526
108.550000 -1.854434
108.600000 -1.854434
108.650000 -1.885268
108.700000 -1.905823
108.750000 -1.950359
108.800000 -2.018877
108.850000 -2.080543
108.900000 -2.128505
108.950000 -2.176468
109.000000 -2.207301
109.050000 -2.227856
109.100000 -2.244986
109.150000 -2.238134
109.200000 -2.221005
109.250000 -2.207301
109.300000 -2.166191
109.350000 -2.097672
109.400000 -2.042858
109.450000 -1.994896
109.500000 -1.953785
109.550000 -1.929804
109.600000 -1.916100
109.650000 -1.909248
109.700000 -1.933230
109.750000 -1.964063
109.800000 -1.946934
109.850000 -1.922952
109.900000 -1.922953
109.950000 -1.895545
110.000000 -1.833879
110.050000 -1.796194
110.100000 -1.785916
110.150000 -1.775639
110.200000 -1.765361
110.250000 -1.768787
110.300000 -1.796194
110.350000 -1.864713
110.400000 -1.953785
110.450000 -2.015451
110.500000 -2.070266
110.550000 -2.155913
110.600000 -2.238134
110.650000 -2.265541
110.700000 -2.279244
110.750000 -2.279245
110.800000 -2.227856
110.850000 -2.155913
110.900000 -2.121653
110.950000 -2.104525
111.000000 -2.080543
111.050000 -2.073691
111.100000 -2.104524
111.150000 -2.131932
111.200000 -2.152487
111.250000 -2.193597
111.300000 -2.248411
111.350000 -2.272393
111.400000 -2.265541
111.450000 -2.244986
111.500000 -2.200449
111.550000 -2.131932
111.600000 -2.063413
111.650000 -1.981192
111.700000 -1.885268
111.750000 -1.806472
111.800000 -1.751658
111.850000 -1.693417
111.900000 -1.631752
111.950000 -1.611196
112.000000 -1.624900
112.050000 -1.642029
112.100000 -1.659158
112.150000 -1.707121
112.200000 -1.803046
112.250000 -1.895545
112.300000 -1.957211
112.350000 -2.029155
112.400000 -2.131932
112.450000 -2.221004
112.500000 -2.279245
112.550000 -2.313504
112.600000 -2.313504
112.650000 -2.265541
112.700000 -2.190172
112.750000 -2.097672
112.800000 -1.991470
112.850000 -1.895545
112.900000 -1.837305
112.950000 -1.806472
113.000000 -1.799620
113.050000 -1.847582
113.100000 -1.974340
113.150000 -2.142209
113.200000 -2.323782
113.250000 -2.505354
113.300000 -2.638963
113.350000 -2.714332
113.400000 -2.755443
113.450000 -2.738314
113.500000 -2.625260
113.550000 -2.474520
113.600000 -2.330634
113.650000 -2.169616
113.700000 -1.994896
113.750000 -1.857860
113.800000 -1.775639
113.850000 -1.751658
113.900000 -1.803046
113.950000 -1.888693
114.000000 -1.988044
114.050000 -2.083969
114.100000 -2.173042
114.150000 -2.275819
114.200000 -2.378595
114.250000 -2.429984
114.300000 -2.406002
114.350000 -2.375169
114.400000 -2.378595
114.450000 -2.368317
114.500000 -2.337485
114.550000 -2.334059
114.600000 -2.368317
114.650000 -2.392299
114.700000 -2.416280
114.750000 -2.464243
114.800000 -2.508779
114.850000 -2.498501
114.900000 -2.447113
114.950000 -2.392299
115.000000 -2.323781
115.050000 -2.207301
115.100000 -2.066839
115.150000 -1.940082
115.200000 -1.830453
115.250000 -1.717398
115.300000 -1.628325
115.350000 -1.583789
115.400000 -1.580363
115.450000 -1.587215
115.500000 -1.624900
115.550000 -1.689992
115.600000 -1.772213
115.650000 -1.874990
115.700000 -1.977766
115.750000 -2.053136
115.800000 -2.131931
115.850000 -2.214152
115.900000 -2.258689
115.950000 -2.231282
116.000000 -2.173042
116.050000 -2.121654
116.100000 -2.080543
116.150000 -2.022303
116.200000 -1.950359
116.250000 -1.895545
116.300000 -1.892119
116.350000 -1.922952
116.400000 -1.981192
116.450000 -2.073692
116.500000 -2.169616
116.550000 -2.248411
116.600000 -2.337485
116.650000 -2.409428
116.700000 -2.406003
116.750000 -2.351188
116.800000 -2.289522
116.850000 -2.210727
116.900000 -2.094247
116.950000 -1.977766
117.000000 -1.878415
117.050000 -1.799620
117.100000 -1.758509
117.150000 -1.775639
117.200000 -1.816750
117.250000 -1.874989
117.300000 -1.970914
117.350000 -2.063413
117.400000 -2.131932
117.450000 -2.186746
117.500000 -2.207301
117.550000 -2.169616
117.600000 -2.131931
117.650000 -2.111376
117.700000 -2.056562
117.750000 -1.984618
117.800000 -1.977766
117.850000 -2.005173
117.900000 -2.012025
117.950000 -2.029154
118.000000 -2.077118
118.050000 -2.135357
118.100000 -2.190172
118.150000 -2.217579
118.200000 -2.210727
118.250000 -2.200449
118.300000 -2.173042
118.350000 -2.097673
118.400000 -1.981192
118.450000 -1.892119
118.500000 -1.813324
118.550000 -1.734528
118.600000 -1.672862
118.650000 -1.683139
118.700000 -1.737954
118.750000 -1.803046
118.800000 -1.892119
118.850000 -2.022303
118.900000 -2.159338
118.950000 -2.289523
119.000000 -2.419706
119.050000 -2.543038
119.100000 -2.614982
119.150000 -2.638963
119.200000 -2.635538
119.250000 -2.570445
119.300000 -2.440261
119.350000 -2.268967
119.400000 -2.101099
119.450000 -1.912675
119.500000 -1.707121
119.550000 -1.525548
119.600000 -1.395365
119.650000 -1.326847
119.700000 -1.309718
119.750000 -1.323421
119.800000 -1.357680
119.850000 -1.443328
119.900000 -1.594066
119.950000 -1.775639
120.000000 -1.929804
120.050000 -2.056562
120.100000 -2.176468
120.150000 -2.275819
120.200000 -2.340911
120.250000 -2.364892
120.300000 -2.358040
120.350000 -2.313504
120.400000 -2.221005
120.450000 -2.125080
120.500000 -2.056562
120.550000 -1.981193
120.600000 -1.905823
120.650000 -1.881842
120.700000 -1.912675
120.750000 -1.929804
120.800000 -1.950360
120.850000 -2.022303
120.900000 -2.104524
120.950000 -2.155913
121.000000 -2.193598
121.050000 -2.227856
121.100000 -2.221004
121.150000 -2.200449
121.200000 -2.183320
121.250000 -2.135357
121.300000 -2.063413
121.350000 -2.018878
121.400000 -1.998322
121.450000 -1.974340
121.500000 -1.970915
121.550000 -1.988044
121.600000 -1.984618
121.650000 -1.967489
121.700000 -1.960637
121.750000 -1.940082
121.800000 -1.909248
121.850000 -1.871564
121.900000 -1.844157
121.950000 -1.830453
122.000000 -1.837305
122.050000 -1.844157
122.100000 -1.857860
122.150000 -1.909249
122.200000 -1.974341
122.250000 -2.025729
122.300000 -2.104524
122.350000 -2.193598
122.400000 -2.231282
122.450000 -2.231282
122.500000 -2.227857
122.550000 -2.169616
122.600000 -2.049710
122.650000 -1.929804
122.700000 -1.827027
122.750000 -1.703695
122.800000 -1.563234
122.850000 -1.439902
122.900000 -1.374810
122.950000 -1.364532
123.000000 -1.364532
123.050000 -1.385087
123.100000 -1.467308
123.150000 -1.597493
123.200000 -1.710547
123.250000 -1.820175
123.300000 -1.953786
123.350000 -2.073691
123.400000 -2.142209
123.450000 -2.224430
123.500000 -2.313504
123.550000 -2.361466
123.600000 -2.378595
123.650000 -2.399151
123.700000 -2.378595
123.750000 -2.327208
123.800000 -2.296374
123.850000 -2.255263
123.900000 -2.173042
123.950000 -2.107950
124.000000 -2.049710
124.050000 -1.940081
124.100000 -1.785916
124.150000 -1.652306
124.200000 -1.518698
124.250000 -1.364532
124.300000 -1.224071
124.350000 -1.104165
124.400000 -0.987685
124.450000 -0.888333
124.500000 -0.823242
124.550000 -0.785556
124.600000 -0.785557
124.650000 -0.823241
124.700000 -0.891760
124.750000 -0.987684
124.800000 -1.138424
124.850000 -1.309718
124.900000 -1.474161
124.950000 -1.645456
125.000000 -1.803046
125.050000 -1.916101
125.100000 -1.988044
125.150000 -2.039432
125.200000 -2.063414
125.250000 -2.056562
125.300000 -2.015451
125.350000 -1.929803
125.400000 -1.854434
125.450000 -1.806472
125.500000 -1.758509
125.550000 -1.717399
125.600000 -1.751658
125.650000 -1.813323
125.700000 -1.847583
125.750000 -1.881842
125.800000 -1.940081
125.850000 -1.974341
125.900000 -1.977767
125.950000 -1.988044
126.000000 -1.991470
126.050000 -1.960637
126.100000 -1.950359
126.150000 -1.964063
126.200000 -1.953786
126.250000 -1.929804
126.300000 -1.946933
126.350000 -1.977766
126.400000 -1.984619
126.450000 -1.977766
126.500000 -1.974341
126.550000 -1.946933
126.600000 -1.905823
126.650000 -1.878416
126.700000 -1.840730
126.750000 -1.799621
126.800000 -1.785916
126.850000 -1.792768
126.900000 -1.823601
126.950000 -1.898971
127.000000 -1.967488
127.050000 -2.022303
127.100000 -2.104525
127.150000 -2.200449
127.200000 -2.272393
127.250000 -2.306652
127.300000 -2.313504
127.350000 -2.299800
127.400000 -2.296374
127.450000 -2.296374
127.500000 -2.248412
127.550000 -2.193598
127.600000 -2.186746
127.650000 -2.166191
127.700000 -2.090821
127.750000 -2.042859
127.800000 -2.053136
127.850000 -2.049710
127.900000 -2.012026
127.950000 -2.005174
128.000000 -2.005174
128.050000 -1.960637
128.100000 -1.919527
128.150000 -1.909248
128.200000 -1.878416
128.250000 -1.813323
128.300000 -1.765362
128.350000 -1.731103
128.400000 -1.648881
128.450000 -1.556382
128.500000 -1.494716
128.550000 -1.426198
128.600000 -1.354254
128.650000 -1.347403
128.700000 -1.398791
128.750000 -1.450179
128.800000 -1.504994
128.850000 -1.580363
128.900000 -1.683140
128.950000 -1.789342
129.000000 -1.909248
129.050000 -2.022303
129.100000 -2.125079
129.150000 -2.210727
129.200000 -2.286096
129.250000 -2.340911
129.300000 -2.375170
129.350000 -2.385447
129.400000 -2.371744
129.450000 -2.327207
129.500000 -2.268967
129.550000 -2.217579
129.600000 -2.173042
129.650000 -2.097673
129.700000 -2.012025
129.750000 -1.943507
129.800000 -1.878416
129.850000 -1.809898
129.900000 -1.761935
129.950000 -1.744806
130.000000 -1.731102
130.050000 -1.737954
130.100000 -1.775639
130.150000 -1.816750
130.200000 -1.868138
130.250000 -1.953786
130.300000 -2.070265
130.350000 -2.186746
130.400000 -2.316929
130.450000 -2.474521
130.500000 -2.625260
130.550000 -2.717758
130.600000 -2.745166
130.650000 -2.755444
130.700000 -2.724610
130.750000 -2.604704
130.800000 -2.412855
130.850000 -2.210727
130.900000 -2.001747
130.950000 -1.775639
131.000000 -1.576937
131.050000 -1.433050
131.100000 -1.323422
131.150000 -1.275459
131.200000 -1.296014
131.250000 -1.361106
131.300000 -1.481013
131.350000 -1.648881
131.400000 -1.813324
131.450000 -1.943507
131.500000 -2.070265
131.550000 -2.176468
131.600000 -2.221005
131.650000 -2.234708
131.700000 -2.227856
131.750000 -2.186746
131.800000 -2.111376
131.850000 -2.029155
131.900000 -1.922953
131.950000 -1.806472
132.000000 -1.734528
132.050000 -1.707121
132.100000 -1.679714
132.150000 -1.666010
132.200000 -1.720825
132.250000 -1.803046
132.300000 -1.878416
132.350000 -1.981192
132.400000 -2.111376
132.450000 -2.214153
132.500000 -2.282671
132.550000 -2.330633
132.600000 -2.347763
132.650000 -2.306652
132.700000 -2.241560
132.750000 -2.155913
132.800000 -2.049711
132.850000 -1.933230
132.900000 -1.823602
132.950000 -1.720824
133.000000 -1.645455
133.050000 -1.618048
133.100000 -1.635177
133.150000 -1.679714
133.200000 -1.737955
133.250000 -1.785917
133.300000 -1.840731
133.350000 -1.892119
133.400000 -1.919526
133.450000 -1.909248
133.500000 -1.888694
133.550000 -1.844157
133.600000 -1.768787
133.650000 -1.717398
133.700000 -1.707121
133.750000 -1.710547
133.800000 -1.703695
133.850000 -1.707121
133.900000 -1.713973
133.950000 -1.748231
134.000000 -1.799620
134.050000 -1.844156
134.100000 -1.874989
134.150000 -1.905823
134.200000 -1.912674
134.250000 -1.895545
134.300000 -1.885267
134.350000 -1.885268
134.400000 -1.898971
134.450000 -1.922952
134.500000 -1.940082
134.550000 -1.943508
134.600000 -1.981193
134.650000 -2.005173
134.700000 -1.984619
134.750000 -1.964062
134.800000 -1.964063
134.850000 -1.919526
134.900000 -1.837305
134.950000 -1.779064
135.000000 -1.755084
135.050000 -1.717398
135.100000 -1.683140
135.150000 -1.683140
135.200000 -1.720824
135.250000 -1.768787
135.300000 -1.830453
135.350000 -1.922952
135.400000 -2.008599
135.450000 -2.083969
135.500000 -2.173042
135.550000 -2.279245
135.600000 -2.358040
135.650000 -2.399150
135.700000 -2.450539
135.750000 -2.522483
135.800000 -2.580723
135.850000 -2.625259
135.900000 -2.680074
135.950000 -2.724611
136.000000 -2.734888
136.050000 -2.728036
136.100000 -2.714332
136.150000 -2.659519
136.200000 -2.573872
136.250000 -2.491650
136.300000 -2.412854
136.350000 -2.334059
136.400000 -2.241560
136.450000 -2.149061
136.500000 -2.073692
136.550000 -2.029155
136.600000 -1.984618
136.650000 -1.936656
136.700000 -1.888693
136.750000 -1.861286
136.800000 -1.857861
136.850000 -1.881842
136.900000 -1.936655
136.950000 -2.012025
137.000000 -2.104524
137.050000 -2.217579
137.100000 -2.327207
137.150000 -2.385447
137.200000 -2.382021
137.250000 -2.347762
137.300000 -2.303226
137.350000 -2.203875
137.400000 -2.046284
137.450000 -1.881842
137.500000 -1.727676
137.550000 -1.580363
137.600000 -1.474160
137.650000 -1.443328
137.700000 -1.443328
137.750000 -1.470735
137.800000 -1.570085
137.850000 -1.717398
137.900000 -1.844157
137.950000 -1.946934
138.000000 -2.063413
138.050000 -2.159339
138.100000 -2.200449
138.150000 -2.234708
138.200000 -2.289522
138.250000 -2.316929
138.300000 -2.299800
138.350000 -2.292949
138.400000 -2.306652
138.450000 -2.289522
138.500000 -2.258689
138.550000 -2.248412
138.600000 -2.224430
138.650000 -2.155913
138.700000 -2.059988
138.750000 -1.950359
138.800000 -1.861286
138.850000 -1.782491
138.900000 -1.713973
138.950000 -1.652307
139.000000 -1.607770
139.050000 -1.587215
139.100000 -1.583789
139.150000 -1.597492
139.200000 -1.642030
139.250000 -1.676288
139.300000 -1.700270
139.350000 -1.751658
139.400000 -1.813324
139.450000 -1.813323
139.500000 -1.779065
139.550000 -1.775639
139.600000 -1.768787
139.650000 -1.717398
139.700000 -1.659159
139.750000 -1.635178
139.800000 -1.604345
139.850000 -1.576937
139.900000 -1.594067
139.950000 -1.635177
140.000000 -1.666011
140.050000 -1.696843
140.100000 -1.748232
140.150000 -1.799620
140.200000 -1.809898
140.250000 -1.796195
140.300000 -1.768787
140.350000 -1.707121
140.400000 -1.618048
140.450000 -1.528975
140.500000 -1.439901
140.550000 -1.340551
140.600000 -1.272033
140.650000 -1.241200
140.700000 -1.230922
140.750000 -1.237775
140.800000 -1.265181
140.850000 -1.296014
140.900000 -1.361107
140.950000 -1.463883
141.000000 -1.563234
141.050000 -1.652307
141.100000 -1.748232
141.150000 -1.833879
141.200000 -1.885268
141.250000 -1.916101
141.300000 -1.926378
141.350000 -1.895545
141.400000 -1.816750
141.450000 -1.696843
141.500000 -1.535826
141.550000 -1.347402
141.600000 -1.134997
141.650000 -0.902037
141.700000 -0.696483
141.750000 -0.562874
141.800000 -0.470375
141.850000 -0.391579
141.900000 -0.371024
141.950000 -0.425838
142.000000 -0.518337
142.050000 -0.634817
142.100000 -0.788983
142.150000 -0.973981
142.200000 -1.165831
142.250000 -1.350829
142.300000 -1.477587
142.350000 -1.556382
142.400000 -1.645455
142.450000 -1.737954
142.500000 -1.785917
142.550000 -1.809898
142.600000 -1.820175
142.650000 -1.820175
142.700000 -1.809898
142.750000 -1.809898
142.800000 -1.799620
142.850000 -1.748232
142.900000 -1.672862
142.950000 -1.594066
143.000000 -1.501568
143.050000 -1.391939
143.100000 -1.292589
143.150000 -1.206941
143.200000 -1.131572
143.250000 -1.073331
143.300000 -1.039072
143.350000 -1.011665
143.400000 -1.004814
143.450000 -1.018517
143.500000 -1.042498
143.550000 -1.052776
143.600000 -1.066480
143.650000 -1.076757
143.700000 -1.080183
143.750000 -1.097313
143.800000 -1.111016
143.850000 -1.097313
143.900000 -1.080183
143.950000 -1.124719
144.000000 -1.227497
144.050000 -1.357681
144.100000 -1.481012
144.150000 -1.597493
144.200000 -1.727677
144.250000 -1.857860
144.300000 -1.940081
144.350000 -1.984618
144.400000 -2.015452
144.450000 -2.012025
144.500000 -1.950359
144.550000 -1.864712
144.600000 -1.799620
144.650000 -1.761935
144.700000 -1.772213
144.750000 -1.854434
144.800000 -1.991470
144.850000 -2.149061
144.900000 -2.330633
144.950000 -2.515631
145.000000 -2.669796
145.050000 -2.796554
145.100000 -2.906183
145.150000 -2.950719
145.200000 -2.885627
145.250000 -2.745166
145.300000 -2.543038
145.350000 -2.286096
145.400000 -2.015451
145.450000 -1.755084
145.500000 -1.498141
145.550000 -1.306292
145.600000 -1.200090
145.650000 -1.134997
145.700000 -1.100739
145.750000 -1.155553
145.800000 -1.316570
145.850000 -1.494716
145.900000 -1.666010
145.950000 -1.844156
146.000000 -2.025729
146.050000 -2.152487
146.100000 -2.217579
146.150000 -2.221005
146.200000 -2.179894
146.250000 -2.107950
146.300000 -1.988044
146.350000 -1.844157
146.400000 -1.710547
146.450000 -1.594067
146.500000 -1.498142
146.550000 -1.450179
146.600000 -1.460457
146.650000 -1.498141
146.700000 -1.552957
146.750000 -1.648881
146.800000 -1.755084
146.850000 -1.847583
146.900000 -1.922952
146.950000 -1.994896
147.000000 -2.070266
147.050000 -2.152487
147.100000 -2.231282
147.150000 -2.268967
147.200000 -2.275818
147.250000 -2.262115
147.300000 -2.238134
147.350000 -2.203875
147.400000 -2.138784
147.450000 -2.042858
147.500000 -1.946933
147.550000 -1.881842
147.600000 -1.809898
147.650000 -1.720824
147.700000 -1.676288
147.750000 -1.703696
147.800000 -1.761935
147.850000 -1.820176
147.900000 -1.892119
147.950000 -1.988045
148.000000 -2.066839
148.050000 -2.104524
148.100000 -2.125080
148.150000 -2.135357
148.200000 -2.104524
148.250000 -2.025729
148.300000 -1.933230
148.350000 -1.854434
148.400000 -1.775639
148.450000 -1.686566
148.500000 -1.624899
148.550000 -1.587215
148.600000 -1.542678
148.650000 -1.494716
148.700000 -1.446754
148.750000 -1.391939
148.800000 -1.347403
148.850000 -1.330273
148.900000 -1.289163
148.950000 -1.210367
149.000000 -1.162405
149.050000 -1.165830
149.100000 -1.186386
149.150000 -1.224070
149.200000 -1.292589
149.250000 -1.378236
149.300000 -1.481013
149.350000 -1.600918
149.400000 -1.710547
149.450000 -1.765361
149.500000 -1.809897
149.550000 -1.868138
149.600000 -1.902397
149.650000 -1.895545
149.700000 -1.861286
149.750000 -1.813324
149.800000 -1.775639
149.850000 -1.765361
149.900000 -1.744806
149.950000 -1.696844
150.000000 -1.679714
150.050000 -1.717398
150.100000 -1.761935
150.150000 -1.833879
150.200000 -1.950360
150.250000 -2.063414
150.300000 -2.159339
150.350000 -2.286096
150.400000 -2.416281
150.450000 -2.488224
150.500000 -2.525909
150.550000 -2.580723
150.600000 -2.601278
150.650000 -2.553316
150.700000 -2.453965
150.750000 -2.313503
150.800000 -2.152486
150.850000 -2.012025
150.900000 -1.895545
150.950000 -1.779065
151.000000 -1.686566
151.050000 -1.624899
151.100000 -1.573511
151.150000 -1.552956
151.200000 -1.590641
151.250000 -1.642030
151.300000 -1.666011
151.350000 -1.686566
151.400000 -1.710547
151.450000 -1.713973
151.500000 -1.666010
151.550000 -1.590641
151.600000 -1.508420
151.650000 -1.429624
151.700000 -1.340551
151.750000 -1.258329
151.800000 -1.220644
151.850000 -1.203516
151.900000 -1.179534
151.950000 -1.182960
152.000000 -1.220645
152.050000 -1.234348
152.100000 -1.237774
152.150000 -1.285737
152.200000 -1.333699
152.250000 -1.340551
152.300000 -1.354255
152.350000 -1.429624
152.400000 -1.535826
152.450000 -1.631752
152.500000 -1.724250
152.550000 -1.830453
152.600000 -1.957211
152.650000 -2.080543
152.700000 -2.186746
152.750000 -2.279244
152.800000 -2.344337
152.850000 -2.368318
152.900000 -2.351188
152.950000 -2.306652
153.000000 -2.231282
153.050000 -2.125079
153.100000 -2.012026
153.150000 -1.919526
153.200000 -1.871564
153.250000 -1.851008
153.300000 -1.857860
153.350000 -1.898971
153.400000 -1.953785
153.450000 -2.022302
153.500000 -2.114802
153.550000 -2.183320
153.600000 -2.186745
153.650000 -2.169616
153.700000 -2.152487
153.750000 -2.094246
153.800000 -1.970914
153.850000 -1.823601
153.900000 -1.676289
153.950000 -1.515271
154.000000 -1.350829
154.050000 -1.210367
154.100000 -1.093887
154.150000 -1.021943
154.200000 -1.001388
154.250000 -1.039073
154.300000 -1.121294
154.350000 -1.227497
154.400000 -1.343977
154.450000 -1.470734
154.500000 -1.624900
154.550000 -1.785916
154.600000 -1.940082
154.650000 -2.066840
154.700000 -2.138783
154.750000 -2.173042
154.800000 -2.179894
154.850000 -2.142209
154.900000 -2.073691
154.950000 -2.015451
155.000000 -1.984619
155.050000 -1.940081
155.100000 -1.885268
155.150000 -1.844156
155.200000 -1.809898
155.250000 -1.779065
155.300000 -1.751658
155.350000 -1.731102
155.400000 -1.734528
155.450000 -1.734528
155.500000 -1.693418
155.550000 -1.638603
155.600000 -1.611196
155.650000 -1.580363
155.700000 -1.532401
155.750000 -1.501568
155.800000 -1.498142
155.850000 -1.491290
155.900000 -1.481013
155.950000 -1.484438
156.000000 -1.487864
156.050000 -1.491290
156.100000 -1.498141
156.150000 -1.511845
156.200000 -1.542678
156.250000 -1.583789
156.300000 -1.621474
156.350000 -1.669436
156.400000 -1.755084
156.450000 -1.868138
156.500000 -1.967489
156.550000 -2.042858
156.600000 -2.118228
156.650000 -2.169616
156.700000 -2.162765
156.750000 -2.121654
156.800000 -2.077117
156.850000 -2.022303
156.900000 -1.967488
156.950000 -1.919526
157.000000 -1.864712
157.050000 -1.799620
157.100000 -1.755084
157.150000 -1.765362
157.200000 -1.820176
157.250000 -1.885268
157.300000 -1.940082
157.350000 -1.991470
157.400000 -2.049710
157.450000 -2.090821
157.500000 -2.080543
157.550000 -2.025728
157.600000 -1.933230
157.650000 -1.809898
157.700000 -1.689992
157.750000 -1.587215
157.800000 -1.498142
157.850000 -1.433049
157.900000 -1.436476
157.950000 -1.491290
158.000000 -1.566660
158.050000 -1.683140
158.100000 -1.847583
158.150000 -2.005173
158.200000 -2.114802
158.250000 -2.176468
158.300000 -2.186745
158.350000 -2.155913
158.400000 -2.080543
158.450000 -1.964063
158.500000 -1.803046
158.550000 -1.648881
158.600000 -1.559808
158.650000 -1.515271
158.700000 -1.491290
158.750000 -1.504994
158.800000 -1.573512
158.850000 -1.662585
158.900000 -1.744806
158.950000 -1.823602
159.000000 -1.916100
159.050000 -1.998321
159.100000 -2.025729
159.150000 -1.984618
159.200000 -1.943507
159.250000 -1.919526
159.300000 -1.868137
159.350000 -1.823601
159.400000 -1.840731
159.450000 -1.878416
159.500000 -1.898971
159.550000 -1.936656
159.600000 -2.001748
159.650000 -2.039432
159.700000 -2.008600
159.750000 -1.967488
159.800000 -1.929804
159.850000 -1.854435
159.900000 -1.748231
159.950000 -1.659158
160.000000 -1.597492
160.050000 -1.532401
160.100000 -1.487864
160.150000 -1.487864
160.200000 -1.515272
160.250000 -1.535826
160.300000 -1.576938
160.350000 -1.631752
160.400000 -1.666011
160.450000 -1.669436
160.500000 -1.662585
160.550000 -1.648881
160.600000 -1.628326
160.650000 -1.618048
160.700000 -1.624900
160.750000 -1.631752
160.800000 -1.659159
160.850000 -1.737954
160.900000 -1.833879
160.950000 -1.919527
161.000000 -2.001747
161.050000 -2.083969
161.100000 -2.145635
161.150000 -2.197024
161.200000 -2.224430
161.250000 -2.224431
161.300000 -2.227856
161.350000 -2.248412
161.400000 -2.265541
161.450000 -2.286096
161.500000 -2.323781
161.550000 -2.330633
161.600000 -2.310078
161.650000 -2.299800
161.700000 -2.272393
161.750000 -2.176468
161.800000 -2.042858
161.850000 -1.892119
161.900000 -1.700269
161.950000 -1.477586
162.000000 -1.268607
162.050000 -1.104165
162.100000 -0.970555
162.150000 -0.895186
162.200000 -0.891760
162.250000 -0.949999
162.300000 -1.063053
162.350000 -1.234349
162.400000 -1.443328
162.450000 -1.655732
162.500000 -1.833879
162.550000 -1.967489
162.600000 -2.056562
162.650000 -2.094247
162.700000 -2.053136
162.750000 -1.953785
162.800000 -1.840731
162.850000 -1.731102
162.900000 -1.628325
162.950000 -1.542678
163.000000 -1.498142
163.050000 -1.498142
163.100000 -1.528975
163.150000 -1.607771
163.200000 -1.734529
163.250000 -1.871563
163.300000 -1.974341
163.350000 -2.042858
163.400000 -2.094246
163.450000 -2.104524
163.500000 -2.056562
163.550000 -1.946934
163.600000 -1.809898
163.650000 -1.655733
163.700000 -1.498142
163.750000 -1.371383
163.800000 -1.296014
163.850000 -1.289162
163.900000 -1.364532
163.950000 -1.515272
164.000000 -1.710547
164.050000 -1.936656
164.100000 -2.183320
164.150000 -2.412854
164.200000 -2.591001
164.250000 -2.710907
164.300000 -2.758869
164.350000 -2.707481
164.400000 -2.594427
164.450000 -2.464243
164.500000 -2.320356
164.550000 -2.169617
164.600000 -2.042859
164.650000 -1.981192
164.700000 -1.970915
164.750000 -2.012025
164.800000 -2.094247
164.850000 -2.179894
164.900000 -2.268967
164.950000 -2.344337
165.000000 -2.409429
165.050000 -2.436835
165.100000 -2.402577
165.150000 -2.310078
165.200000 -2.197023
165.250000 -2.077117
165.300000 -1.933229
165.350000 -1.765361
165.400000 -1.600918
165.450000 -1.446753
165.500000 -1.306292
165.550000 -1.182960
165.600000 -1.069906
165.650000 -0.980833
165.700000 -0.953425
165.750000 -0.987684
165.800000 -1.052776
165.850000 -1.162405
165.900000 -1.343976
165.950000 -1.573512
166.000000 -1.816750
166.050000 -2.059987
166.100000 -2.303226
166.150000 -2.512205
166.200000 -2.649241
166.250000 -2.690351
166.300000 -2.638963
166.350000 -2.519057
166.400000 -2.340910
166.450000 -2.128506
166.500000 -1.912675
166.550000 -1.724251
166.600000 -1.566659
166.650000 -1.457031
166.700000 -1.412494
166.750000 -1.429623
166.800000 -1.494716
166.850000 -1.614622
166.900000 -1.751658
166.950000 -1.857860
167.000000 -1.919526
167.050000 -1.950360
167.100000 -1.933230
167.150000 -1.861286
167.200000 -1.748232
167.250000 -1.621474
167.300000 -1.504994
167.350000 -1.415921
167.400000 -1.347403
167.450000 -1.316569
167.500000 -1.350829
167.550000 -1.433050
167.600000 -1.542679
167.650000 -1.655732
167.700000 -1.741380
167.750000 -1.803046
167.800000 -1.847582
167.850000 -1.864712
167.900000 -1.813324
167.950000 -1.748232
168.000000 -1.713973
168.050000 -1.683140
168.100000 -1.618048
168.150000 -1.597493
168.200000 -1.638603
168.250000 -1.700270
168.300000 -1.758509
168.350000 -1.840730
168.400000 -1.933230
168.450000 -2.012025
168.500000 -2.056562
168.550000 -2.042858
168.600000 -1.998322
168.650000 -1.953785
168.700000 -1.909248
168.750000 -1.854435
168.800000 -1.816749
168.850000 -1.806472
168.900000 -1.827027
168.950000 -1.871564
169.000000 -1.892120
169.050000 -1.905822
169.100000 -1.967489
169.150000 -2.046285
169.200000 -2.073692
169.250000 -2.063414
169.300000 -2.046284
169.350000 -1.991470
169.400000 -1.902397
169.450000 -1.830453
169.500000 -1.758510
169.550000 -1.669436
169.600000 -1.614622
169.650000 -1.624900
169.700000 -1.672862
169.750000 -1.720825
169.800000 -1.782491
169.850000 -1.868138
169.900000 -1.940082
169.950000 -1.998322
170.000000 -2.070265
170.050000 -2.125080
170.100000 -2.155913
170.150000 -2.162764
170.200000 -2.149061
170.250000 -2.131931
170.300000 -2.118228
170.350000 -2.104524
170.400000 -2.090821
170.450000 -2.080543
170.500000 -2.056562
170.550000 -1.984618
170.600000 -1.888694
170.650000 -1.782491
170.700000 -1.652307
170.750000 -1.511845
170.800000 -1.398791
170.850000 -1.316570
170.900000 -1.254904
170.950000 -1.251478
171.000000 -1.343977
171.050000 -1.484439
171.100000 -1.645455
171.150000 -1.851008
171.200000 -2.080543
171.250000 -2.262116
171.300000 -2.392299
171.350000 -2.491650
171.400000 -2.529335
171.450000 -2.484798
171.500000 -2.395725
171.550000 -2.296375
171.600000 -2.176468
171.650000 -2.046284
171.700000 -1.950360
171.750000 -1.895545
171.800000 -1.868138
171.850000 -1.871564
171.900000 -1.892119
171.950000 -1.916101
172.000000 -1.936656
172.050000 -1.943507
172.100000 -1.922952
172.150000 -1.864713
172.200000 -1.779065
172.250000 -1.669436
172.300000 -1.539252
172.350000 -1.422772
172.400000 -1.347403
172.450000 -1.299440
172.500000 -1.254903
172.550000 -1.230923
172.600000 -1.248052
172.650000 -1.296014
172.700000 -1.374810
172.750000 -1.477587
172.800000 -1.587215
172.850000 -1.696843
172.900000 -1.816749
172.950000 -1.912675
173.000000 -1.960637
173.050000 -1.967488
173.100000 -1.950359
173.150000 -1.888693
173.200000 -1.772213
173.250000 -1.635177
173.300000 -1.470735
173.350000 -1.282311
173.400000 -1.124720
173.450000 -1.028795
173.500000 -0.970554
173.550000 -0.950000
173.600000 -1.032221
173.650000 -1.217219
173.700000 -1.443327
173.750000 -1.686566
173.800000 -1.960637
173.850000 -2.241560
173.900000 -2.488224
173.950000 -2.693778
174.000000 -2.841091
174.050000 -2.913034
174.100000 -2.895905
174.150000 -2.817110
174.200000 -2.697203
174.250000 -2.539612
174.300000 -2.347763
174.350000 -2.155913
174.400000 -1.984618
174.450000 -1.820175
174.500000 -1.683140
174.550000 -1.611196
174.600000 -1.607770
174.650000 -1.624900
174.700000 -1.672862
174.750000 -1.768787
174.800000 -1.871564
174.850000 -1.940081
174.900000 -1.984618
174.950000 -1.988045
175.000000 -1.946933
175.050000 -1.892119
175.100000 -1.823601
175.150000 -1.710547
175.200000 -1.583789
175.250000 -1.491290
175.300000 -1.412494
175.350000 -1.350829
175.400000 -1.340551
175.450000 -1.378236
175.500000 -1.450180
175.550000 -1.563233
175.600000 -1.713973
175.650000 -1.868138
175.700000 -2.012025
175.750000 -2.145635
175.800000 -2.258690
175.850000 -2.334059
175.900000 -2.364892
175.950000 -2.354615
176.000000 -2.334059
176.050000 -2.296374
176.100000 -2.224431
176.150000 -2.152487
176.200000 -2.097673
176.250000 -2.032581
176.300000 -1.957211
176.350000 -1.919526
176.400000 -1.895545
176.450000 -1.885267
176.500000 -1.902397
176.550000 -1.940082
176.600000 -1.977766
176.650000 -2.015451
176.700000 -2.066839
176.750000 -2.107950
176.800000 -2.149061
176.850000 -2.173042
176.900000 -2.155913
176.950000 -2.125080
177.000000 -2.114802
177.050000 -2.073691
177.100000 -1.970914
177.150000 -1.878415
177.200000 -1.813323
177.250000 -1.744806
177.300000 -1.686566
177.350000 -1.666010
177.400000 -1.624899
177.450000 -1.556382
177.500000 -1.528975
177.550000 -1.535826
177.600000 -1.501568
177.650000 -1.460457
177.700000 -1.439901
177.750000 -1.388514
177.800000 -1.316570
177.850000 -1.265181
177.900000 -1.213793
177.950000 -1.155552
178.000000 -1.128146
178.050000 -1.145275
178.100000 -1.203515
178.150000 -1.309718
178.200000 -1.446753
178.250000 -1.583789
178.300000 -1.713973
178.350000 -1.851008
178.400000 -1.943507
178.450000 -1.981192
178.500000 -2.005174
178.550000 -2.008600
178.600000 -1.998322
178.650000 -1.974341
178.700000 -1.929804
178.750000 -1.847583
178.800000 -1.799620
178.850000 -1.796194
178.900000 -1.792768
178.950000 -1.789343
179.000000 -1.844157
179.050000 -1.933230
179.100000 -1.998322
179.150000 -2.029155
179.200000 -2.046285
179.250000 -2.059988
179.300000 -2.063414
179.350000 -2.036007
179.400000 -1.977767
179.450000 -1.929803
179.500000 -1.895545
179.550000 -1.844157
179.600000 -1.779065
179.650000 -1.724250
179.700000 -1.686566
179.750000 -1.659159
179.800000 -1.631751
179.850000 -1.614622
179.900000 -1.635177
179.950000 -1.672862
180.000000 -1.713973
180.050000 -1.758510
180.100000 -1.823602
180.150000 -1.905823
180.200000 -2.001747
180.250000 -2.097673
180.300000 -2.169616
180.350000 -2.200449
180.400000 -2.217579
180.450000 -2.214153
180.500000 -2.145635
180.550000 -2.049710
180.600000 -1.960637
180.650000 -1.854434
180.700000 -1.731103
180.750000 -1.642029
180.800000 -1.600918
180.850000 -1.563234
180.900000 -1.542678
180.950000 -1.559808
181.000000 -1.604345
181.050000 -1.642029
181.100000 -1.672862
181.150000 -1.707121
181.200000 -1.761935
181.250000 -1.796194
181.300000 -1.755084
181.350000 -1.700269
181.400000 -1.703695
181.450000 -1.707121
181.500000 -1.652307
181.550000 -1.604344
181.600000 -1.604345
181.650000 -1.635177
181.700000 -1.666010
181.750000 -1.707121
181.800000 -1.748231
181.850000 -1.809897
181.900000 -1.871564
181.950000 -1.919526
182.000000 -1.943507
182.050000 -1.977767
182.100000 -2.012025
182.150000 -2.012026
182.200000 -1.967488
182.250000 -1.895545
182.300000 -1.806471
182.350000 -1.703695
182.400000 -1.590640
182.450000 -1.477587
182.500000 -1.367958
182.550000 -1.302866
182.600000 -1.309718
182.650000 -1.361106
182.700000 -1.436475
182.750000 -1.542678
182.800000 -1.662584
182.850000 -1.775639
182.900000 -1.881841
182.950000 -1.967489
183.000000 -2.025728
183.050000 -2.063414
183.100000 -2.094247
183.150000 -2.107951
183.200000 -2.094246
183.250000 -2.097673
183.300000 -2.111376
183.350000 -2.125080
183.400000 -2.121654
183.450000 -2.128506
183.500000 -2.145635
183.550000 -2.152487
183.600000 -2.152487
183.650000 -2.149061
183.700000 -2.118228
183.750000 -2.042858
183.800000 -1.960637
183.850000 -1.881842
183.900000 -1.806472
183.950000 -1.758509
184.000000 -1.761935
184.050000 -1.772213
184.100000 -1.792768
184.150000 -1.868138
184.200000 -1.991470
184.250000 -2.077118
184.300000 -2.121654
184.350000 -2.173042
184.400000 -2.203875
184.450000 -2.197023
184.500000 -2.169616
184.550000 -2.125080
184.600000 -2.077117
184.650000 -2.036007
184.700000 -1.974340
184.750000 -1.868138
184.800000 -1.785917
184.850000 -1.741380
184.900000 -1.693417
184.950000 -1.642029
185.000000 -1.600919
185.050000 -1.576937
185.100000 -1.552956
185.150000 -1.539252
185.200000 -1.504994
185.250000 -1.460457
185.300000 -1.409068
185.350000 -1.354255
185.400000 -1.306292
185.450000 -1.278885
185.500000 -1.254904
185.550000 -1.248052
185.600000 -1.261755
185.650000 -1.278884
185.700000 -1.302866
185.750000 -1.371383
185.800000 -1.474160
185.850000 -1.570085
185.900000 -1.645455
185.950000 -1.693417
186.000000 -1.713973
186.050000 -1.734528
186.100000 -1.744806
186.150000 -1.710547
186.200000 -1.652307
186.250000 -1.618048
186.300000 -1.570085
186.350000 -1.494716
186.400000 -1.450179
186.450000 -1.457031
186.500000 -1.498141
186.550000 -1.570085
186.600000 -1.693417
186.650000 -1.847583
186.700000 -2.022303
186.750000 -2.214153
186.800000 -2.361466
186.850000 -2.450539
186.900000 -2.515631
186.950000 -2.532760
187.000000 -2.460817
187.050000 -2.337485
187.100000 -2.214153
187.150000 -2.056562
187.200000 -1.861286
187.250000 -1.700269
187.300000 -1.590641
187.350000 -1.491290
187.400000 -1.412494
187.450000 -1.391939
187.500000 -1.426198
187.550000 -1.470735
187.600000 -1.542679
187.650000 -1.642029
187.700000 -1.727676
187.750000 -1.782490
187.800000 -1.809898
187.850000 -1.827027
187.900000 -1.830453
187.950000 -1.823601
188.000000 -1.809898
188.050000 -1.772213
188.100000 -1.717399
188.150000 -1.669436
188.200000 -1.648881
188.250000 -1.628326
188.300000 -1.587215
188.350000 -1.556382
188.400000 -1.583789
188.450000 -1.635177
188.500000 -1.679714
188.550000 -1.748231
188.600000 -1.827027
188.650000 -1.888693
188.700000 -1.936656
188.750000 -1.994896
188.800000 -2.042859
188.850000 -2.059988
