time[ns] Raw_signal[mV]
-11.100000 0.067627
-11.050000 0.067628
-11.000000 0.067627
-10.950000 0.081331
-10.900000 0.115590
-10.850000 0.129294
-10.800000 0.115590
-10.750000 0.112164
-10.700000 0.115589
-10.650000 0.101886
-10.600000 0.081331
-10.550000 0.074479
-10.500000 0.043646
-10.450000 -0.021446
-10.400000 -0.076260
-10.350000 -0.127648
-10.300000 -0.220147
-10.250000 -0.305795
-10.200000 -0.336627
-10.150000 -0.350332
-10.100000 -0.381165
-10.050000 -0.408572
-10.000000 -0.384590
-9.950000 -0.346906
-9.900000 -0.305795
-9.850000 -0.230425
-9.800000 -0.137926
-9.750000 -0.062557
-9.700000 0.016239
-9.650000 0.098461
-9.600000 0.156700
-9.550000 0.190959
-9.500000 0.221792
-9.450000 0.235496
-9.400000 0.214940
-9.350000 0.197811
-9.300000 0.208089
-9.250000 0.197811
-9.200000 0.180682
-9.150000 0.170404
-9.100000 0.142997
-9.050000 0.098460
-9.000000 0.064201
-8.950000 0.043646
-8.900000 0.009387
-8.850000 -0.011168
-8.800000 -0.011168
-8.750000 -0.004316
-8.700000 0.019665
-8.650000 0.081331
-8.600000 0.153274
-8.550000 0.221792
-8.500000 0.297161
-8.450000 0.396513
-8.400000 0.482160
-8.350000 0.543826
-8.300000 0.584937
-8.250000 0.608918
-8.200000 0.581511
-8.150000 0.492438
-8.100000 0.375957
-8.050000 0.273181
-8.000000 0.177255
-7.950000 0.071053
-7.900000 -0.024872
-7.850000 -0.083112
-7.800000 -0.093390
-7.750000 -0.072834
-7.700000 -0.028298
-7.650000 0.047072
-7.600000 0.136145
-7.550000 0.232070
-7.500000 0.324569
-7.450000 0.396513
-7.400000 0.451327
-7.350000 0.499290
-7.300000 0.519844
-7.250000 0.489012
-7.200000 0.430772
-7.150000 0.358828
-7.100000 0.286884
-7.050000 0.238922
-7.000000 0.204663
-6.950000 0.163552
-6.900000 0.149849
-6.850000 0.166978
-6.800000 0.163552
-6.750000 0.139571
-6.700000 0.160127
-6.650000 0.208088
-6.600000 0.228644
-6.550000 0.228644
-6.500000 0.221793
-6.450000 0.190959
-6.400000 0.146423
-6.350000 0.105312
-6.300000 0.067627
-6.250000 0.029942
-6.200000 -0.007742
-6.150000 -0.048853
-6.100000 -0.076260
-6.050000 -0.072834
-6.000000 -0.083112
-5.950000 -0.096815
-5.900000 -0.083112
-5.850000 -0.069408
-5.800000 -0.089963
-5.750000 -0.093390
-5.700000 -0.065982
-5.650000 -0.055705
-5.600000 -0.059131
-5.550000 -0.076260
-5.500000 -0.110519
-5.450000 -0.158482
-5.400000 -0.189315
-5.350000 -0.216721
-5.300000 -0.216722
-5.250000 -0.182463
-5.200000 -0.155056
-5.150000 -0.141353
-5.100000 -0.103668
-5.050000 -0.059131
-5.000000 -0.021445
-4.950000 0.040220
-4.900000 0.136145
-4.850000 0.211514
-4.800000 0.256051
-4.750000 0.321143
-4.700000 0.355402
-4.650000 0.331421
-4.600000 0.273181
-4.550000 0.228644
-4.500000 0.194385
-4.450000 0.177256
-4.400000 0.166978
-4.350000 0.149849
-4.300000 0.142997
-4.250000 0.166978
-4.200000 0.211514
-4.150000 0.276606
-4.100000 0.365680
-4.050000 0.444475
-4.000000 0.512993
-3.950000 0.581511
-3.900000 0.650029
-3.850000 0.704843
-3.800000 0.749379
-3.750000 0.773360
-3.700000 0.752805
-3.650000 0.718546
-3.600000 0.677435
-3.550000 0.629474
-3.500000 0.574659
-3.450000 0.519845
-3.400000 0.451327
-3.350000 0.410217
-3.300000 0.399939
-3.250000 0.304013
-3.200000 0.108738
-3.150000 0.029942
-3.100000 0.091608
-3.050000 0.036794
-3.000000 -0.113945
-2.950000 -0.096815
-2.900000 0.002536
-2.850000 -0.059131
-2.800000 -0.141352
-2.750000 -0.107094
-2.700000 -0.134500
-2.650000 -0.155056
-2.600000 0.043646
-2.550000 0.218366
-2.500000 0.146423
-2.450000 0.187534
-2.400000 0.427346
-2.350000 0.468456
-2.300000 0.351976
-2.250000 0.458178
-2.200000 0.564381
-2.150000 0.413642
-2.100000 0.348550
-2.050000 0.512993
-2.000000 0.519844
-1.950000 0.280032
-1.900000 0.156701
-1.850000 0.225218
-1.800000 0.310866
-1.750000 0.375958
-1.700000 0.372532
-1.650000 0.262903
-1.600000 0.218367
-1.550000 0.269755
-1.500000 0.208089
-1.450000 0.101886
-1.400000 0.190959
-1.350000 0.338273
-1.300000 0.310865
-1.250000 0.252625
-1.200000 0.280032
-1.150000 0.256051
-1.100000 0.286884
-1.050000 0.478734
-1.000000 0.495864
-0.950000 0.225218
-0.900000 0.119015
-0.850000 0.266329
-0.800000 0.235496
-0.750000 0.060776
-0.700000 0.081330
-0.650000 0.122441
-0.600000 -0.031724
-0.550000 -0.127649
-0.500000 -0.059131
-0.450000 -0.083112
-0.400000 -0.179037
-0.350000 -0.151630
-0.300000 -0.069408
-0.250000 -0.076260
-0.200000 -0.107093
-0.150000 -0.120797
-0.100000 -0.148204
-0.050000 -0.182462
0.000000 -0.185889
0.050000 -0.155055
0.100000 -0.127648
0.150000 -0.168759
0.200000 -0.247555
0.250000 -0.189315
0.300000 -0.038576
0.350000 -0.045427
0.400000 -0.155056
0.450000 -0.076260
0.500000 0.129293
0.550000 0.214941
0.600000 0.252625
0.650000 0.362254
0.700000 0.413642
0.750000 0.369106
0.800000 0.410217
0.850000 0.564381
0.900000 0.721972
0.950000 0.944655
1.000000 1.338632
1.050000 1.886775
1.100000 2.589082
1.150000 3.579164
1.200000 4.884428
1.250000 6.463764
1.300000 8.313744
1.350000 10.472051
1.400000 12.866753
1.450000 15.347096
1.500000 17.841149
1.550000 20.390007
1.600000 22.990257
1.650000 25.539116
1.700000 27.944098
1.750000 30.266844
1.800000 32.517656
1.850000 34.556067
1.900000 36.358083
1.950000 38.040193
2.000000 39.595543
2.050000 40.893953
2.100000 41.894323
2.150000 42.641163
2.200000 43.117363
2.250000 43.264673
2.300000 43.038563
2.350000 42.445893
2.400000 41.527743
2.450000 40.349243
2.500000 38.893233
2.550000 37.200843
2.600000 35.350873
2.650000 33.346723
2.700000 31.198693
2.750000 29.026683
2.800000 26.899193
2.850000 24.734040
2.900000 22.548320
2.950000 20.516763
3.000000 18.683914
3.050000 16.964117
3.100000 15.470429
3.150000 14.322755
3.200000 13.445728
3.250000 12.781105
3.300000 12.441945
3.350000 12.421390
3.400000 12.558425
3.450000 12.842766
3.500000 13.325825
3.550000 13.932207
3.600000 14.552290
3.650000 15.151820
3.700000 15.703386
3.750000 16.172737
3.800000 16.559863
3.850000 16.871620
3.900000 17.090875
3.950000 17.203925
4.000000 17.227911
4.050000 17.186801
4.100000 17.080602
4.150000 16.902450
4.200000 16.611247
4.250000 16.220699
4.300000 15.741075
4.350000 15.138118
4.400000 14.408403
4.450000 13.623874
4.500000 12.798235
4.550000 11.869818
4.600000 10.869459
4.650000 9.889654
4.700000 8.930405
4.750000 7.984860
4.800000 7.121534
4.850000 6.402097
4.900000 5.805993
4.950000 5.309239
5.000000 4.942668
5.050000 4.719986
5.100000 4.606932
5.150000 4.593228
5.200000 4.702856
5.250000 4.928965
5.300000 5.213314
5.350000 5.521644
5.400000 5.877936
5.450000 6.282192
5.500000 6.655614
5.550000 6.977648
5.600000 7.296255
5.650000 7.594307
5.700000 7.816990
5.750000 7.967730
5.800000 8.039673
5.850000 8.001988
5.900000 7.906063
5.950000 7.796435
6.000000 7.625140
6.050000 7.395606
6.100000 7.166072
6.150000 6.926259
6.200000 6.648762
6.250000 6.357561
6.300000 6.066360
6.350000 5.737475
6.400000 5.401738
6.450000 5.096834
6.500000 4.778226
6.550000 4.439063
6.600000 4.127307
6.650000 3.846384
6.700000 3.555183
6.750000 3.274261
6.800000 3.037874
6.850000 2.832320
6.900000 2.654174
6.950000 2.503435
7.000000 2.417787
7.050000 2.386954
7.100000 2.390381
7.150000 2.407510
7.200000 2.472602
7.250000 2.565101
7.300000 2.654174
7.350000 2.770655
7.400000 2.897413
7.450000 2.962504
7.500000 2.979634
7.550000 3.000189
7.600000 2.986486
7.650000 2.893986
7.700000 2.798062
7.750000 2.726118
7.800000 2.650748
7.850000 2.575379
7.900000 2.506861
7.950000 2.438343
8.000000 2.390380
8.050000 2.393806
8.100000 2.397232
8.150000 2.342418
8.200000 2.270474
8.250000 2.208809
8.300000 2.116310
8.350000 1.989551
8.400000 1.838813
8.450000 1.664092
8.500000 1.461964
8.550000 1.276967
8.600000 1.088542
8.650000 0.900119
8.700000 0.718546
8.750000 0.564381
8.800000 0.434198
8.850000 0.338272
8.900000 0.252625
8.950000 0.156700
9.000000 0.108738
9.050000 0.122442
9.100000 0.132719
9.150000 0.119016
9.200000 0.139570
9.250000 0.197811
9.300000 0.252625
9.350000 0.314291
9.400000 0.382809
9.450000 0.406791
9.500000 0.423920
9.550000 0.502716
9.600000 0.602066
9.650000 0.656881
9.700000 0.725398
9.750000 0.821323
9.800000 0.896692
9.850000 0.951507
9.900000 1.009747
9.950000 1.037154
10.000000 1.023450
10.050000 1.009747
10.100000 0.992618
10.150000 0.961784
10.200000 0.920674
10.250000 0.872712
10.300000 0.821323
10.350000 0.776786
10.400000 0.704843
10.450000 0.581511
10.500000 0.458179
10.550000 0.355402
10.600000 0.238922
10.650000 0.108738
10.700000 -0.014594
10.750000 -0.144778
10.800000 -0.264685
10.850000 -0.319499
10.900000 -0.329776
10.950000 -0.316072
11.000000 -0.264684
11.050000 -0.192740
11.100000 -0.110519
11.150000 0.009387
11.200000 0.132719
11.250000 0.190959
11.300000 0.259477
11.350000 0.362254
11.400000 0.423920
11.450000 0.451327
11.500000 0.509567
11.550000 0.554104
11.600000 0.543826
11.650000 0.554104
11.700000 0.595214
11.750000 0.605492
11.800000 0.588362
11.850000 0.584937
11.900000 0.574659
11.950000 0.526697
12.000000 0.471882
12.050000 0.410216
12.100000 0.334847
12.150000 0.249200
12.200000 0.156700
12.250000 0.067627
12.300000 0.005961
12.350000 -0.028297
12.400000 -0.072835
12.450000 -0.117371
12.500000 -0.158482
12.550000 -0.203018
12.600000 -0.237277
12.650000 -0.230425
12.700000 -0.213296
12.750000 -0.196166
12.800000 -0.155056
12.850000 -0.072835
12.900000 -0.004316
12.950000 0.043646
13.000000 0.098460
13.050000 0.166978
13.100000 0.214941
13.150000 0.249199
13.200000 0.286884
13.250000 0.297162
13.300000 0.269755
13.350000 0.235496
13.400000 0.221792
13.450000 0.232070
13.500000 0.259477
13.550000 0.283459
13.600000 0.283459
13.650000 0.269754
13.700000 0.256051
13.750000 0.228644
13.800000 0.187534
13.850000 0.129293
13.900000 0.036794
13.950000 -0.089963
14.000000 -0.199592
14.050000 -0.298943
14.100000 -0.425701
14.150000 -0.531904
14.200000 -0.576440
14.250000 -0.627829
14.300000 -0.706624
14.350000 -0.734031
14.400000 -0.713476
14.450000 -0.747735
14.500000 -0.823104
14.550000 -0.867641
14.600000 -0.898474
14.650000 -0.932733
14.700000 -0.936159
14.750000 -0.919030
14.800000 -0.898474
14.850000 -0.819679
14.900000 -0.686069
14.950000 -0.569588
15.000000 -0.473663
15.050000 -0.343480
15.100000 -0.216722
15.150000 -0.155056
15.200000 -0.100242
15.250000 -0.048853
15.300000 -0.065983
15.350000 -0.144778
15.400000 -0.223573
15.450000 -0.305795
15.500000 -0.408572
15.550000 -0.480516
15.600000 -0.504497
15.650000 -0.528477
15.700000 -0.549033
15.750000 -0.562736
15.800000 -0.607273
15.850000 -0.679217
15.900000 -0.751161
15.950000 -0.840234
16.000000 -0.960140
16.050000 -1.097175
16.100000 -1.227359
16.150000 -1.357543
16.200000 -1.432913
16.250000 -1.439765
16.300000 -1.402080
16.350000 -1.340414
16.400000 -1.234211
16.450000 -1.083472
16.500000 -0.915604
16.550000 -0.761438
16.600000 -0.627828
16.650000 -0.518200
16.700000 -0.422275
16.750000 -0.360609
16.800000 -0.346905
16.850000 -0.343479
16.900000 -0.340054
16.950000 -0.340054
17.000000 -0.353757
17.050000 -0.343480
17.100000 -0.340054
17.150000 -0.340054
17.200000 -0.316073
17.250000 -0.274962
17.300000 -0.271535
17.350000 -0.288666
17.400000 -0.281814
17.450000 -0.250980
17.500000 -0.247555
17.550000 -0.285240
17.600000 -0.346906
17.650000 -0.411997
17.700000 -0.466812
17.750000 -0.531903
17.800000 -0.627828
17.850000 -0.764864
17.900000 -0.912177
17.950000 -1.056065
18.000000 -1.189674
18.050000 -1.309581
18.100000 -1.381524
18.150000 -1.374673
18.200000 -1.302729
18.250000 -1.199952
18.300000 -1.062916
18.350000 -0.912177
18.400000 -0.768290
18.450000 -0.655236
18.500000 -0.579866
18.550000 -0.559311
18.600000 -0.593569
18.650000 -0.648384
18.700000 -0.723753
18.750000 -0.833381
18.800000 -0.949863
18.850000 -1.028657
18.900000 -1.086898
18.950000 -1.131434
19.000000 -1.128009
19.050000 -1.049213
19.100000 -0.953288
19.150000 -0.840234
19.200000 -0.682642
19.250000 -0.535329
19.300000 -0.442830
19.350000 -0.364035
19.400000 -0.305795
19.450000 -0.333202
19.500000 -0.442831
19.550000 -0.576440
19.600000 -0.723754
19.650000 -0.881344
19.700000 -1.028658
19.750000 -1.158842
19.800000 -1.268470
19.850000 -1.316433
19.900000 -1.302729
19.950000 -1.247915
20.000000 -1.138286
20.050000 -0.977269
20.100000 -0.812826
20.150000 -0.651809
20.200000 -0.480515
20.250000 -0.329776
20.300000 -0.261259
20.350000 -0.257833
20.400000 -0.271535
20.450000 -0.326350
20.500000 -0.435978
20.550000 -0.583292
20.600000 -0.720327
20.650000 -0.847086
20.700000 -0.966992
20.750000 -1.073194
20.800000 -1.138286
20.850000 -1.182823
20.900000 -1.230785
20.950000 -1.265044
21.000000 -1.271896
21.050000 -1.275322
21.100000 -1.278748
21.150000 -1.285600
21.200000 -1.292452
21.250000 -1.299303
21.300000 -1.299303
21.350000 -1.271895
21.400000 -1.217082
21.450000 -1.158841
21.500000 -1.093749
21.550000 -1.004676
21.600000 -0.905325
21.650000 -0.816252
21.700000 -0.751160
21.750000 -0.703198
21.800000 -0.692921
21.850000 -0.706624
21.900000 -0.740883
21.950000 -0.812826
22.000000 -0.922455
22.050000 -1.032084
22.100000 -1.128009
22.150000 -1.213656
22.200000 -1.265044
22.250000 -1.254767
22.300000 -1.206804
22.350000 -1.134860
22.400000 -1.021806
22.450000 -0.901899
22.500000 -0.802549
22.550000 -0.713476
22.600000 -0.627828
22.650000 -0.583292
22.700000 -0.596996
22.750000 -0.624402
22.800000 -0.658661
22.850000 -0.727179
22.900000 -0.805975
22.950000 -0.867641
23.000000 -0.922455
23.050000 -0.960140
23.100000 -0.980695
23.150000 -1.011528
23.200000 -1.062916
23.250000 -1.097176
23.300000 -1.117731
23.350000 -1.169119
23.400000 -1.217082
23.450000 -1.237637
23.500000 -1.261618
23.550000 -1.302728
23.600000 -1.295877
23.650000 -1.234212
23.700000 -1.158842
23.750000 -1.069768
23.800000 -0.925881
23.850000 -0.758013
23.900000 -0.614125
23.950000 -0.480515
24.000000 -0.353757
24.050000 -0.261259
24.100000 -0.209870
24.150000 -0.179037
24.200000 -0.172185
24.250000 -0.192741
24.300000 -0.209870
24.350000 -0.220148
24.400000 -0.261258
24.450000 -0.322924
24.500000 -0.357183
24.550000 -0.391442
24.600000 -0.456534
24.650000 -0.528478
24.700000 -0.617550
24.750000 -0.754586
24.800000 -0.908752
24.850000 -1.028657
24.900000 -1.141712
24.950000 -1.299303
25.000000 -1.446616
25.050000 -1.542541
25.100000 -1.614485
25.150000 -1.659021
25.200000 -1.635041
25.250000 -1.573374
25.300000 -1.508282
25.350000 -1.432912
25.400000 -1.326710
25.450000 -1.217081
25.500000 -1.131434
25.550000 -1.042361
25.600000 -0.943011
25.650000 -0.857363
25.700000 -0.809401
25.750000 -0.768290
25.800000 -0.699772
25.850000 -0.634680
25.900000 -0.576441
25.950000 -0.501070
26.000000 -0.425701
26.050000 -0.388016
26.100000 -0.374312
26.150000 -0.367461
26.200000 -0.384590
26.250000 -0.435979
26.300000 -0.483941
26.350000 -0.535330
26.400000 -0.607274
26.450000 -0.672365
26.500000 -0.710050
26.550000 -0.751161
26.600000 -0.799123
26.650000 -0.802549
26.700000 -0.788846
26.750000 -0.816252
26.800000 -0.864215
26.850000 -0.888197
26.900000 -0.936158
26.950000 -1.025232
27.000000 -1.097175
27.050000 -1.134860
27.100000 -1.179396
27.150000 -1.217081
27.200000 -1.189674
27.250000 -1.110879
27.300000 -1.038936
27.350000 -0.960139
27.400000 -0.850511
27.450000 -0.744309
27.500000 -0.672365
27.550000 -0.617551
27.600000 -0.566162
27.650000 -0.545607
27.700000 -0.552459
27.750000 -0.569588
27.800000 -0.603847
27.850000 -0.655236
27.900000 -0.692920
27.950000 -0.723754
28.000000 -0.758013
28.050000 -0.788846
28.100000 -0.802549
28.150000 -0.809401
28.200000 -0.809401
28.250000 -0.792271
28.300000 -0.778568
28.350000 -0.785420
28.400000 -0.795697
28.450000 -0.771716
28.500000 -0.734031
28.550000 -0.710050
28.600000 -0.689495
28.650000 -0.638107
28.700000 -0.590143
28.750000 -0.573014
28.800000 -0.549033
28.850000 -0.507922
28.900000 -0.477089
28.950000 -0.463386
29.000000 -0.446256
29.050000 -0.439405
29.100000 -0.456534
29.150000 -0.494219
29.200000 -0.538755
29.250000 -0.583292
29.300000 -0.620977
29.350000 -0.665513
29.400000 -0.713476
29.450000 -0.740883
29.500000 -0.747735
29.550000 -0.730605
29.600000 -0.727179
29.650000 -0.730605
29.700000 -0.716902
29.750000 -0.706624
29.800000 -0.730606
29.850000 -0.771716
29.900000 -0.805975
29.950000 -0.853937
30.000000 -0.946436
30.050000 -1.038936
30.100000 -1.128009
30.150000 -1.244488
30.200000 -1.354117
30.250000 -1.405506
30.300000 -1.432912
30.350000 -1.446616
30.400000 -1.426061
30.450000 -1.381524
30.500000 -1.357543
30.550000 -1.313006
30.600000 -1.234211
30.650000 -1.179397
30.700000 -1.151989
30.750000 -1.128008
30.800000 -1.114305
30.850000 -1.110879
30.900000 -1.114305
30.950000 -1.128008
31.000000 -1.138286
31.050000 -1.145138
31.100000 -1.165693
31.150000 -1.210230
31.200000 -1.237637
31.250000 -1.244488
31.300000 -1.237637
31.350000 -1.223933
31.400000 -1.189675
31.450000 -1.134860
31.500000 -1.066343
31.550000 -1.035510
31.600000 -1.018380
31.650000 -0.973844
31.700000 -0.936159
31.750000 -0.953288
31.800000 -0.987547
31.850000 -1.008103
31.900000 -1.014954
31.950000 -1.025232
32.000000 -1.035509
32.050000 -1.042361
32.100000 -1.052639
32.150000 -1.052639
32.200000 -1.062917
32.250000 -1.066342
32.300000 -1.049213
32.350000 -1.028658
32.400000 -1.018380
32.450000 -0.980696
32.500000 -0.922455
32.550000 -0.884770
32.600000 -0.884770
32.650000 -0.857363
32.700000 -0.805975
32.750000 -0.785420
32.800000 -0.781993
32.850000 -0.768290
32.900000 -0.751160
32.950000 -0.758012
33.000000 -0.785419
33.050000 -0.823105
33.100000 -0.860789
33.150000 -0.905325
33.200000 -0.960140
33.250000 -0.994399
33.300000 -1.011528
33.350000 -1.035509
33.400000 -1.066342
33.450000 -1.062917
33.500000 -1.042361
33.550000 -1.028657
33.600000 -0.973843
33.650000 -0.867641
33.700000 -0.795697
33.750000 -0.778568
33.800000 -0.744308
33.850000 -0.710050
33.900000 -0.737457
33.950000 -0.788845
34.000000 -0.829956
34.050000 -0.901900
34.100000 -0.990973
34.150000 -1.056065
34.200000 -1.104027
34.250000 -1.148564
34.300000 -1.151989
34.350000 -1.158841
34.400000 -1.196526
34.450000 -1.213655
34.500000 -1.217081
34.550000 -1.254767
34.600000 -1.306155
34.650000 -1.306155
34.700000 -1.309580
34.750000 -1.354118
34.800000 -1.381525
34.850000 -1.378098
34.900000 -1.374673
34.950000 -1.343840
35.000000 -1.285600
35.050000 -1.223934
35.100000 -1.145138
35.150000 -1.042362
35.200000 -0.960140
35.250000 -0.919029
35.300000 -0.888196
35.350000 -0.860789
35.400000 -0.833382
35.450000 -0.816252
35.500000 -0.819678
35.550000 -0.816253
35.600000 -0.781994
35.650000 -0.775142
35.700000 -0.819678
35.750000 -0.853938
35.800000 -0.864215
35.850000 -0.898473
35.900000 -0.936159
35.950000 -0.949862
36.000000 -0.960140
36.050000 -0.984121
36.100000 -0.970418
36.150000 -0.932733
36.200000 -0.929307
36.250000 -0.946436
36.300000 -0.949862
36.350000 -0.963566
36.400000 -0.997825
36.450000 -1.035510
36.500000 -1.080046
36.550000 -1.138286
36.600000 -1.206804
36.650000 -1.278748
36.700000 -1.313006
36.750000 -1.302729
36.800000 -1.271896
36.850000 -1.220508
36.900000 -1.131434
36.950000 -1.032084
37.000000 -0.966991
37.050000 -0.922455
37.100000 -0.898474
37.150000 -0.932733
37.200000 -0.997825
37.250000 -1.069768
37.300000 -1.169119
37.350000 -1.309581
37.400000 -1.467172
37.450000 -1.600781
37.500000 -1.700132
37.550000 -1.765224
37.600000 -1.799483
37.650000 -1.785779
37.700000 -1.724113
37.750000 -1.631614
37.800000 -1.539115
37.850000 -1.463746
37.900000 -1.384950
37.950000 -1.302729
38.000000 -1.251340
38.050000 -1.241063
38.100000 -1.258193
38.150000 -1.282173
38.200000 -1.295877
38.250000 -1.306155
38.300000 -1.340414
38.350000 -1.354117
38.400000 -1.309581
38.450000 -1.237636
38.500000 -1.182823
38.550000 -1.124583
38.600000 -1.045787
38.650000 -0.984121
38.700000 -0.929307
38.750000 -0.881345
38.800000 -0.874493
38.850000 -0.901899
38.900000 -0.919030
38.950000 -0.956714
39.000000 -1.045787
39.050000 -1.128008
39.100000 -1.186249
39.150000 -1.234211
39.200000 -1.261618
39.250000 -1.268470
39.300000 -1.285599
39.350000 -1.285600
39.400000 -1.258192
39.450000 -1.271896
39.500000 -1.330136
39.550000 -1.354118
39.600000 -1.367821
39.650000 -1.426060
39.700000 -1.467172
39.750000 -1.470597
39.800000 -1.491153
39.850000 -1.508282
39.900000 -1.487727
39.950000 -1.477449
40.000000 -1.474023
40.050000 -1.422635
40.100000 -1.371246
40.150000 -1.326710
40.200000 -1.227359
40.250000 -1.097175
40.300000 -1.004676
40.350000 -0.919029
40.400000 -0.809400
40.450000 -0.716901
40.500000 -0.672365
40.550000 -0.651810
40.600000 -0.662087
40.650000 -0.737457
40.700000 -0.850512
40.750000 -0.990973
40.800000 -1.145138
40.850000 -1.292452
40.900000 -1.429487
40.950000 -1.559671
41.000000 -1.635040
41.050000 -1.600781
41.100000 -1.542542
41.150000 -1.498005
41.200000 -1.415783
41.250000 -1.295877
41.300000 -1.206804
41.350000 -1.145138
41.400000 -1.107453
41.450000 -1.121157
41.500000 -1.172545
41.550000 -1.220507
41.600000 -1.292451
41.650000 -1.408931
41.700000 -1.498005
41.750000 -1.521986
41.800000 -1.501431
41.850000 -1.456894
41.900000 -1.388376
41.950000 -1.299303
42.000000 -1.182823
42.050000 -1.052639
42.100000 -0.949862
42.150000 -0.874493
42.200000 -0.805974
42.250000 -0.768290
42.300000 -0.747735
42.350000 -0.754587
42.400000 -0.819678
42.450000 -0.915604
42.500000 -0.987546
42.550000 -1.025232
42.600000 -1.062916
42.650000 -1.073194
42.700000 -1.066342
42.750000 -1.090323
42.800000 -1.117731
42.850000 -1.090323
42.900000 -1.080045
42.950000 -1.110879
43.000000 -1.114305
43.050000 -1.083472
43.100000 -1.062917
43.150000 -1.049213
43.200000 -1.025232
43.250000 -0.987547
43.300000 -0.943011
43.350000 -0.898474
43.400000 -0.905325
43.450000 -0.929307
43.500000 -0.939585
43.550000 -0.970418
43.600000 -1.045787
43.650000 -1.134860
43.700000 -1.223933
43.750000 -1.330136
43.800000 -1.422634
43.850000 -1.477450
43.900000 -1.511708
43.950000 -1.535689
44.000000 -1.552819
44.050000 -1.542541
44.100000 -1.480875
44.150000 -1.402079
44.200000 -1.357543
44.250000 -1.309581
44.300000 -1.244488
44.350000 -1.203378
44.400000 -1.199952
44.450000 -1.217082
44.500000 -1.244489
44.550000 -1.278747
44.600000 -1.299303
44.650000 -1.313007
44.700000 -1.333562
44.750000 -1.343839
44.800000 -1.326711
44.850000 -1.316432
44.900000 -1.319858
44.950000 -1.309581
45.000000 -1.271896
45.050000 -1.237637
45.100000 -1.217082
45.150000 -1.189674
45.200000 -1.145138
45.250000 -1.086898
45.300000 -1.028658
45.350000 -0.990972
45.400000 -0.953288
45.450000 -0.922455
45.500000 -0.915603
45.550000 -0.901899
45.600000 -0.864215
45.650000 -0.840234
45.700000 -0.860789
45.750000 -0.888196
45.800000 -0.905326
45.850000 -0.901900
45.900000 -0.912178
45.950000 -0.953288
46.000000 -0.997824
46.050000 -1.021805
46.100000 -1.059491
46.150000 -1.145138
46.200000 -1.217081
46.250000 -1.247915
46.300000 -1.309581
46.350000 -1.395228
46.400000 -1.415784
46.450000 -1.381524
46.500000 -1.374673
46.550000 -1.326710
46.600000 -1.206804
46.650000 -1.076620
46.700000 -0.956714
46.750000 -0.819679
46.800000 -0.713476
46.850000 -0.665513
46.900000 -0.634680
46.950000 -0.641532
47.000000 -0.703198
47.050000 -0.781993
47.100000 -0.860789
47.150000 -0.949862
47.200000 -1.018380
47.250000 -1.032083
47.300000 -1.008102
47.350000 -0.932733
47.400000 -0.812826
47.450000 -0.699772
47.500000 -0.590143
47.550000 -0.459960
47.600000 -0.360610
47.650000 -0.333202
47.700000 -0.336628
47.750000 -0.367461
47.800000 -0.449682
47.850000 -0.579866
47.900000 -0.734031
47.950000 -0.905326
48.000000 -1.066342
48.050000 -1.196526
48.100000 -1.313006
48.150000 -1.391802
48.200000 -1.402079
48.250000 -1.378098
48.300000 -1.343839
48.350000 -1.278747
48.400000 -1.199952
48.450000 -1.158841
48.500000 -1.128009
48.550000 -1.069769
48.600000 -1.021806
48.650000 -1.008102
48.700000 -1.008102
48.750000 -1.021806
48.800000 -1.062917
48.850000 -1.104027
48.900000 -1.151990
48.950000 -1.230785
49.000000 -1.306154
49.050000 -1.367820
49.100000 -1.453468
49.150000 -1.545967
49.200000 -1.597355
49.250000 -1.638466
49.300000 -1.679577
49.350000 -1.679577
49.400000 -1.631615
49.450000 -1.566522
49.500000 -1.494578
49.550000 -1.408932
49.600000 -1.313006
49.650000 -1.210230
49.700000 -1.100602
49.750000 -1.018380
49.800000 -0.956714
49.850000 -0.884770
49.900000 -0.823104
49.950000 -0.809401
50.000000 -0.819678
50.050000 -0.840233
50.100000 -0.901900
50.150000 -0.960140
50.200000 -0.997824
50.250000 -1.062916
50.300000 -1.131435
50.350000 -1.141712
50.400000 -1.117731
50.450000 -1.093749
50.500000 -1.018380
50.550000 -0.915604
50.600000 -0.829956
50.650000 -0.754587
50.700000 -0.675791
50.750000 -0.658661
50.800000 -0.689495
50.850000 -0.706624
50.900000 -0.758012
50.950000 -0.871067
51.000000 -0.990973
51.050000 -1.083471
51.100000 -1.179397
51.150000 -1.278748
51.200000 -1.340413
51.250000 -1.374672
51.300000 -1.408931
51.350000 -1.426061
51.400000 -1.405506
51.450000 -1.357543
51.500000 -1.302729
51.550000 -1.244488
51.600000 -1.169119
51.650000 -1.086898
51.700000 -1.011528
51.750000 -0.956714
51.800000 -0.919029
51.850000 -0.908751
51.900000 -0.905326
51.950000 -0.919029
52.000000 -0.966991
52.050000 -1.056065
52.100000 -1.172545
52.150000 -1.285599
52.200000 -1.367820
52.250000 -1.432913
52.300000 -1.515134
52.350000 -1.583652
52.400000 -1.590503
52.450000 -1.556245
52.500000 -1.532263
52.550000 -1.535690
52.600000 -1.552819
52.650000 -1.559671
52.700000 -1.556244
52.750000 -1.573374
52.800000 -1.621337
52.850000 -1.641892
52.900000 -1.635040
52.950000 -1.624763
53.000000 -1.611059
53.050000 -1.559671
53.100000 -1.508282
53.150000 -1.474023
53.200000 -1.419209
53.250000 -1.330136
53.300000 -1.258193
53.350000 -1.223933
53.400000 -1.196526
53.450000 -1.186248
53.500000 -1.227360
53.550000 -1.316432
53.600000 -1.395228
53.650000 -1.460320
53.700000 -1.521986
53.750000 -1.573374
53.800000 -1.604207
53.850000 -1.617911
53.900000 -1.624762
53.950000 -1.611059
54.000000 -1.566523
54.050000 -1.511708
54.100000 -1.439765
54.150000 -1.364395
54.200000 -1.289026
54.250000 -1.230785
54.300000 -1.210230
54.350000 -1.213655
54.400000 -1.213656
54.450000 -1.237637
54.500000 -1.302729
54.550000 -1.367820
54.600000 -1.381524
54.650000 -1.398654
54.700000 -1.436339
54.750000 -1.474023
54.800000 -1.477449
54.850000 -1.460320
54.900000 -1.432912
54.950000 -1.398653
55.000000 -1.350691
55.050000 -1.285599
55.100000 -1.213656
55.150000 -1.141712
55.200000 -1.073194
55.250000 -1.004676
55.300000 -0.963566
55.350000 -0.953288
55.400000 -0.939584
55.450000 -0.912177
55.500000 -0.922456
55.550000 -0.960140
55.600000 -0.987547
55.650000 -1.021805
55.700000 -1.086897
55.750000 -1.131434
55.800000 -1.138286
55.850000 -1.151990
55.900000 -1.169119
55.950000 -1.141712
56.000000 -1.107453
56.050000 -1.083472
56.100000 -1.038935
56.150000 -0.980695
56.200000 -0.943011
56.250000 -0.898474
56.300000 -0.823104
56.350000 -0.764864
56.400000 -0.747734
56.450000 -0.723754
56.500000 -0.689495
56.550000 -0.703198
56.600000 -0.758012
56.650000 -0.788845
56.700000 -0.829956
56.750000 -0.912178
56.800000 -0.980696
56.850000 -0.994398
56.900000 -1.014954
56.950000 -1.056065
57.000000 -1.049213
57.050000 -0.994399
57.100000 -0.956714
57.150000 -0.936158
57.200000 -0.908752
57.250000 -0.898474
57.300000 -0.925881
57.350000 -0.966991
57.400000 -1.028658
57.450000 -1.134860
57.500000 -1.254766
57.550000 -1.340413
57.600000 -1.426061
57.650000 -1.518560
57.700000 -1.593929
57.750000 -1.611059
57.800000 -1.583652
57.850000 -1.498005
57.900000 -1.381525
57.950000 -1.265044
58.000000 -1.131435
58.050000 -0.966992
58.100000 -0.802549
58.150000 -0.696346
58.200000 -0.634680
58.250000 -0.593569
58.300000 -0.600422
58.350000 -0.668939
58.400000 -0.785420
58.450000 -0.922455
58.500000 -1.066342
58.550000 -1.193100
58.600000 -1.306155
58.650000 -1.422635
58.700000 -1.525411
58.750000 -1.583652
58.800000 -1.597356
58.850000 -1.600782
58.900000 -1.607633
58.950000 -1.604207
59.000000 -1.587078
59.050000 -1.583652
59.100000 -1.614484
59.150000 -1.679577
59.200000 -1.775502
59.250000 -1.891981
59.300000 -2.008462
59.350000 -2.087257
59.400000 -2.114665
59.450000 -2.118090
59.500000 -2.090684
59.550000 -2.001610
59.600000 -1.878278
59.650000 -1.737817
59.700000 -1.552819
59.750000 -1.323284
59.800000 -1.107453
59.850000 -0.963566
59.900000 -0.853937
59.950000 -0.768290
60.000000 -0.737457
60.050000 -0.758013
60.100000 -0.799123
60.150000 -0.860789
60.200000 -0.956714
60.250000 -1.035510
60.300000 -1.049213
60.350000 -1.059491
60.400000 -1.073195
60.450000 -1.032084
60.500000 -0.953288
60.550000 -0.874493
60.600000 -0.785419
60.650000 -0.686069
60.700000 -0.610699
60.750000 -0.535330
60.800000 -0.446256
60.850000 -0.401720
60.900000 -0.401720
60.950000 -0.384590
61.000000 -0.367461
61.050000 -0.377739
61.100000 -0.374313
61.150000 -0.353757
61.200000 -0.377738
61.250000 -0.432553
61.300000 -0.483941
61.350000 -0.562737
61.400000 -0.655236
61.450000 -0.720327
61.500000 -0.775141
61.550000 -0.877918
61.600000 -0.970418
61.650000 -1.008103
61.700000 -1.018380
61.750000 -1.025232
61.800000 -0.977269
61.850000 -0.898474
61.900000 -0.836808
61.950000 -0.764864
62.000000 -0.658661
62.050000 -0.569589
62.100000 -0.501071
62.150000 -0.425701
62.200000 -0.367461
62.250000 -0.333202
62.300000 -0.316072
62.350000 -0.340053
62.400000 -0.415423
62.450000 -0.490793
62.500000 -0.552459
62.550000 -0.655236
62.600000 -0.778568
62.650000 -0.871066
62.700000 -0.963565
62.750000 -1.059491
62.800000 -1.124583
62.850000 -1.162267
62.900000 -1.172545
62.950000 -1.145138
63.000000 -1.083471
63.050000 -1.018380
63.100000 -0.925881
63.150000 -0.812826
63.200000 -0.730606
63.250000 -0.682642
63.300000 -0.662088
63.350000 -0.706624
63.400000 -0.788846
63.450000 -0.871067
63.500000 -0.980696
63.550000 -1.114305
63.600000 -1.199952
63.650000 -1.247915
63.700000 -1.285600
63.750000 -1.282174
63.800000 -1.223934
63.850000 -1.169119
63.900000 -1.097175
63.950000 -1.004677
64.000000 -0.946436
64.050000 -0.939584
64.100000 -0.925881
64.150000 -0.908752
64.200000 -0.956714
64.250000 -1.028658
64.300000 -1.076620
64.350000 -1.128009
64.400000 -1.169119
64.450000 -1.165693
64.500000 -1.155416
64.550000 -1.151990
64.600000 -1.121156
64.650000 -1.066342
64.700000 -1.038935
64.750000 -1.014954
64.800000 -0.990973
64.850000 -1.008102
64.900000 -1.059491
64.950000 -1.086898
65.000000 -1.117731
65.050000 -1.158841
65.100000 -1.186249
65.150000 -1.175971
65.200000 -1.165693
65.250000 -1.138286
65.300000 -1.107453
65.350000 -1.090323
65.400000 -1.059490
65.450000 -1.021806
65.500000 -1.025232
65.550000 -1.049213
65.600000 -1.056064
65.650000 -1.052639
65.700000 -1.073194
65.750000 -1.086898
65.800000 -1.093749
65.850000 -1.093750
65.900000 -1.076620
65.950000 -1.025232
66.000000 -0.984121
66.050000 -0.966991
66.100000 -0.963566
66.150000 -0.966992
66.200000 -0.977269
66.250000 -0.990973
66.300000 -1.025232
66.350000 -1.073194
66.400000 -1.124583
66.450000 -1.186248
66.500000 -1.234211
66.550000 -1.261618
66.600000 -1.268470
66.650000 -1.244489
66.700000 -1.189674
66.750000 -1.134860
66.800000 -1.086897
66.850000 -1.032083
66.900000 -0.990973
66.950000 -0.956714
67.000000 -0.922455
67.050000 -0.912177
67.100000 -0.939585
67.150000 -0.987547
67.200000 -1.025232
67.250000 -1.069768
67.300000 -1.128008
67.350000 -1.158842
67.400000 -1.131434
67.450000 -1.076620
67.500000 -1.042361
67.550000 -0.984121
67.600000 -0.898474
67.650000 -0.816252
67.700000 -0.758013
67.750000 -0.692920
67.800000 -0.634680
67.850000 -0.614125
67.900000 -0.634680
67.950000 -0.692921
68.000000 -0.775142
68.050000 -0.847086
68.100000 -0.912178
68.150000 -0.994399
68.200000 -1.069769
68.250000 -1.107453
68.300000 -1.134860
68.350000 -1.158842
68.400000 -1.169119
68.450000 -1.158842
68.500000 -1.151990
68.550000 -1.141712
68.600000 -1.151989
68.650000 -1.179397
68.700000 -1.213656
68.750000 -1.241063
68.800000 -1.265044
68.850000 -1.289025
68.900000 -1.309580
68.950000 -1.316433
69.000000 -1.302729
69.050000 -1.282173
69.100000 -1.251341
69.150000 -1.203378
69.200000 -1.169119
69.250000 -1.162267
69.300000 -1.189674
69.350000 -1.223933
69.400000 -1.289026
69.450000 -1.388376
69.500000 -1.511708
69.550000 -1.617911
69.600000 -1.693280
69.650000 -1.727539
69.700000 -1.713835
69.750000 -1.638466
69.800000 -1.528837
69.850000 -1.398654
69.900000 -1.261618
69.950000 -1.114305
70.000000 -0.987547
70.050000 -0.925881
70.100000 -0.905325
70.150000 -0.871067
70.200000 -0.860789
70.250000 -0.908752
70.300000 -0.973843
70.350000 -1.018380
70.400000 -1.056064
70.450000 -1.107453
70.500000 -1.138286
70.550000 -1.148564
70.600000 -1.182822
70.650000 -1.227359
70.700000 -1.261619
70.750000 -1.292452
70.800000 -1.343840
70.850000 -1.402079
70.900000 -1.439765
70.950000 -1.470597
71.000000 -1.487727
71.050000 -1.470597
71.100000 -1.402079
71.150000 -1.316432
71.200000 -1.241063
71.250000 -1.169119
71.300000 -1.100602
71.350000 -1.018380
71.400000 -0.925881
71.450000 -0.857363
71.500000 -0.847086
71.550000 -0.877918
71.600000 -0.939585
71.650000 -1.014954
71.700000 -1.110879
71.750000 -1.220508
71.800000 -1.330136
71.850000 -1.419209
71.900000 -1.508282
71.950000 -1.587078
72.000000 -1.614485
72.050000 -1.590503
72.100000 -1.563096
72.150000 -1.525411
72.200000 -1.453468
72.250000 -1.347265
72.300000 -1.251341
72.350000 -1.186249
72.400000 -1.141712
72.450000 -1.097175
72.500000 -1.056065
72.550000 -1.052639
72.600000 -1.090324
72.650000 -1.134861
72.700000 -1.179397
72.750000 -1.241063
72.800000 -1.285599
72.850000 -1.309581
72.900000 -1.336987
72.950000 -1.343839
73.000000 -1.313006
73.050000 -1.282174
73.100000 -1.265044
73.150000 -1.213655
73.200000 -1.134860
73.250000 -1.076620
73.300000 -1.042361
73.350000 -1.001250
73.400000 -0.956714
73.450000 -0.919029
73.500000 -0.908751
73.550000 -0.956714
73.600000 -1.014955
73.650000 -1.038935
73.700000 -1.069768
73.750000 -1.128009
73.800000 -1.138286
73.850000 -1.117730
73.900000 -1.141712
73.950000 -1.186248
74.000000 -1.172545
74.050000 -1.134860
74.100000 -1.104027
74.150000 -1.059491
74.200000 -0.997825
74.250000 -0.929307
74.300000 -0.857363
74.350000 -0.788846
74.400000 -0.744309
74.450000 -0.727180
74.500000 -0.706624
74.550000 -0.689495
74.600000 -0.706623
74.650000 -0.747735
74.700000 -0.795698
74.750000 -0.850511
74.800000 -0.919029
74.850000 -0.994399
74.900000 -1.069768
74.950000 -1.151990
75.000000 -1.234211
75.050000 -1.306155
75.100000 -1.350691
75.150000 -1.378098
75.200000 -1.426061
75.250000 -1.456894
75.300000 -1.432913
75.350000 -1.408932
75.400000 -1.405506
75.450000 -1.371247
75.500000 -1.282174
75.550000 -1.210230
75.600000 -1.162268
75.650000 -1.100602
75.700000 -1.035509
75.750000 -1.004676
75.800000 -0.990973
75.850000 -0.980695
75.900000 -0.980696
75.950000 -0.997825
76.000000 -1.004676
76.050000 -1.001250
76.100000 -0.990973
76.150000 -0.980695
76.200000 -0.987547
76.250000 -1.001251
76.300000 -0.984121
76.350000 -0.970417
76.400000 -1.011528
76.450000 -1.076620
76.500000 -1.131434
76.550000 -1.227359
76.600000 -1.360969
76.650000 -1.463746
76.700000 -1.525412
76.750000 -1.590504
76.800000 -1.638466
76.850000 -1.607633
76.900000 -1.525411
76.950000 -1.429487
77.000000 -1.319858
77.050000 -1.182823
77.100000 -1.059490
77.150000 -0.949863
77.200000 -0.860789
77.250000 -0.802549
77.300000 -0.758012
77.350000 -0.713476
77.400000 -0.696347
77.450000 -0.727180
77.500000 -0.761438
77.550000 -0.771716
77.600000 -0.788845
77.650000 -0.829956
77.700000 -0.857364
77.750000 -0.877919
77.800000 -0.901899
77.850000 -0.908752
77.900000 -0.901899
77.950000 -0.884770
78.000000 -0.843659
78.050000 -0.795697
78.100000 -0.771716
78.150000 -0.751161
78.200000 -0.710050
78.250000 -0.689495
78.300000 -0.716901
78.350000 -0.768290
78.400000 -0.836807
78.450000 -0.939585
78.500000 -1.093749
78.550000 -1.258192
78.600000 -1.378098
78.650000 -1.467171
78.700000 -1.539115
78.750000 -1.559671
78.800000 -1.511708
78.850000 -1.422635
78.900000 -1.299303
78.950000 -1.121156
79.000000 -0.919030
79.050000 -0.720327
79.100000 -0.538756
79.150000 -0.384591
79.200000 -0.298943
79.250000 -0.254407
79.300000 -0.233851
79.350000 -0.261259
79.400000 -0.329776
79.450000 -0.408571
79.500000 -0.514774
79.550000 -0.638106
79.600000 -0.716901
79.650000 -0.775141
79.700000 -0.867641
79.750000 -0.932733
79.800000 -0.925881
79.850000 -0.898474
79.900000 -0.891622
79.950000 -0.853937
80.000000 -0.826530
80.050000 -0.850512
80.100000 -0.881345
80.150000 -0.901900
80.200000 -0.953288
80.250000 -1.014955
80.300000 -1.062917
80.350000 -1.117730
80.400000 -1.169119
80.450000 -1.189675
80.500000 -1.210230
80.550000 -1.247914
80.600000 -1.261618
80.650000 -1.234211
80.700000 -1.223934
80.750000 -1.227360
80.800000 -1.210229
80.850000 -1.186248
80.900000 -1.196526
80.950000 -1.196526
81.000000 -1.169119
81.050000 -1.134861
81.100000 -1.104027
81.150000 -1.059491
81.200000 -1.014954
81.250000 -0.970417
81.300000 -0.922455
81.350000 -0.881344
81.400000 -0.857364
81.450000 -0.864215
81.500000 -0.915603
81.550000 -0.966991
81.600000 -1.001250
81.650000 -1.035509
81.700000 -1.056065
81.750000 -1.011529
81.800000 -0.925881
81.850000 -0.833381
81.900000 -0.737457
81.950000 -0.627829
82.000000 -0.525052
82.050000 -0.432553
82.100000 -0.364035
82.150000 -0.340053
82.200000 -0.353757
82.250000 -0.405146
82.300000 -0.511349
82.350000 -0.638106
82.400000 -0.751161
82.450000 -0.867641
82.500000 -0.997825
82.550000 -1.083472
82.600000 -1.110879
82.650000 -1.114305
82.700000 -1.086897
82.750000 -1.004676
82.800000 -0.898474
82.850000 -0.775142
82.900000 -0.634681
82.950000 -0.483941
83.000000 -0.364035
83.050000 -0.261259
83.100000 -0.161907
83.150000 -0.096815
83.200000 -0.093390
83.250000 -0.134500
83.300000 -0.192740
83.350000 -0.261258
83.400000 -0.350331
83.450000 -0.446256
83.500000 -0.538755
83.550000 -0.631254
83.600000 -0.713476
83.650000 -0.764864
83.700000 -0.802549
83.750000 -0.836808
83.800000 -0.853937
83.850000 -0.874493
83.900000 -0.895048
83.950000 -0.898474
84.000000 -0.905326
84.050000 -0.925881
84.100000 -0.922455
84.150000 -0.905326
84.200000 -0.912177
84.250000 -0.932732
84.300000 -0.932733
84.350000 -0.936159
84.400000 -0.960140
84.450000 -0.963566
84.500000 -0.984121
84.550000 -1.025232
84.600000 -1.025232
84.650000 -0.997824
84.700000 -1.001250
84.750000 -1.001250
84.800000 -0.946436
84.850000 -0.898474
84.900000 -0.888196
84.950000 -0.860789
85.000000 -0.812827
85.050000 -0.809401
85.100000 -0.847086
85.150000 -0.874492
85.200000 -0.901899
85.250000 -0.946437
85.300000 -1.008102
85.350000 -1.066342
85.400000 -1.131435
85.450000 -1.182823
85.500000 -1.199952
85.550000 -1.186248
85.600000 -1.145138
85.650000 -1.080046
85.700000 -0.994399
85.750000 -0.901900
85.800000 -0.805975
85.850000 -0.699772
85.900000 -0.607273
85.950000 -0.528477
86.000000 -0.459960
86.050000 -0.418850
86.100000 -0.425701
86.150000 -0.442831
86.200000 -0.446256
86.250000 -0.453108
86.300000 -0.483941
86.350000 -0.514775
86.400000 -0.525052
86.450000 -0.552459
86.500000 -0.586718
86.550000 -0.607273
86.600000 -0.624403
86.650000 -0.675791
86.700000 -0.730605
86.750000 -0.751161
86.800000 -0.768290
86.850000 -0.802549
86.900000 -0.850511
86.950000 -0.884770
87.000000 -0.925880
87.050000 -0.966992
87.100000 -0.984121
87.150000 -0.970418
87.200000 -0.932733
87.250000 -0.888196
87.300000 -0.857363
87.350000 -0.847085
87.400000 -0.823104
87.450000 -0.812827
87.500000 -0.836808
87.550000 -0.881344
87.600000 -0.925881
87.650000 -1.001251
87.700000 -1.090324
87.750000 -1.182823
87.800000 -1.268470
87.850000 -1.323284
87.900000 -1.347266
87.950000 -1.347265
88.000000 -1.306154
88.050000 -1.247915
88.100000 -1.217081
88.150000 -1.162267
88.200000 -1.042361
88.250000 -0.939585
88.300000 -0.912177
88.350000 -0.912177
88.400000 -0.932733
88.450000 -1.011528
88.500000 -1.093750
88.550000 -1.158842
88.600000 -1.241063
88.650000 -1.292451
88.700000 -1.285599
88.750000 -1.244489
88.800000 -1.158841
88.850000 -1.004677
88.900000 -0.833382
88.950000 -0.692920
89.000000 -0.545607
89.050000 -0.411997
89.100000 -0.329776
89.150000 -0.298943
89.200000 -0.316073
89.250000 -0.408571
89.300000 -0.518200
89.350000 -0.610699
89.400000 -0.713475
89.450000 -0.805975
89.500000 -0.816252
89.550000 -0.775142
89.600000 -0.723754
89.650000 -0.641532
89.700000 -0.538755
89.750000 -0.456534
89.800000 -0.405145
89.850000 -0.377738
89.900000 -0.381164
89.950000 -0.411998
90.000000 -0.470238
90.050000 -0.559310
90.100000 -0.638106
90.150000 -0.668939
90.200000 -0.692921
90.250000 -0.730605
90.300000 -0.737457
90.350000 -0.706624
90.400000 -0.679217
90.450000 -0.665513
90.500000 -0.679217
90.550000 -0.747734
90.600000 -0.843660
90.650000 -0.939584
90.700000 -1.049213
90.750000 -1.172545
90.800000 -1.247915
90.850000 -1.275322
90.900000 -1.292451
90.950000 -1.278747
91.000000 -1.182823
91.050000 -1.049213
91.100000 -0.929306
91.150000 -0.795697
91.200000 -0.648383
91.250000 -0.542181
91.300000 -0.494219
91.350000 -0.473664
91.400000 -0.483941
91.450000 -0.535330
91.500000 -0.627828
91.550000 -0.730605
91.600000 -0.819678
91.650000 -0.908751
91.700000 -1.011528
91.750000 -1.080046
91.800000 -1.114305
91.850000 -1.158841
91.900000 -1.210230
91.950000 -1.234211
92.000000 -1.265044
92.050000 -1.316433
92.100000 -1.336987
92.150000 -1.357543
92.200000 -1.405505
92.250000 -1.408931
92.300000 -1.357543
92.350000 -1.326710
92.400000 -1.292451
92.450000 -1.193101
92.500000 -1.080046
92.550000 -0.990973
92.600000 -0.888196
92.650000 -0.778568
92.700000 -0.713476
92.750000 -0.686069
92.800000 -0.682643
92.850000 -0.699772
92.900000 -0.723753
92.950000 -0.754587
93.000000 -0.795697
93.050000 -0.819678
93.100000 -0.805975
93.150000 -0.805975
93.200000 -0.795697
93.250000 -0.758012
93.300000 -0.730605
93.350000 -0.737457
93.400000 -0.713475
93.450000 -0.699773
93.500000 -0.781994
93.550000 -0.888196
93.600000 -0.949863
93.650000 -1.035509
93.700000 -1.179397
93.750000 -1.282173
93.800000 -1.316432
93.850000 -1.357543
93.900000 -1.384950
93.950000 -1.336988
94.000000 -1.244489
94.050000 -1.138286
94.100000 -0.987547
94.150000 -0.812827
94.200000 -0.672365
94.250000 -0.542181
94.300000 -0.408571
94.350000 -0.305794
94.400000 -0.250981
94.450000 -0.233851
94.500000 -0.257832
94.550000 -0.319498
94.600000 -0.391442
94.650000 -0.490793
94.700000 -0.634680
94.750000 -0.775142
94.800000 -0.884770
94.850000 -0.994399
94.900000 -1.080046
94.950000 -1.134861
95.000000 -1.189674
95.050000 -1.241063
95.100000 -1.265044
95.150000 -1.271896
95.200000 -1.278748
95.250000 -1.271896
95.300000 -1.258193
95.350000 -1.241063
95.400000 -1.196526
95.450000 -1.138286
95.500000 -1.090323
95.550000 -1.038935
95.600000 -0.997824
95.650000 -0.994398
95.700000 -1.008102
95.750000 -1.008102
95.800000 -1.038935
95.850000 -1.114305
95.900000 -1.193100
95.950000 -1.275322
96.000000 -1.347265
96.050000 -1.357544
96.100000 -1.323284
96.150000 -1.302729
96.200000 -1.247915
96.250000 -1.114305
96.300000 -0.953288
96.350000 -0.823104
96.400000 -0.716902
96.450000 -0.631254
96.500000 -0.583292
96.550000 -0.559310
96.600000 -0.562737
96.650000 -0.607273
96.700000 -0.672365
96.750000 -0.740883
96.800000 -0.819678
96.850000 -0.898473
96.900000 -0.956714
96.950000 -1.008102
97.000000 -1.049213
97.050000 -1.049212
97.100000 -1.028658
97.150000 -1.018380
97.200000 -1.018380
97.250000 -1.008102
97.300000 -1.001250
97.350000 -1.008102
97.400000 -1.011528
97.450000 -1.035509
97.500000 -1.076620
97.550000 -1.128008
97.600000 -1.210229
97.650000 -1.309580
97.700000 -1.374673
97.750000 -1.415783
97.800000 -1.450042
97.850000 -1.460320
97.900000 -1.436339
97.950000 -1.415783
98.000000 -1.402079
98.050000 -1.357543
98.100000 -1.295877
98.150000 -1.230786
98.200000 -1.162267
98.250000 -1.104027
98.300000 -1.049213
98.350000 -0.963566
98.400000 -0.860789
98.450000 -0.771716
98.500000 -0.682643
98.550000 -0.566162
98.600000 -0.429127
98.650000 -0.298943
98.700000 -0.199592
98.750000 -0.137926
98.800000 -0.089964
98.850000 -0.059131
98.900000 -0.079686
98.950000 -0.148204
99.000000 -0.230425
99.050000 -0.326350
99.100000 -0.453108
99.150000 -0.573014
99.200000 -0.651810
99.250000 -0.723753
99.300000 -0.802549
99.350000 -0.853938
99.400000 -0.871067
99.450000 -0.888196
99.500000 -0.905326
99.550000 -0.901900
99.600000 -0.881345
99.650000 -0.843659
99.700000 -0.799123
99.750000 -0.754587
99.800000 -0.730605
99.850000 -0.689495
99.900000 -0.610699
99.950000 -0.518200
100.000000 -0.463386
100.050000 -0.453109
100.100000 -0.453108
100.150000 -0.439405
100.200000 -0.432553
100.250000 -0.463386
100.300000 -0.494219
100.350000 -0.518200
100.400000 -0.566163
100.450000 -0.627828
100.500000 -0.672365
100.550000 -0.692920
100.600000 -0.740883
100.650000 -0.799123
100.700000 -0.853937
100.750000 -0.912178
100.800000 -0.970418
100.850000 -1.025232
100.900000 -1.086897
100.950000 -1.124583
101.000000 -1.128008
101.050000 -1.128009
101.100000 -1.138286
101.150000 -1.131434
101.200000 -1.104027
101.250000 -1.056065
101.300000 -1.001250
101.350000 -0.956714
101.400000 -0.936158
101.450000 -0.922455
101.500000 -0.912178
101.550000 -0.936158
101.600000 -0.987547
101.650000 -1.038935
101.700000 -1.110879
101.750000 -1.199952
101.800000 -1.292451
101.850000 -1.391802
101.900000 -1.494579
101.950000 -1.549393
102.000000 -1.573374
102.050000 -1.593930
102.100000 -1.583652
102.150000 -1.528837
102.200000 -1.491153
102.250000 -1.460320
102.300000 -1.378099
102.350000 -1.289025
102.400000 -1.234211
102.450000 -1.182822
102.500000 -1.128009
102.550000 -1.104028
102.600000 -1.097176
102.650000 -1.080046
102.700000 -1.076620
102.750000 -1.104028
102.800000 -1.104027
102.850000 -1.090324
102.900000 -1.121157
102.950000 -1.175971
103.000000 -1.206804
103.050000 -1.230785
103.100000 -1.292451
103.150000 -1.367821
103.200000 -1.408932
103.250000 -1.419209
103.300000 -1.412357
103.350000 -1.388376
103.400000 -1.336988
103.450000 -1.247915
103.500000 -1.138286
103.550000 -1.028657
103.600000 -0.912178
103.650000 -0.792272
103.700000 -0.686068
103.750000 -0.617550
103.800000 -0.576440
103.850000 -0.573015
103.900000 -0.603847
103.950000 -0.655236
104.000000 -0.716901
104.050000 -0.799123
104.100000 -0.874493
104.150000 -0.929306
104.200000 -0.973844
104.250000 -1.014954
104.300000 -1.014954
104.350000 -0.994399
104.400000 -0.970418
104.450000 -0.915603
104.500000 -0.840234
104.550000 -0.785419
104.600000 -0.758013
104.650000 -0.761438
104.700000 -0.819679
104.750000 -0.912178
104.800000 -1.011528
104.850000 -1.110879
104.900000 -1.217081
104.950000 -1.292451
105.000000 -1.319858
105.050000 -1.306154
105.100000 -1.247915
105.150000 -1.155416
105.200000 -1.018380
105.250000 -0.843660
105.300000 -0.672365
105.350000 -0.552459
105.400000 -0.456534
105.450000 -0.405145
105.500000 -0.439404
105.550000 -0.535329
105.600000 -0.638106
105.650000 -0.764864
105.700000 -0.922455
105.750000 -1.042361
105.800000 -1.086898
105.850000 -1.090324
105.900000 -1.093749
105.950000 -1.066342
106.000000 -1.011528
106.050000 -0.963565
106.100000 -0.946436
106.150000 -0.929307
106.200000 -0.915603
106.250000 -0.966992
106.300000 -1.090324
106.350000 -1.241063
106.400000 -1.391802
106.450000 -1.552819
106.500000 -1.689854
106.550000 -1.789205
106.600000 -1.840593
106.650000 -1.844020
106.700000 -1.806334
106.750000 -1.748095
106.800000 -1.648744
106.850000 -1.511708
106.900000 -1.381524
106.950000 -1.285599
107.000000 -1.196526
107.050000 -1.117731
107.100000 -1.052639
107.150000 -1.001251
107.200000 -0.970418
107.250000 -0.973843
107.300000 -0.973843
107.350000 -0.956714
107.400000 -0.946437
107.450000 -0.943010
107.500000 -0.912177
107.550000 -0.884770
107.600000 -0.874493
107.650000 -0.853937
107.700000 -0.812826
107.750000 -0.816252
107.800000 -0.843660
107.850000 -0.840233
107.900000 -0.833381
107.950000 -0.871066
108.000000 -0.884770
108.050000 -0.843659
108.100000 -0.781994
108.150000 -0.744308
108.200000 -0.710050
108.250000 -0.668939
108.300000 -0.631254
108.350000 -0.620976
108.400000 -0.641532
108.450000 -0.682643
108.500000 -0.727179
108.550000 -0.785419
108.600000 -0.871067
108.650000 -0.956714
108.700000 -1.028658
108.750000 -1.090324
108.800000 -1.114304
108.850000 -1.069769
108.900000 -0.984121
108.950000 -0.905325
109.000000 -0.802549
109.050000 -0.665513
109.100000 -0.549033
109.150000 -0.477089
109.200000 -0.429127
109.250000 -0.418849
109.300000 -0.466812
109.350000 -0.562737
109.400000 -0.682643
109.450000 -0.843660
109.500000 -1.035510
109.550000 -1.210230
109.600000 -1.336988
109.650000 -1.436339
109.700000 -1.504856
109.750000 -1.532263
109.800000 -1.511708
109.850000 -1.456894
109.900000 -1.384951
109.950000 -1.295877
110.000000 -1.210230
110.050000 -1.138286
110.100000 -1.083472
110.150000 -1.045787
110.200000 -1.001250
110.250000 -0.973843
110.300000 -0.987547
110.350000 -1.028657
110.400000 -1.052639
110.450000 -1.052639
110.500000 -1.076620
110.550000 -1.090324
110.600000 -1.052639
110.650000 -1.008102
110.700000 -1.011529
110.750000 -1.028657
110.800000 -1.025231
110.850000 -1.028658
110.900000 -1.049213
110.950000 -1.059490
111.000000 -1.059490
111.050000 -1.062917
111.100000 -1.076620
111.150000 -1.066343
111.200000 -1.052639
111.250000 -1.045787
111.300000 -1.045787
111.350000 -1.028657
111.400000 -1.018380
111.450000 -1.018380
111.500000 -0.997825
111.550000 -0.966992
111.600000 -0.939585
111.650000 -0.919029
111.700000 -0.888196
111.750000 -0.881345
111.800000 -0.877919
111.850000 -0.860789
111.900000 -0.847085
111.950000 -0.850511
112.000000 -0.864215
112.050000 -0.874492
112.100000 -0.905325
112.150000 -0.915603
112.200000 -0.884770
112.250000 -0.843659
112.300000 -0.829956
112.350000 -0.833382
112.400000 -0.826530
112.450000 -0.812827
112.500000 -0.805975
112.550000 -0.805975
112.600000 -0.823104
112.650000 -0.877919
112.700000 -0.966992
112.750000 -1.052639
112.800000 -1.138286
112.850000 -1.217082
112.900000 -1.282174
112.950000 -1.295877
113.000000 -1.261618
113.050000 -1.189675
113.100000 -1.083472
113.150000 -0.956714
113.200000 -0.805975
113.250000 -0.644958
113.300000 -0.525052
113.350000 -0.446256
113.400000 -0.381164
113.450000 -0.353758
113.500000 -0.398294
113.550000 -0.480515
113.600000 -0.573014
113.650000 -0.710050
113.700000 -0.874492
113.750000 -1.001251
113.800000 -1.080046
113.850000 -1.145138
113.900000 -1.165693
113.950000 -1.121157
114.000000 -1.062916
114.050000 -1.032083
114.100000 -1.004676
114.150000 -0.946437
114.200000 -0.891622
114.250000 -0.884770
114.300000 -0.912178
114.350000 -0.953288
114.400000 -1.025232
114.450000 -1.131434
114.500000 -1.220507
114.550000 -1.285599
114.600000 -1.354117
114.650000 -1.419209
114.700000 -1.446616
114.750000 -1.432912
114.800000 -1.405506
114.850000 -1.378099
114.900000 -1.354117
114.950000 -1.333562
115.000000 -1.306155
115.050000 -1.265044
115.100000 -1.234211
115.150000 -1.189674
115.200000 -1.114305
115.250000 -1.032083
115.300000 -0.970418
115.350000 -0.915604
115.400000 -0.843660
115.450000 -0.768290
115.500000 -0.710049
115.550000 -0.665513
115.600000 -0.651809
115.650000 -0.665513
115.700000 -0.689494
115.750000 -0.727179
115.800000 -0.792271
115.850000 -0.860789
115.900000 -0.925881
115.950000 -1.008102
116.000000 -1.090324
116.050000 -1.145138
116.100000 -1.199952
116.150000 -1.247915
116.200000 -1.258192
116.250000 -1.254767
116.300000 -1.271896
116.350000 -1.285599
116.400000 -1.254766
116.450000 -1.206804
116.500000 -1.158841
116.550000 -1.086898
116.600000 -1.004676
116.650000 -0.953288
116.700000 -0.908751
116.750000 -0.847086
116.800000 -0.785419
116.850000 -0.764864
116.900000 -0.775142
116.950000 -0.785419
117.000000 -0.809400
117.050000 -0.843660
117.100000 -0.888196
117.150000 -0.953288
117.200000 -1.032084
117.250000 -1.093750
117.300000 -1.124582
117.350000 -1.165693
117.400000 -1.196526
117.450000 -1.179397
117.500000 -1.138286
117.550000 -1.093750
117.600000 -1.035510
117.650000 -0.956714
117.700000 -0.877919
117.750000 -0.799123
117.800000 -0.727179
117.850000 -0.668939
117.900000 -0.607273
117.950000 -0.562736
118.000000 -0.531903
118.050000 -0.514774
118.100000 -0.511348
118.150000 -0.528478
118.200000 -0.552459
118.250000 -0.559311
118.300000 -0.555885
118.350000 -0.579866
118.400000 -0.614125
118.450000 -0.631254
118.500000 -0.638106
118.550000 -0.662087
118.600000 -0.699773
118.650000 -0.706624
118.700000 -0.692920
118.750000 -0.672365
118.800000 -0.627829
118.850000 -0.573014
118.900000 -0.545607
118.950000 -0.535329
119.000000 -0.501071
119.050000 -0.480515
119.100000 -0.487367
119.150000 -0.497645
119.200000 -0.521626
119.250000 -0.593569
119.300000 -0.696346
119.350000 -0.792272
119.400000 -0.888196
119.450000 -0.984121
119.500000 -1.056065
119.550000 -1.121157
119.600000 -1.182823
119.650000 -1.234211
119.700000 -1.275321
119.750000 -1.306155
119.800000 -1.319858
119.850000 -1.309581
119.900000 -1.285600
119.950000 -1.237637
120.000000 -1.182822
120.050000 -1.138286
120.100000 -1.107453
120.150000 -1.066343
120.200000 -1.008102
120.250000 -0.953288
120.300000 -0.912177
120.350000 -0.864215
120.400000 -0.788846
120.450000 -0.703199
120.500000 -0.627828
120.550000 -0.559311
120.600000 -0.473663
120.650000 -0.398294
120.700000 -0.346905
120.750000 -0.329776
120.800000 -0.326351
120.850000 -0.298943
120.900000 -0.264685
120.950000 -0.264685
121.000000 -0.288666
121.050000 -0.316073
121.100000 -0.370887
121.150000 -0.466812
121.200000 -0.545607
121.250000 -0.596995
121.300000 -0.665514
121.350000 -0.730605
121.400000 -0.747735
121.450000 -0.758012
121.500000 -0.792271
121.550000 -0.843660
121.600000 -0.888196
121.650000 -0.919030
121.700000 -0.966992
121.750000 -1.011528
121.800000 -1.014954
121.850000 -1.001250
121.900000 -1.018380
121.950000 -1.062916
122.000000 -1.076620
122.050000 -1.056064
122.100000 -1.025232
122.150000 -0.970418
122.200000 -0.891622
122.250000 -0.823104
122.300000 -0.761439
122.350000 -0.668939
122.400000 -0.566162
122.450000 -0.525051
122.500000 -0.507923
122.550000 -0.459960
122.600000 -0.411998
122.650000 -0.432552
122.700000 -0.480516
122.750000 -0.521625
122.800000 -0.583292
122.850000 -0.655236
122.900000 -0.706624
122.950000 -0.771716
123.000000 -0.843660
123.050000 -0.860789
123.100000 -0.833382
123.150000 -0.836808
123.200000 -0.853938
123.250000 -0.864215
123.300000 -0.888196
123.350000 -0.943011
123.400000 -0.990973
123.450000 -1.056064
123.500000 -1.148563
123.550000 -1.244489
123.600000 -1.316433
123.650000 -1.388376
123.700000 -1.446616
123.750000 -1.484301
123.800000 -1.491153
123.850000 -1.450043
123.900000 -1.360969
123.950000 -1.251341
124.000000 -1.128008
124.050000 -0.980695
124.100000 -0.809400
124.150000 -0.631254
124.200000 -0.477089
124.250000 -0.394868
124.300000 -0.357183
124.350000 -0.322924
124.400000 -0.340054
124.450000 -0.405145
124.500000 -0.483941
124.550000 -0.559311
124.600000 -0.638107
124.650000 -0.686069
124.700000 -0.703198
124.750000 -0.713476
124.800000 -0.692921
124.850000 -0.620977
124.900000 -0.531904
124.950000 -0.470238
125.000000 -0.408572
125.050000 -0.350331
125.100000 -0.336628
125.150000 -0.343479
125.200000 -0.336628
125.250000 -0.360609
125.300000 -0.446256
125.350000 -0.542182
125.400000 -0.617550
125.450000 -0.699773
125.500000 -0.792272
125.550000 -0.860789
125.600000 -0.922455
125.650000 -0.984121
125.700000 -1.018380
125.750000 -1.004677
125.800000 -0.987547
125.850000 -0.987547
125.900000 -0.970417
125.950000 -0.901900
126.000000 -0.840234
126.050000 -0.805974
126.100000 -0.751161
126.150000 -0.662087
126.200000 -0.607273
126.250000 -0.600421
126.300000 -0.603847
126.350000 -0.610699
126.400000 -0.651810
126.450000 -0.713476
126.500000 -0.799123
126.550000 -0.919029
126.600000 -1.052639
126.650000 -1.172545
126.700000 -1.302729
126.750000 -1.446617
126.800000 -1.559670
126.850000 -1.628189
126.900000 -1.659022
126.950000 -1.648744
127.000000 -1.607633
127.050000 -1.532264
127.100000 -1.412357
127.150000 -1.271896
127.200000 -1.148563
127.250000 -1.028657
127.300000 -0.922455
127.350000 -0.860789
127.400000 -0.833382
127.450000 -0.812826
127.500000 -0.816252
127.550000 -0.857363
127.600000 -0.895048
127.650000 -0.925881
127.700000 -0.963566
127.750000 -1.001251
127.800000 -1.008102
127.850000 -1.008102
127.900000 -1.025232
127.950000 -1.062917
128.000000 -1.107453
128.050000 -1.151990
128.100000 -1.213656
128.150000 -1.319858
128.200000 -1.432912
128.250000 -1.515134
128.300000 -1.563096
128.350000 -1.580226
128.400000 -1.569949
128.450000 -1.498005
128.500000 -1.378098
128.550000 -1.254766
128.600000 -1.145138
128.650000 -1.042361
128.700000 -0.966991
128.750000 -0.939585
128.800000 -0.960139
128.850000 -1.011529
128.900000 -1.083472
128.950000 -1.169120
129.000000 -1.278748
129.050000 -1.402080
129.100000 -1.498004
129.150000 -1.501430
129.200000 -1.436339
129.250000 -1.354117
129.300000 -1.251340
129.350000 -1.107453
129.400000 -0.953288
129.450000 -0.836808
129.500000 -0.751161
129.550000 -0.686068
129.600000 -0.658662
129.650000 -0.665514
129.700000 -0.682643
129.750000 -0.699772
129.800000 -0.727180
129.850000 -0.775141
129.900000 -0.802548
129.950000 -0.809401
130.000000 -0.805974
130.050000 -0.788846
130.100000 -0.778567
130.150000 -0.788846
130.200000 -0.805975
130.250000 -0.836808
130.300000 -0.884771
130.350000 -0.953288
130.400000 -1.032084
130.450000 -1.138286
130.500000 -1.261618
130.550000 -1.360969
130.600000 -1.450043
130.650000 -1.542541
130.700000 -1.593929
130.750000 -1.587078
130.800000 -1.566523
130.850000 -1.552819
130.900000 -1.508282
130.950000 -1.429487
131.000000 -1.357543
131.050000 -1.285599
131.100000 -1.210230
131.150000 -1.155416
131.200000 -1.134860
131.250000 -1.117730
131.300000 -1.117730
131.350000 -1.145138
131.400000 -1.182823
131.450000 -1.223933
131.500000 -1.247915
131.550000 -1.261618
131.600000 -1.275322
131.650000 -1.278748
131.700000 -1.261618
131.750000 -1.217082
131.800000 -1.179396
131.850000 -1.124582
131.900000 -1.035510
131.950000 -0.943010
132.000000 -0.871067
132.050000 -0.823104
132.100000 -0.799123
132.150000 -0.771716
132.200000 -0.744309
132.250000 -0.737457
132.300000 -0.740883
132.350000 -0.706624
132.400000 -0.655235
132.450000 -0.624403
132.500000 -0.614125
132.550000 -0.590143
132.600000 -0.573014
132.650000 -0.559311
132.700000 -0.531904
132.750000 -0.521626
132.800000 -0.552459
132.850000 -0.586718
132.900000 -0.614125
132.950000 -0.689495
133.000000 -0.788846
133.050000 -0.874493
133.100000 -0.949862
133.150000 -1.025231
133.200000 -1.056065
133.250000 -1.052639
133.300000 -1.052639
133.350000 -1.025232
133.400000 -0.973843
133.450000 -0.932733
133.500000 -0.891622
133.550000 -0.819679
133.600000 -0.737457
133.650000 -0.686068
133.700000 -0.634680
133.750000 -0.583292
133.800000 -0.562737
133.850000 -0.542181
133.900000 -0.518200
133.950000 -0.518200
134.000000 -0.538756
134.050000 -0.559311
134.100000 -0.600422
134.150000 -0.665513
134.200000 -0.737457
134.250000 -0.823105
134.300000 -0.936158
134.350000 -1.052639
134.400000 -1.162267
134.450000 -1.244489
134.500000 -1.285599
134.550000 -1.289025
134.600000 -1.278748
134.650000 -1.234212
134.700000 -1.145138
134.750000 -1.042361
134.800000 -0.922455
134.850000 -0.781993
134.900000 -0.658662
134.950000 -0.576441
135.000000 -0.514774
135.050000 -0.483941
135.100000 -0.501070
135.150000 -0.566162
135.200000 -0.662087
135.250000 -0.778568
135.300000 -0.888196
135.350000 -0.997825
135.400000 -1.090324
135.450000 -1.141712
135.500000 -1.131435
135.550000 -1.086897
135.600000 -1.014954
135.650000 -0.912177
135.700000 -0.781993
135.750000 -0.655236
135.800000 -0.552459
135.850000 -0.477090
135.900000 -0.446256
135.950000 -0.446257
136.000000 -0.463386
136.050000 -0.480515
136.100000 -0.494218
136.150000 -0.494219
136.200000 -0.494219
136.250000 -0.501071
136.300000 -0.473663
136.350000 -0.422275
136.400000 -0.388016
136.450000 -0.388016
136.500000 -0.384590
136.550000 -0.384590
136.600000 -0.432552
136.650000 -0.525052
136.700000 -0.638107
136.750000 -0.751161
136.800000 -0.877919
136.850000 -0.997824
136.900000 -1.083472
136.950000 -1.131434
137.000000 -1.155415
137.050000 -1.155416
137.100000 -1.131434
137.150000 -1.080046
137.200000 -1.038935
137.250000 -1.014954
137.300000 -1.001251
137.350000 -0.994399
137.400000 -1.004677
137.450000 -1.008103
137.500000 -1.014954
137.550000 -1.035510
137.600000 -1.056065
137.650000 -1.059491
137.700000 -1.080046
137.750000 -1.100602
137.800000 -1.086897
137.850000 -1.066343
137.900000 -1.090324
137.950000 -1.097175
138.000000 -1.069768
138.050000 -1.062917
138.100000 -1.104027
138.150000 -1.145138
138.200000 -1.189674
138.250000 -1.251341
138.300000 -1.309581
138.350000 -1.313006
138.400000 -1.302728
138.450000 -1.319858
138.500000 -1.323284
138.550000 -1.282174
138.600000 -1.230785
138.650000 -1.193100
138.700000 -1.128008
138.750000 -1.011529
138.800000 -0.905325
138.850000 -0.836808
138.900000 -0.764865
138.950000 -0.689494
139.000000 -0.658662
139.050000 -0.644958
139.100000 -0.610699
139.150000 -0.590144
139.200000 -0.610699
139.250000 -0.627828
139.300000 -0.648384
139.350000 -0.696346
139.400000 -0.734031
139.450000 -0.744309
139.500000 -0.771716
139.550000 -0.819679
139.600000 -0.850511
139.650000 -0.860789
139.700000 -0.881344
139.750000 -0.891622
139.800000 -0.864214
139.850000 -0.802549
139.900000 -0.713476
139.950000 -0.624403
140.000000 -0.545608
140.050000 -0.459960
140.100000 -0.367461
140.150000 -0.326350
140.200000 -0.350331
140.250000 -0.411998
140.300000 -0.521626
140.350000 -0.682643
140.400000 -0.864214
140.450000 -1.045787
140.500000 -1.247914
140.550000 -1.450042
140.600000 -1.621337
140.650000 -1.737817
140.700000 -1.799483
140.750000 -1.802909
140.800000 -1.741242
140.850000 -1.638466
140.900000 -1.501430
140.950000 -1.330136
141.000000 -1.155416
141.050000 -1.014955
141.100000 -0.901900
141.150000 -0.795697
141.200000 -0.723753
141.250000 -0.682642
141.300000 -0.662087
141.350000 -0.662087
141.400000 -0.713475
141.450000 -0.799123
141.500000 -0.884770
141.550000 -0.956714
141.600000 -1.021806
141.650000 -1.066342
141.700000 -1.100602
141.750000 -1.107453
141.800000 -1.069769
141.850000 -1.004676
141.900000 -0.943010
141.950000 -0.860789
142.000000 -0.751161
142.050000 -0.672365
142.100000 -0.620977
142.150000 -0.535330
142.200000 -0.425701
142.250000 -0.374312
142.300000 -0.381165
142.350000 -0.388016
142.400000 -0.415424
142.450000 -0.477089
142.500000 -0.552459
142.550000 -0.631254
142.600000 -0.730605
142.650000 -0.829956
142.700000 -0.908751
142.750000 -0.973843
142.800000 -1.049213
142.850000 -1.104027
142.900000 -1.131434
142.950000 -1.128009
143.000000 -1.083472
143.050000 -1.025232
143.100000 -0.966991
143.150000 -0.874492
143.200000 -0.758013
143.250000 -0.672365
143.300000 -0.620977
143.350000 -0.569589
143.400000 -0.525051
143.450000 -0.494219
143.500000 -0.473663
143.550000 -0.487367
143.600000 -0.521626
143.650000 -0.562736
143.700000 -0.620977
143.750000 -0.692920
143.800000 -0.737457
143.850000 -0.761438
143.900000 -0.785420
143.950000 -0.792271
144.000000 -0.781993
144.050000 -0.768290
144.100000 -0.758012
144.150000 -0.751160
144.200000 -0.744309
144.250000 -0.740883
144.300000 -0.751160
144.350000 -0.775142
144.400000 -0.805974
144.450000 -0.819678
144.500000 -0.853937
144.550000 -0.895048
144.600000 -0.925881
144.650000 -0.929307
144.700000 -0.919029
144.750000 -0.884770
144.800000 -0.805974
144.850000 -0.699772
144.900000 -0.593569
144.950000 -0.487367
145.000000 -0.391442
145.050000 -0.312647
145.100000 -0.244129
145.150000 -0.199593
145.200000 -0.209870
145.250000 -0.254406
145.300000 -0.281813
145.350000 -0.316073
145.400000 -0.391442
145.450000 -0.487367
145.500000 -0.566162
145.550000 -0.627828
145.600000 -0.672365
145.650000 -0.710050
145.700000 -0.751161
145.750000 -0.792272
145.800000 -0.833382
145.850000 -0.884770
145.900000 -0.960140
145.950000 -1.059491
146.000000 -1.165694
146.050000 -1.258193
146.100000 -1.330136
146.150000 -1.415784
146.200000 -1.491153
146.250000 -1.515134
146.300000 -1.535689
146.350000 -1.583651
146.400000 -1.583652
146.450000 -1.511708
146.500000 -1.439764
146.550000 -1.378099
146.600000 -1.268470
146.650000 -1.145138
146.700000 -1.059491
146.750000 -0.997825
146.800000 -0.949862
146.850000 -0.912177
146.900000 -0.867641
146.950000 -0.836807
147.000000 -0.840234
147.050000 -0.843660
147.100000 -0.847086
147.150000 -0.871067
147.200000 -0.895048
147.250000 -0.891622
147.300000 -0.881345
147.350000 -0.877919
147.400000 -0.860789
147.450000 -0.833382
147.500000 -0.819678
147.550000 -0.809401
147.600000 -0.795697
147.650000 -0.785419
147.700000 -0.751160
147.750000 -0.716902
147.800000 -0.696346
147.850000 -0.665513
147.900000 -0.600421
147.950000 -0.576440
148.000000 -0.583292
148.050000 -0.562737
148.100000 -0.545607
148.150000 -0.586718
148.200000 -0.634680
148.250000 -0.641532
148.300000 -0.689495
148.350000 -0.795697
148.400000 -0.891622
148.450000 -0.966991
148.500000 -1.049213
148.550000 -1.121157
148.600000 -1.162267
148.650000 -1.186248
148.700000 -1.182822
148.750000 -1.141712
148.800000 -1.097175
148.850000 -1.035510
148.900000 -0.925881
148.950000 -0.819678
149.000000 -0.744309
149.050000 -0.651810
149.100000 -0.566162
149.150000 -0.552458
149.200000 -0.586718
149.250000 -0.614125
149.300000 -0.686069
149.350000 -0.812826
149.400000 -0.901900
149.450000 -0.963566
149.500000 -1.049213
149.550000 -1.110879
149.600000 -1.097176
149.650000 -1.042361
149.700000 -0.966992
149.750000 -0.881344
149.800000 -0.775142
149.850000 -0.668939
149.900000 -0.579866
149.950000 -0.531903
150.000000 -0.504496
150.050000 -0.497645
150.100000 -0.514774
150.150000 -0.549033
150.200000 -0.596996
150.250000 -0.665513
150.300000 -0.713476
150.350000 -0.730605
150.400000 -0.754586
150.450000 -0.812826
150.500000 -0.860789
150.550000 -0.860789
150.600000 -0.850511
150.650000 -0.857363
150.700000 -0.877918
150.750000 -0.895048
150.800000 -0.895048
150.850000 -0.874493
150.900000 -0.833382
150.950000 -0.785419
151.000000 -0.740883
151.050000 -0.679217
151.100000 -0.586717
151.150000 -0.494219
151.200000 -0.425701
151.250000 -0.350331
151.300000 -0.274962
151.350000 -0.226999
151.400000 -0.213295
151.450000 -0.203019
151.500000 -0.199592
151.550000 -0.230425
151.600000 -0.295517
151.650000 -0.381165
151.700000 -0.494219
151.750000 -0.607273
151.800000 -0.716902
151.850000 -0.819678
151.900000 -0.901899
151.950000 -0.953288
152.000000 -1.004676
152.050000 -1.059491
152.100000 -1.107453
152.150000 -1.145138
152.200000 -1.151990
152.250000 -1.151989
152.300000 -1.172545
152.350000 -1.172545
152.400000 -1.128009
152.450000 -1.066343
152.500000 -1.001251
152.550000 -0.919029
152.600000 -0.819678
152.650000 -0.713476
152.700000 -0.603847
152.750000 -0.521626
152.800000 -0.477089
152.850000 -0.470238
152.900000 -0.494219
152.950000 -0.545608
153.000000 -0.610699
153.050000 -0.692920
153.100000 -0.781993
153.150000 -0.860789
153.200000 -0.943010
153.250000 -1.028658
153.300000 -1.100601
153.350000 -1.141712
153.400000 -1.145138
153.450000 -1.121157
153.500000 -1.086898
153.550000 -1.049213
153.600000 -0.977269
153.650000 -0.881344
153.700000 -0.792271
153.750000 -0.710050
153.800000 -0.600422
153.850000 -0.487367
153.900000 -0.432553
153.950000 -0.398294
154.000000 -0.360609
154.050000 -0.374313
154.100000 -0.453108
154.150000 -0.545607
154.200000 -0.627829
154.250000 -0.730605
154.300000 -0.840234
154.350000 -0.925880
154.400000 -0.984121
154.450000 -1.001250
154.500000 -0.973844
154.550000 -0.929307
154.600000 -0.877919
154.650000 -0.819678
154.700000 -0.764864
154.750000 -0.740883
154.800000 -0.737457
154.850000 -0.771716
154.900000 -0.843660
154.950000 -0.932733
155.000000 -1.021806
155.050000 -1.131434
155.100000 -1.254766
155.150000 -1.364395
155.200000 -1.456894
155.250000 -1.525411
155.300000 -1.559670
155.350000 -1.563096
155.400000 -1.515134
155.450000 -1.408932
155.500000 -1.271896
155.550000 -1.104027
155.600000 -0.919029
155.650000 -0.751161
155.700000 -0.617551
155.750000 -0.497645
155.800000 -0.422275
155.850000 -0.425701
155.900000 -0.483941
155.950000 -0.566163
156.000000 -0.686069
156.050000 -0.850511
156.100000 -1.018380
156.150000 -1.158841
156.200000 -1.230785
156.250000 -1.241063
156.300000 -1.234211
156.350000 -1.206804
156.400000 -1.121156
156.450000 -1.018380
156.500000 -0.932733
156.550000 -0.850511
156.600000 -0.778567
156.650000 -0.744309
156.700000 -0.720327
156.750000 -0.692921
156.800000 -0.696346
156.850000 -0.734031
156.900000 -0.723753
156.950000 -0.665513
157.000000 -0.638106
157.050000 -0.655236
157.100000 -0.658661
157.150000 -0.655236
157.200000 -0.689494
157.250000 -0.737457
157.300000 -0.785419
157.350000 -0.860789
157.400000 -0.949862
157.450000 -1.014954
157.500000 -1.049213
157.550000 -1.059491
157.600000 -1.045787
157.650000 -1.014954
157.700000 -0.956714
157.750000 -0.864215
157.800000 -0.771716
157.850000 -0.716901
157.900000 -0.672365
157.950000 -0.607273
158.000000 -0.559311
158.050000 -0.579866
158.100000 -0.638106
158.150000 -0.686069
158.200000 -0.723754
158.250000 -0.795697
158.300000 -0.864215
158.350000 -0.891623
158.400000 -0.915604
158.450000 -0.980695
158.500000 -1.025232
158.550000 -1.014954
158.600000 -1.032083
158.650000 -1.069769
158.700000 -1.069769
158.750000 -1.066343
158.800000 -1.086897
158.850000 -1.069769
158.900000 -1.001250
158.950000 -0.960139
159.000000 -0.908752
159.050000 -0.805975
159.100000 -0.713475
159.150000 -0.641532
159.200000 -0.552459
159.250000 -0.480515
159.300000 -0.446256
159.350000 -0.415423
159.400000 -0.418849
159.450000 -0.497645
159.500000 -0.600422
159.550000 -0.699772
159.600000 -0.847085
159.650000 -1.014954
159.700000 -1.134860
159.750000 -1.230786
159.800000 -1.333562
159.850000 -1.371247
159.900000 -1.340414
159.950000 -1.302729
160.000000 -1.254767
160.050000 -1.182823
160.100000 -1.110879
160.150000 -1.059491
160.200000 -1.028657
160.250000 -1.035509
160.300000 -1.083472
160.350000 -1.148563
160.400000 -1.241063
160.450000 -1.330136
160.500000 -1.381524
160.550000 -1.398653
160.600000 -1.391802
160.650000 -1.360968
160.700000 -1.292451
160.750000 -1.189675
160.800000 -1.076620
160.850000 -0.963565
160.900000 -0.874492
160.950000 -0.816252
161.000000 -0.788846
161.050000 -0.819678
161.100000 -0.891622
161.150000 -0.980695
161.200000 -1.066342
161.250000 -1.169119
161.300000 -1.258192
161.350000 -1.292451
161.400000 -1.295877
161.450000 -1.299303
161.500000 -1.302729
161.550000 -1.302728
161.600000 -1.289025
161.650000 -1.258193
161.700000 -1.230785
161.750000 -1.213656
161.800000 -1.199952
161.850000 -1.172545
161.900000 -1.138286
161.950000 -1.114305
162.000000 -1.110879
162.050000 -1.107453
162.100000 -1.083471
162.150000 -1.059491
162.200000 -1.066343
162.250000 -1.086898
162.300000 -1.073194
162.350000 -1.062917
162.400000 -1.083472
162.450000 -1.100601
162.500000 -1.100602
162.550000 -1.086897
162.600000 -1.045787
162.650000 -0.970417
162.700000 -0.901900
162.750000 -0.826530
162.800000 -0.727180
162.850000 -0.644958
162.900000 -0.603847
162.950000 -0.583292
163.000000 -0.593570
163.050000 -0.627829
163.100000 -0.668939
163.150000 -0.710050
163.200000 -0.764864
163.250000 -0.802549
163.300000 -0.788845
163.350000 -0.758013
163.400000 -0.744309
163.450000 -0.706623
163.500000 -0.600422
163.550000 -0.477089
163.600000 -0.391442
163.650000 -0.346906
163.700000 -0.333202
163.750000 -0.367460
163.800000 -0.435979
163.850000 -0.518200
163.900000 -0.614125
163.950000 -0.696346
164.000000 -0.768290
164.050000 -0.819678
164.100000 -0.833382
164.150000 -0.802549
164.200000 -0.754587
164.250000 -0.689494
164.300000 -0.600421
164.350000 -0.487367
164.400000 -0.394868
164.450000 -0.329776
164.500000 -0.281814
164.550000 -0.250980
164.600000 -0.250980
164.650000 -0.271536
164.700000 -0.305795
164.750000 -0.350331
164.800000 -0.398294
164.850000 -0.446257
164.900000 -0.494219
164.950000 -0.525052
165.000000 -0.552459
165.050000 -0.603847
165.100000 -0.668939
165.150000 -0.713476
165.200000 -0.751161
165.250000 -0.819678
165.300000 -0.895048
165.350000 -0.953288
165.400000 -1.004676
165.450000 -1.049213
165.500000 -1.080046
165.550000 -1.100602
165.600000 -1.114305
165.650000 -1.100601
165.700000 -1.066342
165.750000 -1.045787
165.800000 -1.062916
165.850000 -1.090324
165.900000 -1.090324
165.950000 -1.073194
166.000000 -1.052639
166.050000 -1.032084
166.100000 -0.997824
166.150000 -0.953288
166.200000 -0.884770
166.250000 -0.795697
166.300000 -0.692920
166.350000 -0.610699
166.400000 -0.535329
166.450000 -0.446256
166.500000 -0.381164
166.550000 -0.364035
166.600000 -0.346905
166.650000 -0.292091
166.700000 -0.278388
166.750000 -0.326350
166.800000 -0.367461
166.850000 -0.384591
166.900000 -0.425701
166.950000 -0.487367
167.000000 -0.538755
167.050000 -0.593569
167.100000 -0.665513
167.150000 -0.723754
167.200000 -0.771716
167.250000 -0.812827
167.300000 -0.819678
167.350000 -0.792271
167.400000 -0.764864
167.450000 -0.744309
167.500000 -0.682643
167.550000 -0.603848
167.600000 -0.562736
167.650000 -0.528477
167.700000 -0.470238
167.750000 -0.429127
167.800000 -0.435979
167.850000 -0.453108
167.900000 -0.456534
167.950000 -0.490793
168.000000 -0.531903
168.050000 -0.528477
168.100000 -0.497645
168.150000 -0.477089
168.200000 -0.477089
168.250000 -0.463386
168.300000 -0.439404
168.350000 -0.432553
168.400000 -0.456534
168.450000 -0.490793
168.500000 -0.525052
168.550000 -0.583292
168.600000 -0.668939
168.650000 -0.764864
168.700000 -0.857363
168.750000 -0.970418
168.800000 -1.059491
168.850000 -1.104027
168.900000 -1.148564
168.950000 -1.227359
169.000000 -1.278747
169.050000 -1.268470
169.100000 -1.247914
169.150000 -1.241063
169.200000 -1.237637
169.250000 -1.223933
169.300000 -1.203378
169.350000 -1.172545
169.400000 -1.155416
169.450000 -1.151989
169.500000 -1.134861
169.550000 -1.104027
169.600000 -1.090324
169.650000 -1.083472
169.700000 -1.056064
169.750000 -0.990973
169.800000 -0.915603
169.850000 -0.836808
169.900000 -0.740883
169.950000 -0.617551
170.000000 -0.501071
170.050000 -0.422275
170.100000 -0.381164
170.150000 -0.377739
170.200000 -0.415424
170.250000 -0.494218
170.300000 -0.624402
170.350000 -0.778567
170.400000 -0.939584
170.450000 -1.083472
170.500000 -1.230785
170.550000 -1.374673
170.600000 -1.494579
170.650000 -1.576800
170.700000 -1.614485
170.750000 -1.604207
170.800000 -1.552818
170.850000 -1.460320
170.900000 -1.347266
170.950000 -1.220507
171.000000 -1.107453
171.050000 -1.008103
171.100000 -0.925881
171.150000 -0.853937
171.200000 -0.809401
171.250000 -0.792271
171.300000 -0.809400
171.350000 -0.864215
171.400000 -0.939584
171.450000 -1.014954
171.500000 -1.090324
171.550000 -1.148564
171.600000 -1.169120
171.650000 -1.179397
171.700000 -1.186249
171.750000 -1.151989
171.800000 -1.083472
171.850000 -1.042361
171.900000 -1.018380
171.950000 -0.960139
172.000000 -0.908752
172.050000 -0.915603
172.100000 -0.943011
172.150000 -0.966992
172.200000 -0.997825
172.250000 -1.025231
172.300000 -1.045787
172.350000 -1.062917
172.400000 -1.073194
172.450000 -1.049212
172.500000 -1.004676
172.550000 -0.970417
172.600000 -0.929307
172.650000 -0.874493
172.700000 -0.836808
172.750000 -0.819678
172.800000 -0.788845
172.850000 -0.740883
172.900000 -0.703198
172.950000 -0.699772
173.000000 -0.706623
173.050000 -0.679217
173.100000 -0.627828
173.150000 -0.596996
173.200000 -0.583292
173.250000 -0.549033
173.300000 -0.525052
173.350000 -0.521626
173.400000 -0.507922
173.450000 -0.477090
173.500000 -0.480515
173.550000 -0.501071
173.600000 -0.494219
173.650000 -0.487367
173.700000 -0.518200
173.750000 -0.545607
173.800000 -0.562737
173.850000 -0.600422
173.900000 -0.658662
173.950000 -0.720327
174.000000 -0.805975
174.050000 -0.898474
174.100000 -0.946436
174.150000 -0.987547
174.200000 -1.059491
174.250000 -1.110879
174.300000 -1.117731
174.350000 -1.131434
174.400000 -1.134860
174.450000 -1.097175
174.500000 -1.059490
174.550000 -1.035509
174.600000 -0.994399
174.650000 -0.925881
174.700000 -0.871066
174.750000 -0.833382
174.800000 -0.802549
174.850000 -0.768290
174.900000 -0.751160
174.950000 -0.768289
175.000000 -0.802549
175.050000 -0.823104
175.100000 -0.850511
175.150000 -0.895048
175.200000 -0.939584
175.250000 -0.994398
175.300000 -1.062917
175.350000 -1.107453
175.400000 -1.104027
175.450000 -1.093749
175.500000 -1.097175
175.550000 -1.080045
175.600000 -1.042361
175.650000 -1.014954
175.700000 -0.990973
175.750000 -0.963565
175.800000 -0.939585
175.850000 -0.939584
175.900000 -0.939585
175.950000 -0.929307
176.000000 -0.925881
176.050000 -0.936158
176.100000 -0.939585
176.150000 -0.908752
176.200000 -0.871066
176.250000 -0.864215
176.300000 -0.860789
176.350000 -0.823104
176.400000 -0.764864
176.450000 -0.727179
176.500000 -0.716902
176.550000 -0.703198
176.600000 -0.689495
176.650000 -0.699772
176.700000 -0.734031
176.750000 -0.775141
176.800000 -0.802549
176.850000 -0.836808
176.900000 -0.884770
176.950000 -0.908752
177.000000 -0.905325
177.050000 -0.895048
177.100000 -0.905325
177.150000 -0.915604
177.200000 -0.908752
177.250000 -0.905325
177.300000 -0.925881
177.350000 -0.946437
177.400000 -0.980695
177.450000 -1.062917
177.500000 -1.162268
177.550000 -1.258192
177.600000 -1.360969
177.650000 -1.446616
177.700000 -1.491153
177.750000 -1.508282
177.800000 -1.508282
177.850000 -1.467171
177.900000 -1.395227
177.950000 -1.319858
178.000000 -1.220507
178.050000 -1.104028
178.100000 -1.014955
178.150000 -0.949862
178.200000 -0.891622
178.250000 -0.853937
178.300000 -0.829956
178.350000 -0.785419
178.400000 -0.740883
178.450000 -0.730605
178.500000 -0.716902
178.550000 -0.692920
178.600000 -0.703198
178.650000 -0.761438
178.700000 -0.819679
178.750000 -0.874492
178.800000 -0.936159
178.850000 -0.980695
178.900000 -0.994399
178.950000 -1.001250
179.000000 -0.980695
179.050000 -0.908752
179.100000 -0.823105
179.150000 -0.747735
179.200000 -0.638106
179.250000 -0.525051
179.300000 -0.459960
179.350000 -0.418849
179.400000 -0.367460
179.450000 -0.360609
179.500000 -0.408572
179.550000 -0.477089
179.600000 -0.545607
179.650000 -0.644958
179.700000 -0.744309
179.750000 -0.812826
179.800000 -0.864215
179.850000 -0.905325
179.900000 -0.932733
179.950000 -0.929307
180.000000 -0.898474
180.050000 -0.847085
180.100000 -0.812827
180.150000 -0.778567
180.200000 -0.710050
180.250000 -0.631254
180.300000 -0.586717
180.350000 -0.583292
180.400000 -0.586718
180.450000 -0.634681
180.500000 -0.734031
180.550000 -0.850512
180.600000 -0.963565
180.650000 -1.093749
180.700000 -1.223933
180.750000 -1.333562
180.800000 -1.426060
180.850000 -1.480875
180.900000 -1.477450
180.950000 -1.439765
181.000000 -1.391802
181.050000 -1.302729
181.100000 -1.182823
181.150000 -1.066343
181.200000 -0.977270
181.250000 -0.871066
181.300000 -0.764864
181.350000 -0.686069
181.400000 -0.627829
181.450000 -0.552459
181.500000 -0.483942
181.550000 -0.432553
181.600000 -0.394868
181.650000 -0.370887
181.700000 -0.367461
181.750000 -0.394868
181.800000 -0.449682
181.850000 -0.525052
181.900000 -0.596995
181.950000 -0.648384
182.000000 -0.706624
182.050000 -0.792271
182.100000 -0.884770
182.150000 -0.936158
182.200000 -0.949863
182.250000 -0.949862
182.300000 -0.946437
182.350000 -0.939585
182.400000 -0.905326
182.450000 -0.853937
182.500000 -0.823105
182.550000 -0.805975
182.600000 -0.754586
182.650000 -0.665513
182.700000 -0.596995
182.750000 -0.525052
182.800000 -0.422275
182.850000 -0.316072
182.900000 -0.220148
182.950000 -0.117371
183.000000 -0.059131
183.050000 -0.083112
183.100000 -0.131074
183.150000 -0.213296
183.200000 -0.377738
183.250000 -0.600421
183.300000 -0.809401
183.350000 -1.035509
183.400000 -1.285600
183.450000 -1.484301
183.500000 -1.614485
183.550000 -1.696706
183.600000 -1.720687
183.650000 -1.672725
183.700000 -1.556245
183.750000 -1.391802
183.800000 -1.230785
183.850000 -1.056065
183.900000 -0.853938
183.950000 -0.686068
184.000000 -0.596995
184.050000 -0.518200
184.100000 -0.432553
184.150000 -0.418849
184.200000 -0.477090
184.250000 -0.525051
184.300000 -0.566163
184.350000 -0.641532
184.400000 -0.710049
184.450000 -0.730606
184.500000 -0.751161
184.550000 -0.792271
184.600000 -0.812827
184.650000 -0.802549
184.700000 -0.809401
184.750000 -0.829956
184.800000 -0.819679
184.850000 -0.785420
184.900000 -0.781994
184.950000 -0.799123
185.000000 -0.819678
185.050000 -0.857363
185.100000 -0.922455
185.150000 -0.977269
185.200000 -1.021806
185.250000 -1.086898
185.300000 -1.145137
185.350000 -1.162267
185.400000 -1.155416
185.450000 -1.148564
185.500000 -1.110879
185.550000 -1.025231
185.600000 -0.908752
185.650000 -0.775142
185.700000 -0.641532
185.750000 -0.518200
185.800000 -0.398293
185.850000 -0.302369
185.900000 -0.278388
185.950000 -0.326350
186.000000 -0.388017
186.050000 -0.483941
186.100000 -0.641532
186.150000 -0.802549
186.200000 -0.949863
186.250000 -1.069768
186.300000 -1.158841
186.350000 -1.206804
186.400000 -1.230785
186.450000 -1.196527
186.500000 -1.110879
186.550000 -1.021806
186.600000 -0.925881
186.650000 -0.802549
186.700000 -0.710050
186.750000 -0.675791
186.800000 -0.655236
186.850000 -0.607273
186.900000 -0.576441
186.950000 -0.562736
187.000000 -0.535330
187.050000 -0.504496
187.100000 -0.470237
187.150000 -0.401720
187.200000 -0.333202
187.250000 -0.271536
187.300000 -0.185889
187.350000 -0.117371
187.400000 -0.083112
187.450000 -0.048853
187.500000 -0.018020
187.550000 -0.042001
187.600000 -0.076260
187.650000 -0.072834
187.700000 -0.103667
187.750000 -0.172185
187.800000 -0.196166
187.850000 -0.185889
187.900000 -0.230425
187.950000 -0.295517
188.000000 -0.316073
188.050000 -0.322924
188.100000 -0.360609
188.150000 -0.418849
188.200000 -0.477089
188.250000 -0.528478
188.300000 -0.573014
188.350000 -0.638107
188.400000 -0.682643
188.450000 -0.679217
188.500000 -0.689494
188.550000 -0.723753
188.600000 -0.710049
188.650000 -0.692920
188.700000 -0.710050
188.750000 -0.723754
188.800000 -0.727180
188.850000 -0.785419
188.900000 -0.860789
