time[ns] Raw_signal[mV]
-11.150000 0.679148
-11.100000 0.727110
-11.050000 0.744240
-11.000000 0.716833
-10.950000 0.638038
-10.900000 0.518131
-10.850000 0.363967
-10.800000 0.192672
-10.750000 0.021377
-10.700000 -0.101955
-10.650000 -0.177324
-10.600000 -0.238991
-10.550000 -0.286952
-10.500000 -0.297231
-10.450000 -0.304082
-10.400000 -0.314359
-10.350000 -0.293805
-10.300000 -0.259545
-10.250000 -0.269823
-10.200000 -0.293804
-10.150000 -0.276675
-10.100000 -0.242416
-10.050000 -0.225287
-10.000000 -0.191028
-9.950000 -0.098529
-9.900000 0.011100
-9.850000 0.110450
-9.800000 0.189246
-9.750000 0.257764
-9.700000 0.292023
-9.650000 0.261189
-9.600000 0.209801
-9.550000 0.144709
-9.500000 0.014525
-9.450000 -0.146491
-9.400000 -0.273249
-9.350000 -0.393156
-9.300000 -0.523339
-9.250000 -0.585005
-9.200000 -0.543894
-9.150000 -0.471951
-9.100000 -0.386304
-9.050000 -0.245842
-9.000000 -0.074547
-8.950000 0.079617
-8.900000 0.202950
-8.850000 0.285171
-8.800000 0.312578
-8.750000 0.292023
-8.700000 0.250912
-8.650000 0.213228
-8.600000 0.175542
-8.550000 0.144709
-8.500000 0.117302
-8.450000 0.096747
-8.400000 0.072766
-8.350000 0.086469
-8.300000 0.148136
-8.250000 0.230357
-8.200000 0.288597
-8.150000 0.316004
-8.100000 0.309153
-8.050000 0.285171
-8.000000 0.261190
-7.950000 0.240635
-7.900000 0.213227
-7.850000 0.202949
-7.800000 0.213227
-7.750000 0.247486
-7.700000 0.333134
-7.650000 0.425632
-7.600000 0.504428
-7.550000 0.583224
-7.500000 0.665444
-7.450000 0.696278
-7.400000 0.665445
-7.350000 0.607204
-7.300000 0.528409
-7.250000 0.411929
-7.200000 0.278319
-7.150000 0.137858
-7.100000 -0.009455
-7.050000 -0.132788
-7.000000 -0.232138
-6.950000 -0.293805
-6.900000 -0.280101
-6.850000 -0.218435
-6.800000 -0.160195
-6.750000 -0.071122
-6.700000 0.059062
-6.650000 0.161838
-6.600000 0.216653
-6.550000 0.268041
-6.500000 0.322855
-6.450000 0.329708
-6.400000 0.288597
-6.350000 0.240635
-6.300000 0.172116
-6.250000 0.069340
-6.200000 -0.047140
-6.150000 -0.160195
-6.100000 -0.259545
-6.050000 -0.328063
-6.000000 -0.386304
-5.950000 -0.434266
-5.900000 -0.454821
-5.850000 -0.451395
-5.800000 -0.423988
-5.750000 -0.386304
-5.700000 -0.334915
-5.650000 -0.286953
-5.600000 -0.249268
-5.550000 -0.191028
-5.500000 -0.112233
-5.450000 -0.050567
-5.400000 -0.012882
-5.350000 0.028229
-5.300000 0.045358
-5.250000 0.021377
-5.200000 0.000822
-5.150000 0.004247
-5.100000 -0.012882
-5.050000 -0.047141
-5.000000 -0.077974
-4.950000 -0.101954
-4.900000 -0.129362
-4.850000 -0.160195
-4.800000 -0.173898
-4.750000 -0.167046
-4.700000 -0.173899
-4.650000 -0.218435
-4.600000 -0.259546
-4.550000 -0.245842
-4.500000 -0.228712
-4.450000 -0.238990
-4.400000 -0.221861
-4.350000 -0.170473
-4.300000 -0.125935
-4.250000 -0.088251
-4.200000 -0.036863
-4.150000 0.017952
-4.100000 0.086470
-4.050000 0.154988
-4.000000 0.192672
-3.950000 0.216653
-3.900000 0.261190
-3.850000 0.312578
-3.800000 0.353689
-3.750000 0.408503
-3.700000 0.466744
-3.650000 0.504428
-3.600000 0.562668
-3.550000 0.651741
-3.500000 0.740814
-3.450000 0.792202
-3.400000 0.823036
-3.350000 0.829887
-3.300000 0.740814
-3.250000 0.566094
-3.200000 0.446188
-3.150000 0.415354
-3.100000 0.271467
-3.050000 -0.012881
-3.000000 -0.170472
-2.950000 -0.204732
-2.900000 -0.369174
-2.850000 -0.578153
-2.800000 -0.663801
-2.750000 -0.739170
-2.700000 -0.783707
-2.650000 -0.615838
-2.600000 -0.437692
-2.550000 -0.475377
-2.500000 -0.430840
-2.450000 -0.160195
-2.400000 -0.026585
-2.350000 -0.047140
-2.300000 0.100173
-2.250000 0.254337
-2.200000 0.137858
-2.150000 0.065914
-2.100000 0.209801
-2.050000 0.185821
-2.000000 -0.122510
-1.950000 -0.345193
-1.900000 -0.355471
-1.850000 -0.317786
-1.800000 -0.276675
-1.750000 -0.286953
-1.700000 -0.393155
-1.650000 -0.396581
-1.600000 -0.235564
-1.550000 -0.184176
-1.500000 -0.208157
-1.450000 -0.040289
-1.400000 0.172117
-1.350000 0.158413
-1.300000 0.083043
-1.250000 0.059062
-1.200000 -0.050566
-1.150000 -0.112232
-1.100000 0.011099
-1.050000 -0.053992
-1.000000 -0.393155
-0.950000 -0.509635
-0.900000 -0.386304
-0.850000 -0.447969
-0.800000 -0.557598
-0.750000 -0.423988
-0.700000 -0.338341
-0.650000 -0.461673
-0.600000 -0.434266
-0.550000 -0.228712
-0.500000 -0.167046
-0.450000 -0.187602
-0.400000 -0.050566
-0.350000 0.124155
-0.300000 0.185820
-0.250000 0.230357
-0.200000 0.298874
-0.150000 0.326282
-0.100000 0.329708
-0.050000 0.357114
0.000000 0.405077
0.050000 0.453040
0.100000 0.432484
0.150000 0.357115
0.200000 0.384521
0.250000 0.504428
0.300000 0.490725
0.350000 0.336559
0.400000 0.309152
0.450000 0.405077
0.500000 0.384522
0.550000 0.292023
0.600000 0.281745
0.650000 0.254338
0.700000 0.144709
0.750000 0.134431
0.800000 0.292023
0.850000 0.548965
0.900000 1.025163
0.950000 1.898765
1.000000 3.197178
1.050000 5.016326
1.100000 7.565186
1.150000 10.929407
1.200000 15.081593
1.250000 20.021720
1.300000 25.695001
1.350000 31.936974
1.400000 38.528386
1.450000 45.246553
1.500000 51.957873
1.550000 58.569842
1.600000 64.846068
1.650000 70.563886
1.700000 75.747246
1.750000 80.427016
1.800000 84.438736
1.850000 87.765266
1.900000 90.581356
1.950000 92.917806
2.000000 94.685566
2.050000 95.894916
2.100000 96.610926
2.150000 96.813056
2.200000 96.460186
2.250000 95.518066
2.300000 93.928446
2.350000 91.722186
2.400000 88.943786
2.450000 85.613816
2.500000 81.797366
2.550000 77.590386
2.600000 73.057926
2.650000 68.282236
2.700000 63.448306
2.750000 58.703456
2.800000 54.047666
2.850000 49.549466
2.900000 45.431556
2.950000 41.789836
3.000000 38.552356
3.050000 35.794516
3.100000 33.667036
3.150000 32.108266
3.200000 31.025684
3.250000 30.477544
3.300000 30.443284
3.350000 30.748191
3.400000 31.320307
3.450000 32.173354
3.500000 33.225104
3.550000 34.352221
3.600000 35.499899
3.650000 36.627013
3.700000 37.678766
3.750000 38.596906
3.800000 39.333466
3.850000 39.857636
3.900000 40.141976
3.950000 40.179666
4.000000 39.967256
4.050000 39.501336
4.100000 38.754496
4.150000 37.737006
4.200000 36.500256
4.250000 35.068236
4.300000 33.416956
4.350000 31.590956
4.400000 29.720416
4.450000 27.843026
4.500000 25.927966
4.550000 24.026596
4.600000 22.217722
4.650000 20.525332
4.700000 18.939145
4.750000 17.507120
4.800000 16.290929
4.850000 15.266586
4.900000 14.413538
4.950000 13.772897
5.000000 13.327537
5.050000 13.056886
5.100000 12.991797
5.150000 13.145957
5.200000 13.485125
5.250000 13.957899
5.300000 14.543731
5.350000 15.187795
5.400000 15.859267
5.450000 16.547866
5.500000 17.215920
5.550000 17.784618
5.600000 18.216281
5.650000 18.541736
5.700000 18.743862
5.750000 18.784974
5.800000 18.671928
5.850000 18.425257
5.900000 18.048413
5.950000 17.531099
6.000000 16.907587
6.050000 16.215562
6.100000 15.455017
6.150000 14.622526
6.200000 13.735216
6.250000 12.820503
6.300000 11.868105
6.350000 10.908856
6.400000 9.970162
6.450000 9.034894
6.500000 8.120182
6.550000 7.294543
6.600000 6.588809
6.650000 5.965297
6.700000 5.454839
6.750000 5.105399
6.800000 4.913548
6.850000 4.817624
6.900000 4.803920
6.950000 4.899845
7.000000 5.095120
7.050000 5.355489
7.100000 5.674096
7.150000 6.033815
7.200000 6.414088
7.250000 6.811492
7.300000 7.246579
7.350000 7.667964
7.400000 8.048238
7.450000 8.418235
7.500000 8.753971
7.550000 9.004062
7.600000 9.161652
7.650000 9.226744
7.700000 9.189060
7.750000 9.038320
7.800000 8.767675
7.850000 8.404530
7.900000 7.983147
7.950000 7.524077
8.000000 7.013619
8.050000 6.482606
8.100000 5.982426
8.150000 5.489098
8.200000 4.992344
8.250000 4.543553
8.300000 4.142723
8.350000 3.735042
8.400000 3.334213
8.450000 2.977921
8.500000 2.638757
8.550000 2.282465
8.600000 1.943301
8.650000 1.655527
8.700000 1.405437
8.750000 1.182754
8.800000 1.028589
8.850000 0.977200
8.900000 1.028589
8.950000 1.141644
9.000000 1.323216
9.050000 1.580157
9.100000 1.915895
9.150000 2.306446
9.200000 2.700424
9.250000 3.070419
9.300000 3.416434
9.350000 3.735042
9.400000 3.988558
9.450000 4.166705
9.500000 4.293463
9.550000 4.355128
9.600000 4.327721
9.650000 4.235222
9.700000 4.108465
9.750000 3.906337
9.800000 3.615136
9.850000 3.306806
9.900000 3.039587
9.950000 2.744960
10.000000 2.412649
10.050000 2.104319
10.100000 1.830247
10.150000 1.566454
10.200000 1.333494
10.250000 1.172476
10.300000 1.035441
10.350000 0.888127
10.400000 0.754518
10.450000 0.644890
10.500000 0.507854
10.550000 0.363966
10.600000 0.213227
10.650000 0.059062
10.700000 -0.095103
10.750000 -0.208157
10.800000 -0.286952
10.850000 -0.314360
10.900000 -0.283527
10.950000 -0.208158
11.000000 -0.108806
11.050000 0.041933
11.100000 0.206375
11.150000 0.363967
11.200000 0.528409
11.250000 0.692851
11.300000 0.816184
11.350000 0.905257
11.400000 0.987479
11.450000 1.049145
11.500000 1.059423
11.550000 1.028589
11.600000 0.980626
11.650000 0.922387
11.700000 0.843591
11.750000 0.723685
11.800000 0.600353
11.850000 0.490724
11.900000 0.350263
11.950000 0.175542
12.000000 0.017951
12.050000 -0.129362
12.100000 -0.321211
12.150000 -0.533617
12.200000 -0.701486
12.250000 -0.865928
12.300000 -1.057778
12.350000 -1.232499
12.400000 -1.369534
12.450000 -1.492866
12.500000 -1.588791
12.550000 -1.609346
12.600000 -1.557958
12.650000 -1.486014
12.700000 -1.369534
12.750000 -1.187962
12.800000 -0.982408
12.850000 -0.804262
12.900000 -0.615839
12.950000 -0.382877
13.000000 -0.149917
13.050000 0.017952
13.100000 0.141284
13.150000 0.254338
13.200000 0.309152
13.250000 0.292022
13.300000 0.237208
13.350000 0.175542
13.400000 0.079618
13.450000 -0.050566
13.500000 -0.197880
13.550000 -0.355471
13.600000 -0.519914
13.650000 -0.656949
13.700000 -0.759725
13.750000 -0.865928
13.800000 -0.958427
13.850000 -0.978983
13.900000 -0.958428
13.950000 -0.958427
14.000000 -0.948150
14.050000 -0.903613
14.100000 -0.876206
14.150000 -0.876206
14.200000 -0.872780
14.250000 -0.872780
14.300000 -0.910465
14.350000 -0.951575
14.400000 -0.992686
14.450000 -1.037223
14.500000 -1.037222
14.550000 -0.985835
14.600000 -0.948150
14.650000 -0.927594
14.700000 -0.845372
14.750000 -0.728893
14.800000 -0.646671
14.850000 -0.578153
14.900000 -0.523339
14.950000 -0.526765
15.000000 -0.591857
15.050000 -0.667227
15.100000 -0.776855
15.150000 -0.924168
15.200000 -1.044074
15.250000 -1.126296
15.300000 -1.211943
15.350000 -1.242776
15.400000 -1.181110
15.450000 -1.102314
15.500000 -1.037222
15.550000 -0.937872
15.600000 -0.817965
15.650000 -0.708337
15.700000 -0.608986
15.750000 -0.557598
15.800000 -0.578154
15.850000 -0.602135
15.900000 -0.622690
15.950000 -0.691208
16.000000 -0.763152
16.050000 -0.790558
16.100000 -0.824818
16.150000 -0.883058
16.200000 -0.920742
16.250000 -0.934446
16.300000 -0.961853
16.350000 -1.009815
16.400000 -1.064630
16.450000 -1.122870
16.500000 -1.167407
16.550000 -1.198239
16.600000 -1.201665
16.650000 -1.157129
16.700000 -1.078333
16.750000 -1.009815
16.800000 -0.920742
16.850000 -0.770004
16.900000 -0.612412
16.950000 -0.502784
17.000000 -0.444544
17.050000 -0.423988
17.100000 -0.465099
17.150000 -0.540469
17.200000 -0.660374
17.250000 -0.831669
17.300000 -0.996112
17.350000 -1.133148
17.400000 -1.242776
17.450000 -1.294165
17.500000 -1.263332
17.550000 -1.198239
17.600000 -1.116018
17.650000 -0.996112
17.700000 -0.879632
17.750000 -0.787132
17.800000 -0.701486
17.850000 -0.653523
17.900000 -0.691208
17.950000 -0.773429
18.000000 -0.896761
18.050000 -1.074908
18.100000 -1.273610
18.150000 -1.458607
18.200000 -1.657308
18.250000 -1.828603
18.300000 -1.921102
18.350000 -1.986194
18.400000 -2.071841
18.450000 -2.075267
18.500000 -1.962213
18.550000 -1.811474
18.600000 -1.653883
18.650000 -1.451755
18.700000 -1.242776
18.750000 -1.047501
18.800000 -0.848798
18.850000 -0.684356
18.900000 -0.595283
18.950000 -0.516487
19.000000 -0.441118
19.050000 -0.451395
19.100000 -0.509636
19.150000 -0.530191
19.200000 -0.557598
19.250000 -0.591857
19.300000 -0.561024
19.350000 -0.489080
19.400000 -0.441117
19.450000 -0.382877
19.500000 -0.310934
19.550000 -0.266397
19.600000 -0.238990
19.650000 -0.228713
19.700000 -0.297230
19.750000 -0.413710
19.800000 -0.495932
19.850000 -0.591857
19.900000 -0.739170
19.950000 -0.876206
20.000000 -0.992686
20.050000 -1.109167
20.100000 -1.198240
20.150000 -1.239350
20.200000 -1.256480
20.250000 -1.232498
20.300000 -1.184536
20.350000 -1.143425
20.400000 -1.081760
20.450000 -0.968705
20.500000 -0.855651
20.550000 -0.770003
20.600000 -0.670652
20.650000 -0.588431
20.700000 -0.564450
20.750000 -0.554172
20.800000 -0.554172
20.850000 -0.598709
20.900000 -0.670653
20.950000 -0.732319
21.000000 -0.783707
21.050000 -0.841947
21.100000 -0.872780
21.150000 -0.872780
21.200000 -0.876206
21.250000 -0.855650
21.300000 -0.804262
21.350000 -0.742596
21.400000 -0.711763
21.450000 -0.708337
21.500000 -0.728893
21.550000 -0.770003
21.600000 -0.835095
21.650000 -0.917317
21.700000 -1.009816
21.750000 -1.112592
21.800000 -1.198239
21.850000 -1.253053
21.900000 -1.290738
21.950000 -1.307868
22.000000 -1.277035
22.050000 -1.208517
22.100000 -1.136574
22.150000 -1.030371
22.200000 -0.865928
22.250000 -0.708337
22.300000 -0.595283
22.350000 -0.499358
22.400000 -0.427414
22.450000 -0.417136
22.500000 -0.458247
22.550000 -0.519913
22.600000 -0.612412
22.650000 -0.711764
22.700000 -0.773429
22.750000 -0.811114
22.800000 -0.862502
22.850000 -0.872780
22.900000 -0.821392
22.950000 -0.752873
23.000000 -0.684356
23.050000 -0.585005
23.100000 -0.506210
23.150000 -0.502784
23.200000 -0.547320
23.250000 -0.605560
23.300000 -0.694633
23.350000 -0.824818
23.400000 -0.958427
23.450000 -1.078334
23.500000 -1.167407
23.550000 -1.229072
23.600000 -1.290739
23.650000 -1.311294
23.700000 -1.277035
23.750000 -1.232498
23.800000 -1.218795
23.850000 -1.184536
23.900000 -1.139999
23.950000 -1.136574
24.000000 -1.122870
24.050000 -1.071482
24.100000 -1.030371
24.150000 -1.020093
24.200000 -0.996112
24.250000 -0.968705
24.300000 -0.951575
24.350000 -0.924169
24.400000 -0.896761
24.450000 -0.907039
24.500000 -0.924168
24.550000 -0.941298
24.600000 -1.002964
24.650000 -1.078333
24.700000 -1.116019
24.750000 -1.139999
24.800000 -1.181110
24.850000 -1.194813
24.900000 -1.194814
24.950000 -1.218795
25.000000 -1.222221
25.050000 -1.181110
25.100000 -1.153703
25.150000 -1.167406
25.200000 -1.177685
25.250000 -1.163981
25.300000 -1.163980
25.350000 -1.201666
25.400000 -1.270183
25.450000 -1.328423
25.500000 -1.359257
25.550000 -1.383238
25.600000 -1.410644
25.650000 -1.410645
25.700000 -1.396941
25.750000 -1.372960
25.800000 -1.287313
25.850000 -1.163980
25.900000 -1.068055
25.950000 -1.020094
26.000000 -0.965279
26.050000 -0.896761
26.100000 -0.845373
26.150000 -0.807688
26.200000 -0.756300
26.250000 -0.718615
26.300000 -0.715189
26.350000 -0.704911
26.400000 -0.698060
26.450000 -0.718615
26.500000 -0.759725
26.550000 -0.811114
26.600000 -0.893335
26.650000 -1.026945
26.700000 -1.177685
26.750000 -1.331849
26.800000 -1.506570
26.850000 -1.660734
26.900000 -1.780641
26.950000 -1.859436
27.000000 -1.886843
27.050000 -1.838881
27.100000 -1.729253
27.150000 -1.585365
27.200000 -1.414070
27.250000 -1.259905
27.300000 -1.133148
27.350000 -1.023519
27.400000 -0.955002
27.450000 -0.982408
27.500000 -1.078334
27.550000 -1.205091
27.600000 -1.348979
27.650000 -1.506569
27.700000 -1.650457
27.750000 -1.770363
27.800000 -1.859437
27.850000 -1.900546
27.900000 -1.886843
27.950000 -1.832030
28.000000 -1.753234
28.050000 -1.657308
28.100000 -1.554532
28.150000 -1.458607
28.200000 -1.410644
28.250000 -1.424348
28.300000 -1.482588
28.350000 -1.592217
28.400000 -1.749807
28.450000 -1.914251
28.500000 -2.058138
28.550000 -2.222581
28.600000 -2.390449
28.650000 -2.493226
28.700000 -2.558318
28.750000 -2.623409
28.800000 -2.654243
28.850000 -2.626836
28.900000 -2.568595
28.950000 -2.496652
29.000000 -2.404152
29.050000 -2.291099
29.100000 -2.174618
29.150000 -2.082119
29.200000 -2.013601
29.250000 -1.958787
29.300000 -1.879992
29.350000 -1.787493
29.400000 -1.715548
29.450000 -1.660734
29.500000 -1.602494
29.550000 -1.551106
29.600000 -1.533977
29.650000 -1.527125
29.700000 -1.506570
29.750000 -1.499718
29.800000 -1.520273
29.850000 -1.564809
29.900000 -1.626476
29.950000 -1.694994
30.000000 -1.732678
30.050000 -1.746382
30.100000 -1.763511
30.150000 -1.763512
30.200000 -1.742956
30.250000 -1.684716
30.300000 -1.602494
30.350000 -1.527125
30.400000 -1.465459
30.450000 -1.417496
30.500000 -1.383238
30.550000 -1.376386
30.600000 -1.396941
30.650000 -1.427774
30.700000 -1.479162
30.750000 -1.568236
30.800000 -1.667586
30.850000 -1.742956
30.900000 -1.814900
30.950000 -1.879992
31.000000 -1.945083
31.050000 -1.982769
31.100000 -1.996472
31.150000 -1.989621
31.200000 -1.975917
31.250000 -1.945084
31.300000 -1.907399
31.350000 -1.879992
31.400000 -1.832029
31.450000 -1.749807
31.500000 -1.688142
31.550000 -1.653883
31.600000 -1.623049
31.650000 -1.616198
31.700000 -1.647031
31.750000 -1.694994
31.800000 -1.760085
31.850000 -1.876566
31.900000 -2.003324
31.950000 -2.130081
32.000000 -2.270543
32.050000 -2.393875
32.100000 -2.455541
32.150000 -2.500077
32.200000 -2.524059
32.250000 -2.476097
32.300000 -2.345912
32.350000 -2.212303
32.400000 -2.068415
32.450000 -1.883418
32.500000 -1.705271
32.550000 -1.592217
32.600000 -1.533976
32.650000 -1.516847
32.700000 -1.547680
32.750000 -1.619624
32.800000 -1.729252
32.850000 -1.873140
32.900000 -2.013602
32.950000 -2.130081
33.000000 -2.226006
33.050000 -2.280821
33.100000 -2.297950
33.150000 -2.277395
33.200000 -2.205451
33.250000 -2.078693
33.300000 -1.945083
33.350000 -1.814900
33.400000 -1.671012
33.450000 -1.554532
33.500000 -1.482589
33.550000 -1.431200
33.600000 -1.403793
33.650000 -1.420922
33.700000 -1.462033
33.750000 -1.496292
33.800000 -1.554532
33.850000 -1.640179
33.900000 -1.715549
33.950000 -1.756659
34.000000 -1.784067
34.050000 -1.808048
34.100000 -1.842307
34.150000 -1.869714
34.200000 -1.869714
34.250000 -1.845733
34.300000 -1.818326
34.350000 -1.825177
34.400000 -1.866288
34.450000 -1.921102
34.500000 -2.006750
34.550000 -2.119804
34.600000 -2.229433
34.650000 -2.321932
34.700000 -2.414430
34.750000 -2.500077
34.800000 -2.534337
34.850000 -2.513781
34.900000 -2.472671
34.950000 -2.407579
35.000000 -2.318505
35.050000 -2.236284
35.100000 -2.171192
35.150000 -2.116378
35.200000 -2.085545
35.250000 -2.099248
35.300000 -2.123230
35.350000 -2.171192
35.400000 -2.243136
35.450000 -2.315079
35.500000 -2.356191
35.550000 -2.349339
35.600000 -2.315079
35.650000 -2.270543
35.700000 -2.212303
35.750000 -2.119804
35.800000 -2.020453
35.850000 -1.958787
35.900000 -1.917676
35.950000 -1.859436
36.000000 -1.832029
36.050000 -1.862862
36.100000 -1.914251
36.150000 -1.969065
36.200000 -2.051286
36.250000 -2.116378
36.300000 -2.136934
36.350000 -2.140359
36.400000 -2.160914
36.450000 -2.147211
36.500000 -2.092397
36.550000 -2.030731
36.600000 -1.955361
36.650000 -1.859437
36.700000 -1.780641
36.750000 -1.763511
36.800000 -1.773789
36.850000 -1.777215
36.900000 -1.794344
36.950000 -1.828603
37.000000 -1.845733
37.050000 -1.856010
37.100000 -1.879992
37.150000 -1.900547
37.200000 -1.893695
37.250000 -1.883418
37.300000 -1.869714
37.350000 -1.821751
37.400000 -1.732678
37.450000 -1.660735
37.500000 -1.660734
37.550000 -1.684716
37.600000 -1.698419
37.650000 -1.739531
37.700000 -1.835455
37.750000 -1.934806
37.800000 -2.020453
37.850000 -2.106101
37.900000 -2.188321
37.950000 -2.229433
38.000000 -2.239710
38.050000 -2.229432
38.100000 -2.195173
38.150000 -2.126656
38.200000 -2.017027
38.250000 -1.869714
38.300000 -1.736104
38.350000 -1.643606
38.400000 -1.592217
38.450000 -1.551107
38.500000 -1.523699
38.550000 -1.533977
38.600000 -1.578514
38.650000 -1.623050
38.700000 -1.653883
38.750000 -1.698420
38.800000 -1.760086
38.850000 -1.801196
38.900000 -1.821751
38.950000 -1.828603
39.000000 -1.832029
39.050000 -1.825177
39.100000 -1.808048
39.150000 -1.770364
39.200000 -1.746382
39.250000 -1.766937
39.300000 -1.825177
39.350000 -1.883418
39.400000 -1.924528
39.450000 -1.965639
39.500000 -2.030730
39.550000 -2.126655
39.600000 -2.232858
39.650000 -2.304802
39.700000 -2.366468
39.750000 -2.458967
39.800000 -2.537763
39.850000 -2.561744
39.900000 -2.530911
39.950000 -2.493226
40.000000 -2.441838
40.050000 -2.356190
40.100000 -2.243136
40.150000 -2.123230
40.200000 -2.027305
40.250000 -1.941658
40.300000 -1.849158
40.350000 -1.770363
40.400000 -1.742956
40.450000 -1.749807
40.500000 -1.773789
40.550000 -1.814900
40.600000 -1.873140
40.650000 -1.934806
40.700000 -2.013601
40.750000 -2.061564
40.800000 -2.058137
40.850000 -2.023879
40.900000 -1.969065
40.950000 -1.883418
41.000000 -1.780640
41.050000 -1.694993
41.100000 -1.616199
41.150000 -1.544255
41.200000 -1.520273
41.250000 -1.523699
41.300000 -1.489440
41.350000 -1.455182
41.400000 -1.455181
41.450000 -1.427774
41.500000 -1.352405
41.550000 -1.270183
41.600000 -1.194814
41.650000 -1.116018
41.700000 -1.078333
41.750000 -1.057778
41.800000 -1.023519
41.850000 -1.026945
41.900000 -1.088611
41.950000 -1.139999
42.000000 -1.187962
42.050000 -1.287312
42.100000 -1.390090
42.150000 -1.468884
42.200000 -1.554532
42.250000 -1.636753
42.300000 -1.681290
42.350000 -1.705272
42.400000 -1.694993
42.450000 -1.650457
42.500000 -1.602494
42.550000 -1.561384
42.600000 -1.496292
42.650000 -1.438052
42.700000 -1.420922
42.750000 -1.407219
42.800000 -1.383238
42.850000 -1.396941
42.900000 -1.441478
42.950000 -1.492866
43.000000 -1.602494
43.050000 -1.729253
43.100000 -1.832029
43.150000 -1.938231
43.200000 -2.051287
43.250000 -2.099249
43.300000 -2.126656
43.350000 -2.164340
43.400000 -2.171193
43.450000 -2.136934
43.500000 -2.116378
43.550000 -2.092397
43.600000 -2.051286
43.650000 -2.054712
43.700000 -2.109526
43.750000 -2.143786
43.800000 -2.191748
43.850000 -2.273969
43.900000 -2.297950
43.950000 -2.277395
44.000000 -2.277395
44.050000 -2.249988
44.100000 -2.136933
44.150000 -2.027305
44.200000 -1.938231
44.250000 -1.797770
44.300000 -1.633328
44.350000 -1.516847
44.400000 -1.410644
44.450000 -1.314719
44.500000 -1.270183
44.550000 -1.249628
44.600000 -1.246202
44.650000 -1.290738
44.700000 -1.366108
44.750000 -1.438051
44.800000 -1.533977
44.850000 -1.657309
44.900000 -1.777215
44.950000 -1.893695
45.000000 -1.999898
45.050000 -2.047860
45.100000 -2.051286
45.150000 -2.054712
45.200000 -2.023879
45.250000 -1.945084
45.300000 -1.856010
45.350000 -1.753234
45.400000 -1.636753
45.450000 -1.547680
45.500000 -1.472311
45.550000 -1.369534
45.600000 -1.266758
45.650000 -1.198239
45.700000 -1.119444
45.750000 -1.030371
45.800000 -0.968705
45.850000 -0.910464
45.900000 -0.838521
45.950000 -0.804262
46.000000 -0.804262
46.050000 -0.783706
46.100000 -0.773429
46.150000 -0.821392
46.200000 -0.903613
46.250000 -1.006390
46.300000 -1.122869
46.350000 -1.225646
46.400000 -1.318146
46.450000 -1.451755
46.500000 -1.581939
46.550000 -1.677864
46.600000 -1.749808
46.650000 -1.790918
46.700000 -1.784066
46.750000 -1.777215
46.800000 -1.777215
46.850000 -1.722401
46.900000 -1.626475
46.950000 -1.571662
47.000000 -1.554532
47.050000 -1.520273
47.100000 -1.503144
47.150000 -1.540829
47.200000 -1.602494
47.250000 -1.667586
47.300000 -1.746382
47.350000 -1.828604
47.400000 -1.893696
47.450000 -1.924528
47.500000 -1.927954
47.550000 -1.941658
47.600000 -1.962213
47.650000 -1.938232
47.700000 -1.873139
47.750000 -1.828604
47.800000 -1.814899
47.850000 -1.794344
47.900000 -1.780640
47.950000 -1.777215
48.000000 -1.760085
48.050000 -1.742956
48.100000 -1.742956
48.150000 -1.736105
48.200000 -1.732679
48.250000 -1.773789
48.300000 -1.828604
48.350000 -1.862862
48.400000 -1.910825
48.450000 -1.986194
48.500000 -2.054712
48.550000 -2.082119
48.600000 -2.082119
48.650000 -2.058138
48.700000 -2.010176
48.750000 -1.927954
48.800000 -1.842307
48.850000 -1.760085
48.900000 -1.657309
48.950000 -1.533976
49.000000 -1.444904
49.050000 -1.410645
49.100000 -1.400367
49.150000 -1.410644
49.200000 -1.438052
49.250000 -1.468885
49.300000 -1.523699
49.350000 -1.602494
49.400000 -1.647031
49.450000 -1.664161
49.500000 -1.708697
49.550000 -1.753233
49.600000 -1.742957
49.650000 -1.725826
49.700000 -1.739530
49.750000 -1.766937
49.800000 -1.801196
49.850000 -1.845733
49.900000 -1.883418
49.950000 -1.927954
50.000000 -2.013601
50.050000 -2.123230
50.100000 -2.215729
50.150000 -2.321931
50.200000 -2.428134
50.250000 -2.476096
50.300000 -2.476097
50.350000 -2.489800
50.400000 -2.479522
50.450000 -2.400727
50.500000 -2.260266
50.550000 -2.123230
50.600000 -1.999898
50.650000 -1.879992
50.700000 -1.753234
50.750000 -1.629901
50.800000 -1.537402
50.850000 -1.489440
50.900000 -1.455181
50.950000 -1.448330
51.000000 -1.462034
51.050000 -1.472311
51.100000 -1.465458
51.150000 -1.451755
51.200000 -1.414070
51.250000 -1.362682
51.300000 -1.331849
51.350000 -1.331850
51.400000 -1.331849
51.450000 -1.362683
51.500000 -1.444904
51.550000 -1.544254
51.600000 -1.636753
51.650000 -1.732679
51.700000 -1.828603
51.750000 -1.907399
51.800000 -1.955361
51.850000 -1.975917
51.900000 -1.975916
51.950000 -1.979342
52.000000 -1.965639
52.050000 -1.914250
52.100000 -1.859436
52.150000 -1.825178
52.200000 -1.766937
52.250000 -1.688142
52.300000 -1.684716
52.350000 -1.736104
52.400000 -1.749807
52.450000 -1.732678
52.500000 -1.729252
52.550000 -1.718975
52.600000 -1.698419
52.650000 -1.715549
52.700000 -1.742956
52.750000 -1.746382
52.800000 -1.777215
52.850000 -1.838881
52.900000 -1.883417
52.950000 -1.951935
53.000000 -2.068416
53.050000 -2.160915
53.100000 -2.222581
53.150000 -2.297950
53.200000 -2.352765
53.250000 -2.349338
53.300000 -2.339061
53.350000 -2.304802
53.400000 -2.212303
53.450000 -2.082119
53.500000 -1.962213
53.550000 -1.828603
53.600000 -1.701846
53.650000 -1.650457
53.700000 -1.664160
53.750000 -1.701845
53.800000 -1.801197
53.850000 -1.962213
53.900000 -2.143785
53.950000 -2.318506
54.000000 -2.500078
54.050000 -2.688502
54.100000 -2.835815
54.150000 -2.921462
54.200000 -2.931740
54.250000 -2.873500
54.300000 -2.777575
54.350000 -2.654243
54.400000 -2.510355
54.450000 -2.369894
54.500000 -2.236284
54.550000 -2.112952
54.600000 -2.017028
54.650000 -1.951935
54.700000 -1.907399
54.750000 -1.879992
54.800000 -1.876565
54.850000 -1.859437
54.900000 -1.856011
54.950000 -1.897121
55.000000 -1.914251
55.050000 -1.876566
55.100000 -1.859436
55.150000 -1.873140
55.200000 -1.825177
55.250000 -1.736105
55.300000 -1.674438
55.350000 -1.633328
55.400000 -1.581939
55.450000 -1.547681
55.500000 -1.499718
55.550000 -1.444904
55.600000 -1.414070
55.650000 -1.390090
55.700000 -1.331849
55.750000 -1.287313
55.800000 -1.280461
55.850000 -1.239350
55.900000 -1.184536
55.950000 -1.194813
56.000000 -1.242776
56.050000 -1.290739
56.100000 -1.400367
56.150000 -1.561384
56.200000 -1.722401
56.250000 -1.890269
56.300000 -2.085545
56.350000 -2.277395
56.400000 -2.431560
56.450000 -2.554892
56.500000 -2.626835
56.550000 -2.654243
56.600000 -2.664520
56.650000 -2.619984
56.700000 -2.520633
56.750000 -2.411005
56.800000 -2.297950
56.850000 -2.154063
56.900000 -2.013602
56.950000 -1.938232
57.000000 -1.921102
57.050000 -1.924528
57.100000 -1.951935
57.150000 -2.017028
57.200000 -2.143785
57.250000 -2.287672
57.300000 -2.404153
57.350000 -2.506930
57.400000 -2.633688
57.450000 -2.709057
57.500000 -2.702205
57.550000 -2.667946
57.600000 -2.613132
57.650000 -2.486374
57.700000 -2.335635
57.750000 -2.205452
57.800000 -2.064990
57.850000 -1.927954
57.900000 -1.876566
57.950000 -1.879992
58.000000 -1.883418
58.050000 -1.938232
58.100000 -2.061564
58.150000 -2.171193
58.200000 -2.267117
58.250000 -2.363043
58.300000 -2.404153
58.350000 -2.387024
58.400000 -2.352764
58.450000 -2.304802
58.500000 -2.246562
58.550000 -2.184896
58.600000 -2.106101
58.650000 -2.017027
58.700000 -1.996472
58.750000 -2.020453
58.800000 -2.017027
58.850000 -2.044434
58.900000 -2.123229
58.950000 -2.188322
59.000000 -2.226007
59.050000 -2.267117
59.100000 -2.277395
59.150000 -2.229432
59.200000 -2.181470
59.250000 -2.130082
59.300000 -2.051286
59.350000 -1.989620
59.400000 -1.945084
59.450000 -1.856010
59.500000 -1.749808
59.550000 -1.681290
59.600000 -1.605920
59.650000 -1.523699
59.700000 -1.496291
59.750000 -1.506569
59.800000 -1.527125
59.850000 -1.571662
59.900000 -1.629901
59.950000 -1.688142
60.000000 -1.777215
60.050000 -1.873139
60.100000 -1.938232
60.150000 -2.003324
60.200000 -2.061564
60.250000 -2.027305
60.300000 -1.945083
60.350000 -1.897121
60.400000 -1.825177
60.450000 -1.681290
60.500000 -1.554532
60.550000 -1.486014
60.600000 -1.400367
60.650000 -1.318146
60.700000 -1.314720
60.750000 -1.355830
60.800000 -1.386663
60.850000 -1.441478
60.900000 -1.523699
60.950000 -1.592217
61.000000 -1.626476
61.050000 -1.643605
61.100000 -1.636753
61.150000 -1.612772
61.200000 -1.578514
61.250000 -1.516848
61.300000 -1.444903
61.350000 -1.400367
61.400000 -1.383238
61.450000 -1.372960
61.500000 -1.369534
61.550000 -1.383237
61.600000 -1.403793
61.650000 -1.455181
61.700000 -1.530551
61.750000 -1.612773
61.800000 -1.705272
61.850000 -1.794344
61.900000 -1.845733
61.950000 -1.900547
62.000000 -1.969065
62.050000 -1.993046
62.100000 -1.979342
62.150000 -1.979342
62.200000 -1.955361
62.250000 -1.876566
62.300000 -1.770363
62.350000 -1.643606
62.400000 -1.489440
62.450000 -1.318145
62.500000 -1.157129
62.550000 -1.023519
62.600000 -0.961854
62.650000 -0.989260
62.700000 -1.040649
62.750000 -1.098889
62.800000 -1.225646
62.850000 -1.386664
62.900000 -1.520273
62.950000 -1.640179
63.000000 -1.753234
63.050000 -1.828603
63.100000 -1.849159
63.150000 -1.828603
63.200000 -1.777215
63.250000 -1.725826
63.300000 -1.664160
63.350000 -1.571662
63.400000 -1.468885
63.450000 -1.400367
63.500000 -1.369534
63.550000 -1.369534
63.600000 -1.393515
63.650000 -1.414071
63.700000 -1.431200
63.750000 -1.465459
63.800000 -1.509996
63.850000 -1.527125
63.900000 -1.547681
63.950000 -1.581939
64.000000 -1.619624
64.050000 -1.640179
64.100000 -1.667587
64.150000 -1.708697
64.200000 -1.763511
64.250000 -1.811474
64.300000 -1.818326
64.350000 -1.787492
64.400000 -1.760085
64.450000 -1.746382
64.500000 -1.698419
64.550000 -1.633327
64.600000 -1.629902
64.650000 -1.671013
64.700000 -1.677864
64.750000 -1.674438
64.800000 -1.708697
64.850000 -1.746382
64.900000 -1.746382
64.950000 -1.736105
65.000000 -1.739530
65.050000 -1.749808
65.100000 -1.766937
65.150000 -1.763511
65.200000 -1.722400
65.250000 -1.677864
65.300000 -1.674438
65.350000 -1.674438
65.400000 -1.674439
65.450000 -1.705271
65.500000 -1.773789
65.550000 -1.842307
65.600000 -1.900547
65.650000 -1.948509
65.700000 -1.969065
65.750000 -1.972490
65.800000 -1.958787
65.850000 -1.903973
65.900000 -1.828604
65.950000 -1.746382
66.000000 -1.640179
66.050000 -1.513421
66.100000 -1.417497
66.150000 -1.345553
66.200000 -1.290738
66.250000 -1.290738
66.300000 -1.369534
66.350000 -1.492867
66.400000 -1.647031
66.450000 -1.849159
66.500000 -2.051286
66.550000 -2.198599
66.600000 -2.332210
66.650000 -2.441838
66.700000 -2.465819
66.750000 -2.428134
66.800000 -2.400727
66.850000 -2.335635
66.900000 -2.229432
66.950000 -2.154063
67.000000 -2.095822
67.050000 -2.013602
67.100000 -1.962213
67.150000 -1.975917
67.200000 -1.979342
67.250000 -1.969065
67.300000 -1.965639
67.350000 -1.931380
67.400000 -1.845732
67.450000 -1.763512
67.500000 -1.664161
67.550000 -1.527125
67.600000 -1.407219
67.650000 -1.345553
67.700000 -1.314719
67.750000 -1.328424
67.800000 -1.403793
67.850000 -1.516848
67.900000 -1.671012
67.950000 -1.856011
68.000000 -2.041009
68.050000 -2.198599
68.100000 -2.335635
68.150000 -2.421282
68.200000 -2.434985
68.250000 -2.417856
68.300000 -2.390449
68.350000 -2.342486
68.400000 -2.273969
68.450000 -2.215729
68.500000 -2.167766
68.550000 -2.147211
68.600000 -2.160915
68.650000 -2.174618
68.700000 -2.178044
68.750000 -2.191748
68.800000 -2.184895
68.850000 -2.133507
68.900000 -2.061564
68.950000 -1.982768
69.000000 -1.890269
69.050000 -1.797770
69.100000 -1.722401
69.150000 -1.643605
69.200000 -1.571662
69.250000 -1.537403
69.300000 -1.530550
69.350000 -1.530551
69.400000 -1.557958
69.450000 -1.626475
69.500000 -1.691567
69.550000 -1.753234
69.600000 -1.811473
69.650000 -1.866288
69.700000 -1.917676
69.750000 -1.965639
69.800000 -1.989620
69.850000 -1.972490
69.900000 -1.948510
69.950000 -1.924528
70.000000 -1.852584
70.050000 -1.760086
70.100000 -1.667586
70.150000 -1.557958
70.200000 -1.427775
70.250000 -1.321572
70.300000 -1.232498
70.350000 -1.163981
70.400000 -1.146851
70.450000 -1.170832
70.500000 -1.201665
70.550000 -1.263331
70.600000 -1.386663
70.650000 -1.523700
70.700000 -1.653883
70.750000 -1.814900
70.800000 -1.989620
70.850000 -2.112952
70.900000 -2.184896
70.950000 -2.239710
71.000000 -2.267118
71.050000 -2.232858
71.100000 -2.140359
71.150000 -2.023879
71.200000 -1.907399
71.250000 -1.766937
71.300000 -1.629901
71.350000 -1.547680
71.400000 -1.496292
71.450000 -1.462033
71.500000 -1.472311
71.550000 -1.513421
71.600000 -1.551106
71.650000 -1.595643
71.700000 -1.653883
71.750000 -1.671013
71.800000 -1.626475
71.850000 -1.557958
71.900000 -1.468885
71.950000 -1.324997
72.000000 -1.150277
72.050000 -0.975557
72.100000 -0.838521
72.150000 -0.770004
72.200000 -0.770004
72.250000 -0.828243
72.300000 -0.955001
72.350000 -1.153703
72.400000 -1.369534
72.450000 -1.575087
72.500000 -1.777214
72.550000 -1.982769
72.600000 -2.157489
72.650000 -2.270543
72.700000 -2.328783
72.750000 -2.356190
72.800000 -2.352764
72.850000 -2.304802
72.900000 -2.239710
72.950000 -2.181470
73.000000 -2.150637
73.050000 -2.150636
73.100000 -2.164340
73.150000 -2.167766
73.200000 -2.160914
73.250000 -2.157489
73.300000 -2.126655
73.350000 -2.058138
73.400000 -1.982768
73.450000 -1.910824
73.500000 -1.818325
73.550000 -1.742956
73.600000 -1.712123
73.650000 -1.712123
73.700000 -1.766937
73.750000 -1.886843
73.800000 -2.010175
73.850000 -2.106101
73.900000 -2.232858
73.950000 -2.390449
74.000000 -2.510355
74.050000 -2.578874
74.100000 -2.623410
74.150000 -2.626836
74.200000 -2.572022
74.250000 -2.445264
74.300000 -2.267117
74.350000 -2.054712
74.400000 -1.866288
74.450000 -1.705271
74.500000 -1.557958
74.550000 -1.448330
74.600000 -1.386664
74.650000 -1.355831
74.700000 -1.369534
74.750000 -1.438052
74.800000 -1.520274
74.850000 -1.623050
74.900000 -1.753233
74.950000 -1.897121
75.000000 -2.017027
75.050000 -2.126656
75.100000 -2.222580
75.150000 -2.308227
75.200000 -2.373319
75.250000 -2.414430
75.300000 -2.452115
75.350000 -2.489800
75.400000 -2.489800
75.450000 -2.445264
75.500000 -2.400727
75.550000 -2.373320
75.600000 -2.328783
75.650000 -2.277395
75.700000 -2.232859
75.750000 -2.195174
75.800000 -2.164340
75.850000 -2.164341
75.900000 -2.167766
75.950000 -2.150637
76.000000 -2.143785
76.050000 -2.133508
76.100000 -2.085545
76.150000 -2.003324
76.200000 -1.910824
76.250000 -1.801196
76.300000 -1.667586
76.350000 -1.506570
76.400000 -1.352405
76.450000 -1.218795
76.500000 -1.136573
76.550000 -1.081760
76.600000 -1.071482
76.650000 -1.136574
76.700000 -1.270183
76.750000 -1.441477
76.800000 -1.609346
76.850000 -1.760085
76.900000 -1.873140
76.950000 -1.962213
77.000000 -2.023879
77.050000 -2.010176
77.100000 -1.945084
77.150000 -1.879992
77.200000 -1.794344
77.250000 -1.664161
77.300000 -1.551106
77.350000 -1.489440
77.400000 -1.465459
77.450000 -1.465459
77.500000 -1.503144
77.550000 -1.544254
77.600000 -1.557958
77.650000 -1.578513
77.700000 -1.612772
77.750000 -1.585365
77.800000 -1.506570
77.850000 -1.417496
77.900000 -1.321571
77.950000 -1.205091
78.000000 -1.105740
78.050000 -1.064630
78.100000 -1.047501
78.150000 -1.057778
78.200000 -1.116018
78.250000 -1.225646
78.300000 -1.366108
78.350000 -1.513422
78.400000 -1.681290
78.450000 -1.856010
78.500000 -2.010176
78.550000 -2.112952
78.600000 -2.178044
78.650000 -2.219155
78.700000 -2.246562
78.750000 -2.260265
78.800000 -2.263691
78.850000 -2.239710
78.900000 -2.181470
78.950000 -2.123230
79.000000 -2.061564
79.050000 -1.979343
79.100000 -1.893695
79.150000 -1.825177
79.200000 -1.742956
79.250000 -1.657308
79.300000 -1.602494
79.350000 -1.571662
79.400000 -1.537402
79.450000 -1.527125
79.500000 -1.561384
79.550000 -1.623050
79.600000 -1.688141
79.650000 -1.749807
79.700000 -1.797771
79.750000 -1.835456
79.800000 -1.883418
79.850000 -1.897121
79.900000 -1.856010
79.950000 -1.804622
80.000000 -1.787492
80.050000 -1.770363
80.100000 -1.753234
80.150000 -1.742956
80.200000 -1.746382
80.250000 -1.746382
80.300000 -1.770363
80.350000 -1.804622
80.400000 -1.818325
80.450000 -1.804622
80.500000 -1.780641
80.550000 -1.742956
80.600000 -1.691568
80.650000 -1.640179
80.700000 -1.595643
80.750000 -1.557958
80.800000 -1.557958
80.850000 -1.595643
80.900000 -1.633328
80.950000 -1.671012
81.000000 -1.739530
81.050000 -1.814899
81.100000 -1.869714
81.150000 -1.921103
81.200000 -1.969064
81.250000 -1.975916
81.300000 -1.965639
81.350000 -1.982768
81.400000 -1.989620
81.450000 -1.962213
81.500000 -1.941657
81.550000 -1.941658
81.600000 -1.941658
81.650000 -1.931380
81.700000 -1.917677
81.750000 -1.890269
81.800000 -1.856011
81.850000 -1.825177
81.900000 -1.787493
81.950000 -1.753233
82.000000 -1.712123
82.050000 -1.657309
82.100000 -1.616198
82.150000 -1.602495
82.200000 -1.571662
82.250000 -1.499718
82.300000 -1.424348
82.350000 -1.355830
82.400000 -1.283887
82.450000 -1.222221
82.500000 -1.174259
82.550000 -1.129722
82.600000 -1.126296
82.650000 -1.174258
82.700000 -1.249628
82.750000 -1.352405
82.800000 -1.486014
82.850000 -1.609347
82.900000 -1.701845
82.950000 -1.808048
83.000000 -1.900547
83.050000 -1.914250
83.100000 -1.883417
83.150000 -1.862862
83.200000 -1.821751
83.250000 -1.756659
83.300000 -1.715549
83.350000 -1.701845
83.400000 -1.712123
83.450000 -1.756659
83.500000 -1.804622
83.550000 -1.859436
83.600000 -1.941657
83.650000 -2.017028
83.700000 -2.044435
83.750000 -2.041009
83.800000 -2.010175
83.850000 -1.927954
83.900000 -1.804622
83.950000 -1.674439
84.000000 -1.537403
84.050000 -1.407218
84.100000 -1.314720
84.150000 -1.259905
84.200000 -1.215369
84.250000 -1.198240
84.300000 -1.205091
84.350000 -1.235924
84.400000 -1.283887
84.450000 -1.328423
84.500000 -1.359256
84.550000 -1.372960
84.600000 -1.386664
84.650000 -1.390089
84.700000 -1.393515
84.750000 -1.403793
84.800000 -1.424348
84.850000 -1.451755
84.900000 -1.516848
84.950000 -1.612772
85.000000 -1.708697
85.050000 -1.790919
85.100000 -1.897121
85.150000 -1.993046
85.200000 -2.047860
85.250000 -2.078693
85.300000 -2.119804
85.350000 -2.154062
85.400000 -2.167766
85.450000 -2.167766
85.500000 -2.157489
85.550000 -2.130081
85.600000 -2.075267
85.650000 -2.010175
85.700000 -1.958787
85.750000 -1.934806
85.800000 -1.903973
85.850000 -1.862863
85.900000 -1.838881
85.950000 -1.862862
86.000000 -1.914250
86.050000 -1.965639
86.100000 -2.027305
86.150000 -2.109526
86.200000 -2.191747
86.250000 -2.253413
86.300000 -2.291098
86.350000 -2.311654
86.400000 -2.325357
86.450000 -2.294524
86.500000 -2.212303
86.550000 -2.106101
86.600000 -2.003324
86.650000 -1.897121
86.700000 -1.773789
86.750000 -1.623049
86.800000 -1.475737
86.850000 -1.355831
86.900000 -1.253054
86.950000 -1.143425
87.000000 -1.047500
87.050000 -0.982409
87.100000 -0.948150
87.150000 -0.958427
87.200000 -1.026945
87.250000 -1.140000
87.300000 -1.270183
87.350000 -1.403793
87.400000 -1.527124
87.450000 -1.636754
87.500000 -1.708697
87.550000 -1.732678
87.600000 -1.705271
87.650000 -1.629901
87.700000 -1.496292
87.750000 -1.314720
87.800000 -1.109167
87.850000 -0.917316
87.900000 -0.766577
87.950000 -0.653523
88.000000 -0.591857
88.050000 -0.612412
88.100000 -0.725467
88.150000 -0.883058
88.200000 -1.057778
88.250000 -1.253054
88.300000 -1.427774
88.350000 -1.568235
88.400000 -1.688141
88.450000 -1.763512
88.500000 -1.770363
88.550000 -1.749808
88.600000 -1.746382
88.650000 -1.715549
88.700000 -1.636753
88.750000 -1.578513
88.800000 -1.568236
88.850000 -1.564810
88.900000 -1.537403
88.950000 -1.523699
89.000000 -1.516848
89.050000 -1.516847
89.100000 -1.527125
89.150000 -1.530551
89.200000 -1.506569
89.250000 -1.468885
89.300000 -1.458608
89.350000 -1.455181
89.400000 -1.448330
89.450000 -1.451755
89.500000 -1.496292
89.550000 -1.575087
89.600000 -1.667587
89.650000 -1.756660
89.700000 -1.842307
89.750000 -1.931380
89.800000 -1.999897
89.850000 -2.044435
89.900000 -2.068415
89.950000 -2.068416
90.000000 -2.047861
90.050000 -2.010176
90.100000 -1.945084
90.150000 -1.876566
90.200000 -1.808048
90.250000 -1.729252
90.300000 -1.633328
90.350000 -1.568236
90.400000 -1.533977
90.450000 -1.509996
90.500000 -1.530551
90.550000 -1.588791
90.600000 -1.647031
90.650000 -1.705272
90.700000 -1.763511
90.750000 -1.794345
90.800000 -1.787493
90.850000 -1.780641
90.900000 -1.784067
90.950000 -1.749808
91.000000 -1.708697
91.050000 -1.688142
91.100000 -1.657308
91.150000 -1.609347
91.200000 -1.568236
91.250000 -1.537403
91.300000 -1.516847
91.350000 -1.520273
91.400000 -1.523700
91.450000 -1.499717
91.500000 -1.465459
91.550000 -1.455182
91.600000 -1.424348
91.650000 -1.386663
91.700000 -1.362682
91.750000 -1.355830
91.800000 -1.331850
91.850000 -1.277035
91.900000 -1.208517
91.950000 -1.191388
92.000000 -1.218794
92.050000 -1.215369
92.100000 -1.191387
92.150000 -1.201665
92.200000 -1.249628
92.250000 -1.283887
92.300000 -1.321571
92.350000 -1.403793
92.400000 -1.509996
92.450000 -1.616198
92.500000 -1.725827
92.550000 -1.832029
92.600000 -1.927954
92.650000 -1.996471
92.700000 -2.020453
92.750000 -1.996471
92.800000 -1.958787
92.850000 -1.897121
92.900000 -1.790918
92.950000 -1.667587
93.000000 -1.547681
93.050000 -1.410645
93.100000 -1.270183
93.150000 -1.198239
93.200000 -1.177684
93.250000 -1.174258
93.300000 -1.198240
93.350000 -1.280461
93.400000 -1.386664
93.450000 -1.489440
93.500000 -1.592217
93.550000 -1.688142
93.600000 -1.780641
93.650000 -1.852584
93.700000 -1.876566
93.750000 -1.883417
93.800000 -1.903972
93.850000 -1.921103
93.900000 -1.921102
93.950000 -1.924529
94.000000 -1.938232
94.050000 -1.962213
94.100000 -1.999898
94.150000 -2.054712
94.200000 -2.106101
94.250000 -2.157489
94.300000 -2.208877
94.350000 -2.232858
94.400000 -2.256840
94.450000 -2.297950
94.500000 -2.291098
94.550000 -2.236284
94.600000 -2.188322
94.650000 -2.130082
94.700000 -2.027305
94.750000 -1.927955
94.800000 -1.873140
94.850000 -1.821751
94.900000 -1.777215
94.950000 -1.784067
95.000000 -1.821751
95.050000 -1.866288
95.100000 -1.914250
95.150000 -1.958787
95.200000 -1.999897
95.250000 -2.037583
95.300000 -2.030731
95.350000 -1.962213
95.400000 -1.886844
95.450000 -1.790918
95.500000 -1.623050
95.550000 -1.448330
95.600000 -1.345553
95.650000 -1.259906
95.700000 -1.160555
95.750000 -1.143425
95.800000 -1.229073
95.850000 -1.321571
95.900000 -1.410644
95.950000 -1.554532
96.000000 -1.708697
96.050000 -1.832029
96.100000 -1.921103
96.150000 -1.972491
96.200000 -1.975917
96.250000 -1.951935
96.300000 -1.890269
96.350000 -1.770363
96.400000 -1.629901
96.450000 -1.520273
96.500000 -1.444903
96.550000 -1.379811
96.600000 -1.359257
96.650000 -1.393515
96.700000 -1.458607
96.750000 -1.540829
96.800000 -1.629901
96.850000 -1.712123
96.900000 -1.801196
96.950000 -1.890269
97.000000 -1.914251
97.050000 -1.866288
97.100000 -1.804622
97.150000 -1.736105
97.200000 -1.626475
97.250000 -1.489441
97.300000 -1.348978
97.350000 -1.225647
97.400000 -1.160555
97.450000 -1.146851
97.500000 -1.146851
97.550000 -1.174259
97.600000 -1.242776
97.650000 -1.335275
97.700000 -1.444904
97.750000 -1.581939
97.800000 -1.701846
97.850000 -1.773789
97.900000 -1.825177
97.950000 -1.890269
98.000000 -1.924528
98.050000 -1.917677
98.100000 -1.924528
98.150000 -1.910824
98.200000 -1.835455
98.250000 -1.746382
98.300000 -1.677864
98.350000 -1.609346
98.400000 -1.537403
98.450000 -1.486014
98.500000 -1.448329
98.550000 -1.420922
98.600000 -1.441478
98.650000 -1.492866
98.700000 -1.544254
98.750000 -1.605921
98.800000 -1.694993
98.850000 -1.749808
98.900000 -1.753234
98.950000 -1.746382
99.000000 -1.746382
99.050000 -1.705272
99.100000 -1.623049
99.150000 -1.537403
99.200000 -1.475737
99.250000 -1.410645
99.300000 -1.352405
99.350000 -1.338701
99.400000 -1.352405
99.450000 -1.359256
99.500000 -1.372960
99.550000 -1.431200
99.600000 -1.489440
99.650000 -1.530551
99.700000 -1.564809
99.750000 -1.578513
99.800000 -1.547680
99.850000 -1.523699
99.900000 -1.492866
99.950000 -1.441478
100.000000 -1.379812
100.050000 -1.348979
100.100000 -1.324998
100.150000 -1.307868
100.200000 -1.307868
100.250000 -1.321572
100.300000 -1.331850
100.350000 -1.348978
100.400000 -1.369534
100.450000 -1.376386
100.500000 -1.366109
100.550000 -1.355831
100.600000 -1.345553
100.650000 -1.335275
100.700000 -1.345553
100.750000 -1.372960
100.800000 -1.393516
100.850000 -1.396941
100.900000 -1.414071
100.950000 -1.438052
101.000000 -1.448330
101.050000 -1.465458
101.100000 -1.482588
101.150000 -1.451755
101.200000 -1.396941
101.250000 -1.362683
101.300000 -1.345553
101.350000 -1.318145
101.400000 -1.297590
101.450000 -1.304442
101.500000 -1.338701
101.550000 -1.403793
101.600000 -1.486014
101.650000 -1.533977
101.700000 -1.544254
101.750000 -1.551107
101.800000 -1.547680
101.850000 -1.516847
101.900000 -1.472311
101.950000 -1.431200
102.000000 -1.386663
102.050000 -1.355830
102.100000 -1.362682
102.150000 -1.424348
102.200000 -1.520273
102.250000 -1.633328
102.300000 -1.753234
102.350000 -1.886844
102.400000 -2.003324
102.450000 -2.071841
102.500000 -2.082119
102.550000 -2.064990
102.600000 -1.996472
102.650000 -1.879992
102.700000 -1.725827
102.750000 -1.568235
102.800000 -1.438052
102.850000 -1.366108
102.900000 -1.348979
102.950000 -1.369534
103.000000 -1.434626
103.050000 -1.544255
103.100000 -1.674438
103.150000 -1.787493
103.200000 -1.862862
103.250000 -1.879992
103.300000 -1.849159
103.350000 -1.787493
103.400000 -1.684716
103.450000 -1.544254
103.500000 -1.410645
103.550000 -1.318146
103.600000 -1.253054
103.650000 -1.205091
103.700000 -1.177685
103.750000 -1.184536
103.800000 -1.232499
103.850000 -1.266758
103.900000 -1.259906
103.950000 -1.232499
104.000000 -1.205091
104.050000 -1.129722
104.100000 -1.002963
104.150000 -0.879631
104.200000 -0.776855
104.250000 -0.698060
104.300000 -0.691207
104.350000 -0.759726
104.400000 -0.869354
104.450000 -1.016667
104.500000 -1.218794
104.550000 -1.427774
104.600000 -1.626476
104.650000 -1.818325
104.700000 -1.962213
104.750000 -2.034157
104.800000 -2.023878
104.850000 -1.948509
104.900000 -1.787493
104.950000 -1.581939
105.000000 -1.366108
105.050000 -1.133148
105.100000 -0.900187
105.150000 -0.722041
105.200000 -0.619264
105.250000 -0.595283
105.300000 -0.660375
105.350000 -0.783707
105.400000 -0.944724
105.450000 -1.160555
105.500000 -1.386663
105.550000 -1.561384
105.600000 -1.722400
105.650000 -1.897121
105.700000 -2.006749
105.750000 -2.041008
105.800000 -2.054712
105.850000 -2.044434
105.900000 -1.999898
105.950000 -1.982768
106.000000 -2.003324
106.050000 -1.996472
106.100000 -1.969065
106.150000 -1.979342
106.200000 -1.975916
106.250000 -1.927954
106.300000 -1.886843
106.350000 -1.862862
106.400000 -1.808048
106.450000 -1.749808
106.500000 -1.715549
106.550000 -1.681290
106.600000 -1.664160
106.650000 -1.691567
106.700000 -1.742956
106.750000 -1.804622
106.800000 -1.924528
106.850000 -2.064990
106.900000 -2.181470
106.950000 -2.291098
107.000000 -2.417856
107.050000 -2.527485
107.100000 -2.592577
107.150000 -2.619983
107.200000 -2.602855
107.250000 -2.548040
107.300000 -2.482948
107.350000 -2.390450
107.400000 -2.226007
107.450000 -2.044434
107.500000 -1.897121
107.550000 -1.742956
107.600000 -1.564810
107.650000 -1.444904
107.700000 -1.410644
107.750000 -1.410645
107.800000 -1.448330
107.850000 -1.564810
107.900000 -1.708697
107.950000 -1.862862
108.000000 -2.034157
108.050000 -2.198599
108.100000 -2.291098
108.150000 -2.349339
108.200000 -2.400727
108.250000 -2.397302
108.300000 -2.328783
108.350000 -2.243136
108.400000 -2.140359
108.450000 -2.023879
108.500000 -1.910825
108.550000 -1.804622
108.600000 -1.691568
108.650000 -1.599069
108.700000 -1.537403
108.750000 -1.486015
108.800000 -1.441477
108.850000 -1.424348
108.900000 -1.420922
108.950000 -1.386664
109.000000 -1.348978
109.050000 -1.331849
109.100000 -1.324997
109.150000 -1.297590
109.200000 -1.266757
109.250000 -1.259906
109.300000 -1.256480
109.350000 -1.263331
109.400000 -1.307868
109.450000 -1.362682
109.500000 -1.407219
109.550000 -1.458607
109.600000 -1.537402
109.650000 -1.571661
109.700000 -1.540829
109.750000 -1.496292
109.800000 -1.438052
109.850000 -1.342127
109.900000 -1.229073
109.950000 -1.146851
110.000000 -1.074908
110.050000 -1.037223
110.100000 -1.085185
110.150000 -1.208517
110.200000 -1.352404
110.250000 -1.547680
110.300000 -1.828603
110.350000 -2.116378
110.400000 -2.352764
110.450000 -2.565170
110.500000 -2.753594
110.550000 -2.870074
110.600000 -2.918036
110.650000 -2.921462
110.700000 -2.839241
110.750000 -2.674798
110.800000 -2.496652
110.850000 -2.342486
110.900000 -2.219155
110.950000 -2.126656
111.000000 -2.061563
111.050000 -2.010176
111.100000 -2.003324
111.150000 -2.058138
111.200000 -2.140359
111.250000 -2.215729
111.300000 -2.308228
111.350000 -2.400727
111.400000 -2.489800
111.450000 -2.558318
111.500000 -2.585725
111.550000 -2.565169
111.600000 -2.503504
111.650000 -2.414431
111.700000 -2.284246
111.750000 -2.123230
111.800000 -1.941658
111.850000 -1.763512
111.900000 -1.588791
111.950000 -1.410644
112.000000 -1.229072
112.050000 -1.081760
112.100000 -0.972131
112.150000 -0.883057
112.200000 -0.848799
112.250000 -0.865928
112.300000 -0.879631
112.350000 -0.889910
112.400000 -0.958427
112.450000 -1.085185
112.500000 -1.205092
112.550000 -1.301016
112.600000 -1.403793
112.650000 -1.509995
112.700000 -1.588791
112.750000 -1.629902
112.800000 -1.653883
112.850000 -1.674438
112.900000 -1.684716
112.950000 -1.677865
113.000000 -1.650457
113.050000 -1.612773
113.100000 -1.561383
113.150000 -1.516848
113.200000 -1.503143
113.250000 -1.506569
113.300000 -1.513421
113.350000 -1.551106
113.400000 -1.609347
113.450000 -1.660735
113.500000 -1.729252
113.550000 -1.862862
113.600000 -2.010175
113.650000 -2.143785
113.700000 -2.291099
113.750000 -2.438411
113.800000 -2.520633
113.850000 -2.554892
113.900000 -2.575447
113.950000 -2.534337
114.000000 -2.397301
114.050000 -2.232858
114.100000 -2.088971
114.150000 -1.941658
114.200000 -1.801196
114.250000 -1.712123
114.300000 -1.677865
114.350000 -1.694994
114.400000 -1.753234
114.450000 -1.838881
114.500000 -1.951936
114.550000 -2.078694
114.600000 -2.184896
114.650000 -2.246562
114.700000 -2.287672
114.750000 -2.277395
114.800000 -2.184895
114.850000 -2.044434
114.900000 -1.893695
114.950000 -1.705271
115.000000 -1.479163
115.050000 -1.290739
115.100000 -1.143425
115.150000 -1.006390
115.200000 -0.903613
115.250000 -0.855651
115.300000 -0.835095
115.350000 -0.852224
115.400000 -0.910464
115.450000 -0.972131
115.500000 -1.040648
115.550000 -1.167406
115.600000 -1.290738
115.650000 -1.386663
115.700000 -1.513421
115.750000 -1.691568
115.800000 -1.845732
115.850000 -1.941657
115.900000 -2.034156
115.950000 -2.123230
116.000000 -2.178044
116.050000 -2.208877
116.100000 -2.205451
116.150000 -2.147211
116.200000 -2.047861
116.250000 -1.938232
116.300000 -1.842307
116.350000 -1.732678
116.400000 -1.619624
116.450000 -1.544255
116.500000 -1.520273
116.550000 -1.503144
116.600000 -1.482589
116.650000 -1.520273
116.700000 -1.595642
116.750000 -1.643605
116.800000 -1.653883
116.850000 -1.688141
116.900000 -1.736105
116.950000 -1.742956
117.000000 -1.722401
117.050000 -1.705271
117.100000 -1.694993
117.150000 -1.688142
117.200000 -1.688141
117.250000 -1.681290
117.300000 -1.664161
117.350000 -1.647031
117.400000 -1.623050
117.450000 -1.605921
117.500000 -1.599069
117.550000 -1.599068
117.600000 -1.588791
117.650000 -1.602495
117.700000 -1.636753
117.750000 -1.657309
117.800000 -1.674438
117.850000 -1.736104
117.900000 -1.794345
117.950000 -1.797771
118.000000 -1.814900
118.050000 -1.879992
118.100000 -1.914250
118.150000 -1.886843
118.200000 -1.859436
118.250000 -1.825177
118.300000 -1.770363
118.350000 -1.746381
118.400000 -1.753234
118.450000 -1.753234
118.500000 -1.777215
118.550000 -1.845733
118.600000 -1.907399
118.650000 -1.951935
118.700000 -1.982769
118.750000 -1.975917
118.800000 -1.924528
118.850000 -1.849158
118.900000 -1.756659
118.950000 -1.629901
119.000000 -1.492866
119.050000 -1.366108
119.100000 -1.249628
119.150000 -1.177684
119.200000 -1.146851
119.250000 -1.150277
119.300000 -1.191388
119.350000 -1.280461
119.400000 -1.417497
119.450000 -1.571661
119.500000 -1.722401
119.550000 -1.849159
119.600000 -1.965639
119.650000 -2.061564
119.700000 -2.109526
119.750000 -2.112952
119.800000 -2.116378
119.850000 -2.106100
119.900000 -2.047860
119.950000 -1.934806
120.000000 -1.804622
120.050000 -1.667586
120.100000 -1.530551
120.150000 -1.390090
120.200000 -1.266758
120.250000 -1.177684
120.300000 -1.109167
120.350000 -1.068056
120.400000 -1.071481
120.450000 -1.119444
120.500000 -1.184536
120.550000 -1.270183
120.600000 -1.366108
120.650000 -1.431200
120.700000 -1.462033
120.750000 -1.486015
120.800000 -1.499718
120.850000 -1.486014
120.900000 -1.465459
120.950000 -1.451756
121.000000 -1.431200
121.050000 -1.427774
121.100000 -1.486014
121.150000 -1.578513
121.200000 -1.660735
121.250000 -1.736105
121.300000 -1.835455
121.350000 -1.951935
121.400000 -2.037583
121.450000 -2.102674
121.500000 -2.147211
121.550000 -2.164340
121.600000 -2.167767
121.650000 -2.181470
121.700000 -2.205451
121.750000 -2.219154
121.800000 -2.246562
121.850000 -2.273969
121.900000 -2.294524
121.950000 -2.339061
122.000000 -2.390449
122.050000 -2.383597
122.100000 -2.321931
122.150000 -2.267117
122.200000 -2.191748
122.250000 -2.061564
122.300000 -1.924529
122.350000 -1.821751
122.400000 -1.742956
122.450000 -1.650457
122.500000 -1.571662
122.550000 -1.540829
122.600000 -1.557958
122.650000 -1.585365
122.700000 -1.629901
122.750000 -1.708697
122.800000 -1.787492
122.850000 -1.842307
122.900000 -1.873139
122.950000 -1.876566
123.000000 -1.821751
123.050000 -1.705271
123.100000 -1.564810
123.150000 -1.407218
123.200000 -1.232498
123.250000 -1.054352
123.300000 -0.903613
123.350000 -0.783707
123.400000 -0.687782
123.450000 -0.643245
123.500000 -0.680930
123.550000 -0.766577
123.600000 -0.855651
123.650000 -0.961853
123.700000 -1.112593
123.750000 -1.280461
123.800000 -1.434626
123.850000 -1.575088
123.900000 -1.708697
123.950000 -1.821751
124.000000 -1.890269
124.050000 -1.917676
124.100000 -1.910824
124.150000 -1.873139
124.200000 -1.814899
124.250000 -1.753233
124.300000 -1.694994
124.350000 -1.650457
124.400000 -1.636753
124.450000 -1.650457
124.500000 -1.677864
124.550000 -1.742956
124.600000 -1.852584
124.650000 -1.975916
124.700000 -2.068416
124.750000 -2.143785
124.800000 -2.184896
124.850000 -2.147211
124.900000 -2.051286
124.950000 -1.934806
125.000000 -1.797771
125.050000 -1.629902
125.100000 -1.475736
125.150000 -1.342127
125.200000 -1.222220
125.250000 -1.139999
125.300000 -1.112592
125.350000 -1.126295
125.400000 -1.167407
125.450000 -1.211943
125.500000 -1.253054
125.550000 -1.304442
125.600000 -1.366108
125.650000 -1.403793
125.700000 -1.410644
125.750000 -1.427775
125.800000 -1.462033
125.850000 -1.475737
125.900000 -1.489440
125.950000 -1.513421
126.000000 -1.523699
126.050000 -1.499718
126.100000 -1.444903
126.150000 -1.403793
126.200000 -1.396941
126.250000 -1.400367
126.300000 -1.393516
126.350000 -1.396941
126.400000 -1.455181
126.450000 -1.530551
126.500000 -1.629901
126.550000 -1.763512
126.600000 -1.907398
126.650000 -2.003324
126.700000 -2.068416
126.750000 -2.136933
126.800000 -2.167767
126.850000 -2.123230
126.900000 -2.041009
126.950000 -1.945084
127.000000 -1.825177
127.050000 -1.705271
127.100000 -1.595643
127.150000 -1.509995
127.200000 -1.462033
127.250000 -1.431200
127.300000 -1.396941
127.350000 -1.372960
127.400000 -1.379811
127.450000 -1.383238
127.500000 -1.355830
127.550000 -1.338701
127.600000 -1.331849
127.650000 -1.335275
127.700000 -1.352405
127.750000 -1.379812
127.800000 -1.434625
127.850000 -1.537403
127.900000 -1.671012
127.950000 -1.808048
128.000000 -1.955361
128.050000 -2.099249
128.100000 -2.198599
128.150000 -2.260265
128.200000 -2.308228
128.250000 -2.304802
128.300000 -2.232858
128.350000 -2.147211
128.400000 -2.051287
128.450000 -1.910825
128.500000 -1.770363
128.550000 -1.671012
128.600000 -1.595643
128.650000 -1.527125
128.700000 -1.513422
128.750000 -1.547680
128.800000 -1.616198
128.850000 -1.698419
128.900000 -1.784067
128.950000 -1.876566
129.000000 -1.996472
129.050000 -2.109526
129.100000 -2.184895
129.150000 -2.263691
129.200000 -2.356190
129.250000 -2.397301
129.300000 -2.373320
129.350000 -2.332209
129.400000 -2.280821
129.450000 -2.184896
129.500000 -2.051286
129.550000 -1.897121
129.600000 -1.725826
129.650000 -1.540828
129.700000 -1.362683
129.750000 -1.215369
129.800000 -1.102315
129.850000 -1.037223
129.900000 -1.023519
129.950000 -1.047500
130.000000 -1.112592
130.050000 -1.201665
130.100000 -1.283887
130.150000 -1.379812
130.200000 -1.492866
130.250000 -1.571662
130.300000 -1.619624
130.350000 -1.684716
130.400000 -1.763511
130.450000 -1.825178
130.500000 -1.890269
130.550000 -1.982768
130.600000 -2.061564
130.650000 -2.119804
130.700000 -2.219155
130.750000 -2.335635
130.800000 -2.400727
130.850000 -2.407579
130.900000 -2.404153
130.950000 -2.397301
131.000000 -2.369893
131.050000 -2.301376
131.100000 -2.215729
131.150000 -2.143785
131.200000 -2.058138
131.250000 -1.934806
131.300000 -1.801197
131.350000 -1.674438
131.400000 -1.520273
131.450000 -1.342127
131.500000 -1.191388
131.550000 -1.071482
131.600000 -0.972130
131.650000 -0.883057
131.700000 -0.831669
131.750000 -0.848799
131.800000 -0.968705
131.850000 -1.143425
131.900000 -1.314719
131.950000 -1.492866
132.000000 -1.684716
132.050000 -1.818326
132.100000 -1.893695
132.150000 -1.938232
132.200000 -1.941657
132.250000 -1.890269
132.300000 -1.804622
132.350000 -1.701845
132.400000 -1.568236
132.450000 -1.434626
132.500000 -1.359257
132.550000 -1.331849
132.600000 -1.307868
132.650000 -1.307868
132.700000 -1.345553
132.750000 -1.424348
132.800000 -1.523699
132.850000 -1.605920
132.900000 -1.647031
132.950000 -1.667587
133.000000 -1.667587
133.050000 -1.633328
133.100000 -1.578513
133.150000 -1.523699
133.200000 -1.465459
133.250000 -1.414071
133.300000 -1.386664
133.350000 -1.372959
133.400000 -1.376385
133.450000 -1.414071
133.500000 -1.486014
133.550000 -1.557958
133.600000 -1.605920
133.650000 -1.643605
133.700000 -1.650457
133.750000 -1.609346
133.800000 -1.516847
133.850000 -1.379811
133.900000 -1.229073
133.950000 -1.105740
134.000000 -1.013241
134.050000 -0.941298
134.100000 -0.924168
134.150000 -0.992686
134.200000 -1.102314
134.250000 -1.229072
134.300000 -1.379812
134.350000 -1.557958
134.400000 -1.742956
134.450000 -1.890269
134.500000 -1.972491
134.550000 -2.006750
134.600000 -2.020454
134.650000 -1.996472
134.700000 -1.893695
134.750000 -1.742956
134.800000 -1.612773
134.850000 -1.486014
134.900000 -1.345553
134.950000 -1.225647
135.000000 -1.129721
135.050000 -1.037223
135.100000 -0.978982
135.150000 -0.978983
135.200000 -1.009816
135.250000 -1.054352
135.300000 -1.126296
135.350000 -1.205091
135.400000 -1.263331
135.450000 -1.324998
135.500000 -1.403793
135.550000 -1.448329
135.600000 -1.444904
135.650000 -1.451756
135.700000 -1.465459
135.750000 -1.438052
135.800000 -1.393515
135.850000 -1.393515
135.900000 -1.434625
135.950000 -1.465459
136.000000 -1.520273
136.050000 -1.626476
136.100000 -1.756660
136.150000 -1.897121
136.200000 -2.051286
136.250000 -2.184896
136.300000 -2.256839
136.350000 -2.291098
136.400000 -2.273969
136.450000 -2.174618
136.500000 -2.030731
136.550000 -1.886844
136.600000 -1.722401
136.650000 -1.551107
136.700000 -1.414070
136.750000 -1.304442
136.800000 -1.215369
136.850000 -1.187961
136.900000 -1.215369
136.950000 -1.256480
137.000000 -1.338701
137.050000 -1.489440
137.100000 -1.636754
137.150000 -1.742956
137.200000 -1.849159
137.250000 -1.958787
137.300000 -2.010175
137.350000 -2.020454
137.400000 -2.034157
137.450000 -2.027305
137.500000 -2.003324
137.550000 -1.982769
137.600000 -1.951935
137.650000 -1.886844
137.700000 -1.790918
137.750000 -1.681290
137.800000 -1.554532
137.850000 -1.417497
137.900000 -1.301016
137.950000 -1.225647
138.000000 -1.184536
138.050000 -1.191388
138.100000 -1.253053
138.150000 -1.366108
138.200000 -1.533977
138.250000 -1.732679
138.300000 -1.931380
138.350000 -2.126656
138.400000 -2.311654
138.450000 -2.438412
138.500000 -2.500078
138.550000 -2.517207
138.600000 -2.472671
138.650000 -2.325357
138.700000 -2.126656
138.750000 -1.934806
138.800000 -1.770363
138.850000 -1.626476
138.900000 -1.523699
138.950000 -1.448329
139.000000 -1.414071
139.050000 -1.448329
139.100000 -1.527125
139.150000 -1.623050
139.200000 -1.736104
139.250000 -1.859436
139.300000 -1.965639
139.350000 -2.078693
139.400000 -2.171192
139.450000 -2.202026
139.500000 -2.184896
139.550000 -2.154063
139.600000 -2.092397
139.650000 -1.993046
139.700000 -1.897121
139.750000 -1.801197
139.800000 -1.708697
139.850000 -1.647031
139.900000 -1.626476
139.950000 -1.629901
140.000000 -1.667586
140.050000 -1.729253
140.100000 -1.794345
140.150000 -1.876566
140.200000 -1.969065
140.250000 -2.023879
140.300000 -2.054712
140.350000 -2.078694
140.400000 -2.054712
140.450000 -1.955361
140.500000 -1.845733
140.550000 -1.766938
140.600000 -1.677864
140.650000 -1.595643
140.700000 -1.575087
140.750000 -1.605920
140.800000 -1.650457
140.850000 -1.698419
140.900000 -1.756659
140.950000 -1.825177
141.000000 -1.873139
141.050000 -1.883417
141.100000 -1.849158
141.150000 -1.777215
141.200000 -1.671013
141.250000 -1.533976
141.300000 -1.396941
141.350000 -1.280461
141.400000 -1.181111
141.450000 -1.081760
141.500000 -1.009815
141.550000 -0.965279
141.600000 -0.927594
141.650000 -0.900187
141.700000 -0.900187
141.750000 -0.924168
141.800000 -0.961853
141.850000 -0.999538
141.900000 -1.020093
141.950000 -1.047501
142.000000 -1.105741
142.050000 -1.153703
142.100000 -1.160554
142.150000 -1.177684
142.200000 -1.225647
142.250000 -1.256480
142.300000 -1.253054
142.350000 -1.249628
142.400000 -1.239350
142.450000 -1.198239
142.500000 -1.163981
142.550000 -1.163981
142.600000 -1.163981
142.650000 -1.181110
142.700000 -1.246202
142.750000 -1.342127
142.800000 -1.451755
142.850000 -1.571662
142.900000 -1.674438
142.950000 -1.763511
143.000000 -1.849159
143.050000 -1.907399
143.100000 -1.921103
143.150000 -1.921103
143.200000 -1.917677
143.250000 -1.893695
143.300000 -1.873139
143.350000 -1.883418
143.400000 -1.886844
143.450000 -1.883417
143.500000 -1.900547
143.550000 -1.924528
143.600000 -1.931380
143.650000 -1.921103
143.700000 -1.886843
143.750000 -1.814899
143.800000 -1.725826
143.850000 -1.671012
143.900000 -1.619624
143.950000 -1.547681
144.000000 -1.496292
144.050000 -1.492866
144.100000 -1.516848
144.150000 -1.557958
144.200000 -1.599069
144.250000 -1.640179
144.300000 -1.667587
144.350000 -1.671013
144.400000 -1.629902
144.450000 -1.571661
144.500000 -1.479163
144.550000 -1.328424
144.600000 -1.139999
144.650000 -0.972130
144.700000 -0.855650
144.750000 -0.776855
144.800000 -0.756300
144.850000 -0.807688
144.900000 -0.879632
144.950000 -0.968704
145.000000 -1.081759
145.050000 -1.194813
145.100000 -1.287312
145.150000 -1.355830
145.200000 -1.386664
145.250000 -1.359256
145.300000 -1.318145
145.350000 -1.314720
145.400000 -1.311293
145.450000 -1.294164
145.500000 -1.301016
145.550000 -1.335275
145.600000 -1.366108
145.650000 -1.420922
145.700000 -1.506570
145.750000 -1.588791
145.800000 -1.643605
145.850000 -1.667587
145.900000 -1.650457
145.950000 -1.592216
146.000000 -1.516847
146.050000 -1.431200
146.100000 -1.345553
146.150000 -1.294164
146.200000 -1.266757
146.250000 -1.229072
146.300000 -1.208517
146.350000 -1.225647
146.400000 -1.246202
146.450000 -1.256479
146.500000 -1.277035
146.550000 -1.321571
146.600000 -1.383237
146.650000 -1.458607
146.700000 -1.523699
146.750000 -1.575088
146.800000 -1.626476
146.850000 -1.681290
146.900000 -1.718975
146.950000 -1.756659
147.000000 -1.784067
147.050000 -1.784067
147.100000 -1.756659
147.150000 -1.722400
147.200000 -1.674438
147.250000 -1.605921
147.300000 -1.516847
147.350000 -1.410645
147.400000 -1.318145
147.450000 -1.253054
147.500000 -1.205091
147.550000 -1.157129
147.600000 -1.126296
147.650000 -1.133148
147.700000 -1.150277
147.750000 -1.205091
147.800000 -1.297590
147.850000 -1.390089
147.900000 -1.479163
147.950000 -1.585365
148.000000 -1.691568
148.050000 -1.787493
148.100000 -1.897121
148.150000 -2.023879
148.200000 -2.123229
148.250000 -2.202025
148.300000 -2.267117
148.350000 -2.304802
148.400000 -2.308228
148.450000 -2.273969
148.500000 -2.191747
148.550000 -2.064989
148.600000 -1.903973
148.650000 -1.708697
148.700000 -1.468885
148.750000 -1.242776
148.800000 -1.071482
148.850000 -0.937871
148.900000 -0.848799
148.950000 -0.824817
149.000000 -0.865928
149.050000 -0.941298
149.100000 -1.081759
149.150000 -1.253054
149.200000 -1.390089
149.250000 -1.486014
149.300000 -1.564809
149.350000 -1.602494
149.400000 -1.564810
149.450000 -1.458607
149.500000 -1.301016
149.550000 -1.136573
149.600000 -0.996112
149.650000 -0.852224
149.700000 -0.711763
149.750000 -0.636394
149.800000 -0.636393
149.850000 -0.650097
149.900000 -0.691207
149.950000 -0.763152
150.000000 -0.838521
150.050000 -0.903613
150.100000 -0.975557
150.150000 -1.023519
150.200000 -1.050926
150.250000 -1.092037
150.300000 -1.143426
150.350000 -1.174258
150.400000 -1.222221
150.450000 -1.301016
150.500000 -1.369534
150.550000 -1.441478
150.600000 -1.527125
150.650000 -1.575088
150.700000 -1.578514
150.750000 -1.571662
150.800000 -1.537403
150.850000 -1.444904
150.900000 -1.324997
150.950000 -1.211943
151.000000 -1.102314
151.050000 -1.013241
151.100000 -0.972131
151.150000 -0.961853
151.200000 -0.992686
151.250000 -1.071481
151.300000 -1.184536
151.350000 -1.328423
151.400000 -1.496292
151.450000 -1.636754
151.500000 -1.718975
151.550000 -1.784067
151.600000 -1.835455
151.650000 -1.814900
151.700000 -1.736104
151.750000 -1.640179
151.800000 -1.516847
151.850000 -1.359256
151.900000 -1.205091
151.950000 -1.078333
152.000000 -0.978982
152.050000 -0.900187
152.100000 -0.852225
152.150000 -0.855650
152.200000 -0.913890
152.250000 -0.985835
152.300000 -1.044074
152.350000 -1.133147
152.400000 -1.277035
152.450000 -1.414071
152.500000 -1.516847
152.550000 -1.633328
152.600000 -1.722401
152.650000 -1.732678
152.700000 -1.725827
152.750000 -1.718975
152.800000 -1.650457
152.850000 -1.547680
152.900000 -1.475737
152.950000 -1.403793
153.000000 -1.328423
153.050000 -1.297590
153.100000 -1.290739
153.150000 -1.263332
153.200000 -1.266757
153.250000 -1.335275
153.300000 -1.414071
153.350000 -1.468885
153.400000 -1.516847
153.450000 -1.544254
153.500000 -1.527125
153.550000 -1.513421
153.600000 -1.523699
153.650000 -1.496292
153.700000 -1.455181
153.750000 -1.472310
153.800000 -1.503143
153.850000 -1.496292
153.900000 -1.499718
153.950000 -1.544254
154.000000 -1.564809
154.050000 -1.537402
154.100000 -1.547681
154.150000 -1.602494
154.200000 -1.623050
154.250000 -1.585365
154.300000 -1.530551
154.350000 -1.492866
154.400000 -1.444903
154.450000 -1.379811
154.500000 -1.321571
154.550000 -1.290739
154.600000 -1.277035
154.650000 -1.290738
154.700000 -1.362682
154.750000 -1.455181
154.800000 -1.533977
154.850000 -1.612773
154.900000 -1.725826
154.950000 -1.821751
155.000000 -1.856010
155.050000 -1.838881
155.100000 -1.825177
155.150000 -1.794344
155.200000 -1.712123
155.250000 -1.595642
155.300000 -1.503143
155.350000 -1.434626
155.400000 -1.386663
155.450000 -1.366108
155.500000 -1.403792
155.550000 -1.482588
155.600000 -1.578514
155.650000 -1.691567
155.700000 -1.814900
155.750000 -1.938232
155.800000 -2.037582
155.850000 -2.092397
155.900000 -2.112952
155.950000 -2.123230
156.000000 -2.106101
156.050000 -2.030731
156.100000 -1.917677
156.150000 -1.808048
156.200000 -1.708697
156.250000 -1.595643
156.300000 -1.486014
156.350000 -1.407219
156.400000 -1.379812
156.450000 -1.390089
156.500000 -1.420922
156.550000 -1.486014
156.600000 -1.592217
156.650000 -1.684716
156.700000 -1.760085
156.750000 -1.832030
156.800000 -1.890269
156.850000 -1.893695
156.900000 -1.842306
156.950000 -1.780640
157.000000 -1.708697
157.050000 -1.616198
157.100000 -1.527125
157.150000 -1.465459
157.200000 -1.431200
157.250000 -1.420923
157.300000 -1.390089
157.350000 -1.331849
157.400000 -1.307868
157.450000 -1.331849
157.500000 -1.324997
157.550000 -1.263331
157.600000 -1.208517
157.650000 -1.153703
157.700000 -1.074908
157.750000 -1.016667
157.800000 -0.982408
157.850000 -0.927594
157.900000 -0.896762
157.950000 -0.941298
158.000000 -1.016668
158.050000 -1.078333
158.100000 -1.163981
158.150000 -1.266758
158.200000 -1.345552
158.250000 -1.444903
158.300000 -1.592217
158.350000 -1.712123
158.400000 -1.790919
158.450000 -1.893695
158.500000 -2.003324
158.550000 -2.071841
158.600000 -2.119804
158.650000 -2.157488
158.700000 -2.164341
158.750000 -2.130082
158.800000 -2.078693
158.850000 -1.996471
158.900000 -1.886843
158.950000 -1.773789
159.000000 -1.657309
159.050000 -1.527125
159.100000 -1.386663
159.150000 -1.256480
159.200000 -1.163981
159.250000 -1.119444
159.300000 -1.085186
159.350000 -1.054352
159.400000 -1.068056
159.450000 -1.116018
159.500000 -1.157129
159.550000 -1.222221
159.600000 -1.359256
159.650000 -1.492866
159.700000 -1.585365
159.750000 -1.671012
159.800000 -1.756660
159.850000 -1.773789
159.900000 -1.753234
159.950000 -1.718975
160.000000 -1.623050
160.050000 -1.489440
160.100000 -1.390089
160.150000 -1.324998
160.200000 -1.256480
160.250000 -1.225647
160.300000 -1.253054
160.350000 -1.314720
160.400000 -1.424348
160.450000 -1.571661
160.500000 -1.698420
160.550000 -1.814900
160.600000 -1.948509
160.650000 -2.030730
160.700000 -2.020453
160.750000 -1.975917
160.800000 -1.917677
160.850000 -1.790919
160.900000 -1.626476
160.950000 -1.486014
161.000000 -1.369534
161.050000 -1.263331
161.100000 -1.211943
161.150000 -1.208517
161.200000 -1.225647
161.250000 -1.294165
161.300000 -1.414070
161.350000 -1.551106
161.400000 -1.674438
161.450000 -1.814900
161.500000 -1.955361
161.550000 -2.058138
161.600000 -2.136933
161.650000 -2.219154
161.700000 -2.291098
161.750000 -2.301376
161.800000 -2.260266
161.850000 -2.205451
161.900000 -2.143785
161.950000 -2.044434
162.000000 -1.924528
162.050000 -1.808048
162.100000 -1.701845
162.150000 -1.605920
162.200000 -1.557958
162.250000 -1.540829
162.300000 -1.540829
162.350000 -1.588791
162.400000 -1.691568
162.450000 -1.801197
162.500000 -1.910825
162.550000 -2.051287
162.600000 -2.188321
162.650000 -2.260266
162.700000 -2.291098
162.750000 -2.297950
162.800000 -2.267118
162.850000 -2.205451
162.900000 -2.136933
162.950000 -2.058138
163.000000 -1.948510
163.050000 -1.825178
163.100000 -1.712123
163.150000 -1.602495
163.200000 -1.516847
163.250000 -1.482588
163.300000 -1.472311
163.350000 -1.496292
163.400000 -1.585365
163.450000 -1.729253
163.500000 -1.873140
163.550000 -2.020453
163.600000 -2.174618
163.650000 -2.311654
163.700000 -2.417857
163.750000 -2.469245
163.800000 -2.448689
163.850000 -2.373320
163.900000 -2.270543
163.950000 -2.136934
164.000000 -1.969064
164.050000 -1.808047
164.100000 -1.674438
164.150000 -1.571661
164.200000 -1.516847
164.250000 -1.513422
164.300000 -1.568236
164.350000 -1.657309
164.400000 -1.742956
164.450000 -1.797770
164.500000 -1.845733
164.550000 -1.890269
164.600000 -1.914250
164.650000 -1.886844
164.700000 -1.814900
164.750000 -1.701845
164.800000 -1.578513
164.850000 -1.475737
164.900000 -1.414070
164.950000 -1.376385
165.000000 -1.355831
165.050000 -1.331849
165.100000 -1.314720
165.150000 -1.318145
165.200000 -1.355830
165.250000 -1.396941
165.300000 -1.448329
165.350000 -1.527125
165.400000 -1.609346
165.450000 -1.684716
165.500000 -1.787493
165.550000 -1.897122
165.600000 -1.975916
165.650000 -1.999898
165.700000 -2.006750
165.750000 -2.017028
165.800000 -1.996472
165.850000 -1.917676
165.900000 -1.801196
165.950000 -1.677864
166.000000 -1.564810
166.050000 -1.438052
166.100000 -1.280460
166.150000 -1.126296
166.200000 -1.016668
166.250000 -0.961853
166.300000 -0.944724
166.350000 -0.982408
166.400000 -1.078333
166.450000 -1.205092
166.500000 -1.352404
166.550000 -1.533976
166.600000 -1.729252
166.650000 -1.897121
166.700000 -2.037583
166.750000 -2.147211
166.800000 -2.202025
166.850000 -2.212303
166.900000 -2.178044
166.950000 -2.102674
167.000000 -1.989620
167.050000 -1.876566
167.100000 -1.794344
167.150000 -1.746382
167.200000 -1.718975
167.250000 -1.701846
167.300000 -1.715549
167.350000 -1.777214
167.400000 -1.849159
167.450000 -1.900547
167.500000 -1.938232
167.550000 -1.962213
167.600000 -1.941658
167.650000 -1.897121
167.700000 -1.845733
167.750000 -1.777214
167.800000 -1.681290
167.850000 -1.592217
167.900000 -1.516848
167.950000 -1.427774
168.000000 -1.338701
168.050000 -1.294165
168.100000 -1.270183
168.150000 -1.242776
168.200000 -1.218795
168.250000 -1.211943
168.300000 -1.229073
168.350000 -1.259906
168.400000 -1.294165
168.450000 -1.359256
168.500000 -1.462033
168.550000 -1.592217
168.600000 -1.722401
168.650000 -1.866288
168.700000 -2.013601
168.750000 -2.147211
168.800000 -2.239710
168.850000 -2.284247
168.900000 -2.263692
168.950000 -2.188321
169.000000 -2.071841
169.050000 -1.931380
169.100000 -1.756659
169.150000 -1.578513
169.200000 -1.424348
169.250000 -1.294164
169.300000 -1.222221
169.350000 -1.235924
169.400000 -1.290738
169.450000 -1.376385
169.500000 -1.523699
169.550000 -1.705271
169.600000 -1.852585
169.650000 -1.982768
169.700000 -2.102675
169.750000 -2.184896
169.800000 -2.208877
169.850000 -2.205451
169.900000 -2.178044
169.950000 -2.130081
170.000000 -2.082119
170.050000 -2.023879
170.100000 -1.955361
170.150000 -1.924528
170.200000 -1.938232
170.250000 -1.962213
170.300000 -1.969064
170.350000 -1.969065
170.400000 -1.951935
170.450000 -1.931380
170.500000 -1.879991
170.550000 -1.801196
170.600000 -1.718975
170.650000 -1.657309
170.700000 -1.616198
170.750000 -1.588791
170.800000 -1.592217
170.850000 -1.647031
170.900000 -1.773789
170.950000 -1.948510
171.000000 -2.150637
171.050000 -2.345912
171.100000 -2.517207
171.150000 -2.640539
171.200000 -2.702205
171.250000 -2.715908
171.300000 -2.712482
171.350000 -2.667946
171.400000 -2.578873
171.450000 -2.489799
171.500000 -2.438412
171.550000 -2.390449
171.600000 -2.356190
171.650000 -2.356190
171.700000 -2.400727
171.750000 -2.452115
171.800000 -2.506929
171.850000 -2.551466
171.900000 -2.558318
171.950000 -2.524059
172.000000 -2.462393
172.050000 -2.383597
172.100000 -2.287672
172.150000 -2.205450
172.200000 -2.157489
172.250000 -2.143785
172.300000 -2.140359
172.350000 -2.184896
172.400000 -2.260266
172.450000 -2.332209
172.500000 -2.400727
172.550000 -2.452115
172.600000 -2.452116
172.650000 -2.397301
172.700000 -2.301376
172.750000 -2.147211
172.800000 -1.955361
172.850000 -1.736104
172.900000 -1.489440
172.950000 -1.259906
173.000000 -1.081759
173.050000 -0.955001
173.100000 -0.865929
173.150000 -0.817965
173.200000 -0.831669
173.250000 -0.903613
173.300000 -1.013242
173.350000 -1.133148
173.400000 -1.263331
173.450000 -1.420922
173.500000 -1.592217
173.550000 -1.736104
173.600000 -1.862862
173.650000 -1.958787
173.700000 -1.996472
173.750000 -1.972491
173.800000 -1.931380
173.850000 -1.842307
173.900000 -1.684716
173.950000 -1.513421
174.000000 -1.376386
174.050000 -1.253054
174.100000 -1.150277
174.150000 -1.109166
174.200000 -1.098889
174.250000 -1.098888
174.300000 -1.146851
174.350000 -1.259906
174.400000 -1.366108
174.450000 -1.444904
174.500000 -1.533977
174.550000 -1.626476
174.600000 -1.674438
174.650000 -1.694993
174.700000 -1.718975
174.750000 -1.739530
174.800000 -1.732679
174.850000 -1.698420
174.900000 -1.667586
174.950000 -1.667586
175.000000 -1.684716
175.050000 -1.708697
175.100000 -1.742956
175.150000 -1.801196
175.200000 -1.886843
175.250000 -1.972490
175.300000 -2.058138
175.350000 -2.126656
175.400000 -2.178044
175.450000 -2.236284
175.500000 -2.301376
175.550000 -2.308228
175.600000 -2.222580
175.650000 -2.099248
175.700000 -1.972490
175.750000 -1.804622
175.800000 -1.602494
175.850000 -1.410644
175.900000 -1.246202
175.950000 -1.095462
176.000000 -0.978982
176.050000 -0.903613
176.100000 -0.876206
176.150000 -0.907039
176.200000 -0.982408
176.250000 -1.068056
176.300000 -1.167406
176.350000 -1.290738
176.400000 -1.403793
176.450000 -1.489440
176.500000 -1.544254
176.550000 -1.592217
176.600000 -1.643606
176.650000 -1.688142
176.700000 -1.729253
176.750000 -1.753233
176.800000 -1.784067
176.850000 -1.814900
176.900000 -1.808048
176.950000 -1.794344
177.000000 -1.797770
177.050000 -1.787493
177.100000 -1.729252
177.150000 -1.677864
177.200000 -1.657309
177.250000 -1.599068
177.300000 -1.492866
177.350000 -1.403793
177.400000 -1.342127
177.450000 -1.294165
177.500000 -1.270183
177.550000 -1.263331
177.600000 -1.277035
177.650000 -1.318145
177.700000 -1.372960
177.750000 -1.407219
177.800000 -1.427774
177.850000 -1.451756
177.900000 -1.475737
177.950000 -1.496292
178.000000 -1.506569
178.050000 -1.503143
178.100000 -1.499717
178.150000 -1.520273
178.200000 -1.520273
178.250000 -1.486014
178.300000 -1.472310
178.350000 -1.486015
178.400000 -1.489440
178.450000 -1.468885
178.500000 -1.458607
178.550000 -1.455181
178.600000 -1.434626
178.650000 -1.403793
178.700000 -1.376386
178.750000 -1.355831
178.800000 -1.345553
178.850000 -1.355831
178.900000 -1.376386
178.950000 -1.410645
179.000000 -1.475737
179.050000 -1.571662
179.100000 -1.674439
179.150000 -1.780641
179.200000 -1.873140
179.250000 -1.914250
179.300000 -1.910825
179.350000 -1.914250
179.400000 -1.924528
179.450000 -1.893695
179.500000 -1.818325
179.550000 -1.739530
179.600000 -1.660735
179.650000 -1.557958
179.700000 -1.475736
179.750000 -1.468885
179.800000 -1.492866
179.850000 -1.499717
179.900000 -1.527125
179.950000 -1.612773
180.000000 -1.684716
180.050000 -1.718974
180.100000 -1.777215
180.150000 -1.866288
180.200000 -1.931380
180.250000 -1.955361
180.300000 -1.951935
180.350000 -1.927954
180.400000 -1.869714
180.450000 -1.780641
180.500000 -1.660734
180.550000 -1.527125
180.600000 -1.390089
180.650000 -1.253054
180.700000 -1.119445
180.750000 -1.061203
180.800000 -1.050927
180.850000 -1.037223
180.900000 -1.057778
180.950000 -1.160554
181.000000 -1.270183
181.050000 -1.331850
181.100000 -1.383238
181.150000 -1.424348
181.200000 -1.424349
181.250000 -1.383238
181.300000 -1.290738
181.350000 -1.157129
181.400000 -1.016667
181.450000 -0.896761
181.500000 -0.793984
181.550000 -0.746022
181.600000 -0.780281
181.650000 -0.862502
181.700000 -0.965279
181.750000 -1.119444
181.800000 -1.290738
181.850000 -1.427774
181.900000 -1.523699
181.950000 -1.581939
182.000000 -1.581939
182.050000 -1.527125
182.100000 -1.434626
182.150000 -1.324997
182.200000 -1.225647
182.250000 -1.157128
182.300000 -1.112592
182.350000 -1.105740
182.400000 -1.133148
182.450000 -1.194813
182.500000 -1.297591
182.550000 -1.424348
182.600000 -1.540829
182.650000 -1.643606
182.700000 -1.739530
182.750000 -1.787492
182.800000 -1.760085
182.850000 -1.712123
182.900000 -1.677864
182.950000 -1.599069
183.000000 -1.475736
183.050000 -1.410645
183.100000 -1.403793
183.150000 -1.396941
183.200000 -1.407219
183.250000 -1.455182
183.300000 -1.523699
183.350000 -1.592216
183.400000 -1.660735
183.450000 -1.722401
183.500000 -1.749808
183.550000 -1.770363
183.600000 -1.804622
183.650000 -1.811474
183.700000 -1.777215
183.750000 -1.749808
183.800000 -1.753234
183.850000 -1.746382
183.900000 -1.722401
183.950000 -1.718975
184.000000 -1.729253
184.050000 -1.725827
184.100000 -1.725827
184.150000 -1.732679
184.200000 -1.722400
184.250000 -1.677864
184.300000 -1.629901
184.350000 -1.588791
184.400000 -1.551106
184.450000 -1.506570
184.500000 -1.465459
184.550000 -1.417496
184.600000 -1.359256
184.650000 -1.297590
184.700000 -1.235925
184.750000 -1.160555
184.800000 -1.074907
184.850000 -1.026945
184.900000 -1.002963
184.950000 -1.002963
185.000000 -1.037222
185.050000 -1.098889
185.100000 -1.177685
185.150000 -1.290738
185.200000 -1.434626
185.250000 -1.557958
185.300000 -1.657308
185.350000 -1.773789
185.400000 -1.900547
185.450000 -1.986194
185.500000 -2.023879
185.550000 -2.054712
185.600000 -2.095823
185.650000 -2.130082
185.700000 -2.157488
185.750000 -2.191748
185.800000 -2.212303
185.850000 -2.219154
185.900000 -2.205451
185.950000 -2.160914
186.000000 -2.082119
186.050000 -1.982768
186.100000 -1.835456
186.150000 -1.640179
186.200000 -1.434626
186.250000 -1.246202
186.300000 -1.064630
186.350000 -0.910465
186.400000 -0.811114
186.450000 -0.780281
186.500000 -0.790559
186.550000 -0.841947
186.600000 -0.941298
186.650000 -1.102315
186.700000 -1.301016
186.750000 -1.496292
186.800000 -1.664161
186.850000 -1.794344
186.900000 -1.890269
186.950000 -1.955361
187.000000 -2.006750
187.050000 -2.013601
187.100000 -1.972490
187.150000 -1.910825
187.200000 -1.852585
187.250000 -1.780641
187.300000 -1.667586
187.350000 -1.540829
187.400000 -1.451755
187.450000 -1.407219
187.500000 -1.369534
187.550000 -1.348978
187.600000 -1.352404
187.650000 -1.376386
187.700000 -1.407218
187.750000 -1.434626
187.800000 -1.441478
187.850000 -1.431200
187.900000 -1.420922
187.950000 -1.396942
188.000000 -1.359256
188.050000 -1.324998
188.100000 -1.297591
188.150000 -1.256480
188.200000 -1.232499
188.250000 -1.242776
188.300000 -1.273609
188.350000 -1.345552
188.400000 -1.465458
188.450000 -1.564810
188.500000 -1.633327
188.550000 -1.712123
188.600000 -1.784066
188.650000 -1.794344
188.700000 -1.756659
188.750000 -1.708697
188.800000 -1.653883
188.850000 -1.616198
