time[ns] Raw_signal[mV]
-11.250000 0.170129
-11.200000 0.153000
-11.150000 0.135871
-11.100000 0.125593
-11.050000 0.105038
-11.000000 0.063927
-10.950000 0.019391
-10.900000 0.019391
-10.850000 0.039946
-10.800000 0.043372
-10.750000 0.039946
-10.700000 0.077631
-10.650000 0.118742
-10.600000 0.111889
-10.550000 0.091335
-10.500000 0.094761
-10.450000 0.067353
-10.400000 -0.008017
-10.350000 -0.079960
-10.300000 -0.138200
-10.250000 -0.220421
-10.200000 -0.306069
-10.150000 -0.350605
-10.100000 -0.371160
-10.050000 -0.381438
-10.000000 -0.357457
-9.950000 -0.306068
-9.900000 -0.240977
-9.850000 -0.151903
-9.800000 -0.042276
-9.750000 0.019390
-9.700000 0.033095
-9.650000 0.046798
-9.600000 0.057076
-9.550000 0.022817
-9.500000 -0.031998
-9.450000 -0.079960
-9.400000 -0.138200
-9.350000 -0.182736
-9.300000 -0.189588
-9.250000 -0.169033
-9.200000 -0.124497
-9.150000 -0.049127
-9.100000 0.060502
-9.050000 0.159852
-9.000000 0.252352
-8.950000 0.334572
-8.900000 0.423645
-8.850000 0.499015
-8.800000 0.533274
-8.750000 0.502442
-8.700000 0.454479
-8.650000 0.427072
-8.600000 0.368832
-8.550000 0.238648
-8.500000 0.105038
-8.450000 0.019391
-8.400000 -0.073108
-8.350000 -0.186162
-8.300000 -0.264958
-8.250000 -0.333476
-8.200000 -0.432827
-8.150000 -0.508196
-8.100000 -0.504770
-8.050000 -0.480789
-8.000000 -0.463659
-7.950000 -0.412271
-7.900000 -0.323198
-7.850000 -0.230699
-7.800000 -0.158756
-7.750000 -0.073108
-7.700000 0.022816
-7.650000 0.094760
-7.600000 0.118742
-7.550000 0.098186
-7.500000 0.057075
-7.450000 -0.004591
-7.400000 -0.090238
-7.350000 -0.162182
-7.300000 -0.220421
-7.250000 -0.288939
-7.200000 -0.333476
-7.150000 -0.333476
-7.100000 -0.316346
-7.050000 -0.271810
-7.000000 -0.179310
-6.950000 -0.083386
-6.900000 0.005688
-6.850000 0.125593
-6.800000 0.231796
-6.750000 0.276333
-6.700000 0.310592
-6.650000 0.351702
-6.600000 0.337999
-6.550000 0.283184
-6.500000 0.259203
-6.450000 0.252351
-6.400000 0.207814
-6.350000 0.142723
-6.300000 0.101612
-6.250000 0.091335
-6.200000 0.074205
-6.150000 0.033094
-6.100000 -0.004590
-6.050000 -0.018294
-6.000000 -0.035424
-5.950000 -0.055978
-5.900000 -0.076534
-5.850000 -0.093664
-5.800000 -0.121071
-5.750000 -0.138200
-5.700000 -0.134775
-5.650000 -0.127922
-5.600000 -0.114219
-5.550000 -0.093664
-5.500000 -0.059405
-5.450000 -0.008016
-5.400000 0.039946
-5.350000 0.070780
-5.300000 0.111890
-5.250000 0.194111
-5.200000 0.266055
-5.150000 0.269481
-5.100000 0.269481
-5.050000 0.314017
-5.000000 0.365405
-4.950000 0.368831
-4.900000 0.344851
-4.850000 0.337999
-4.800000 0.337998
-4.750000 0.334573
-4.700000 0.324295
-4.650000 0.293462
-4.600000 0.248926
-4.550000 0.214666
-4.500000 0.187259
-4.450000 0.166704
-4.400000 0.156427
-4.350000 0.156426
-4.300000 0.142723
-4.250000 0.142723
-4.200000 0.166704
-4.150000 0.176982
-4.100000 0.183834
-4.050000 0.218092
-4.000000 0.252352
-3.950000 0.283184
-3.900000 0.337998
-3.850000 0.379109
-3.800000 0.375684
-3.750000 0.368832
-3.700000 0.355128
-3.650000 0.310591
-3.600000 0.269481
-3.550000 0.245499
-3.500000 0.228370
-3.450000 0.235222
-3.400000 0.207815
-3.350000 0.101613
-3.300000 0.053650
-3.250000 0.166704
-3.200000 0.211241
-3.150000 0.115316
-3.100000 0.139297
-3.050000 0.262629
-3.000000 0.228371
-2.950000 0.132445
-2.900000 0.132445
-2.850000 0.063928
-2.800000 -0.008016
-2.750000 0.135871
-2.700000 0.269480
-2.650000 0.166704
-2.600000 0.166705
-2.550000 0.365406
-2.500000 0.382535
-2.450000 0.269481
-2.400000 0.365406
-2.350000 0.427072
-2.300000 0.218092
-2.250000 0.115315
-2.200000 0.224944
-2.150000 0.132445
-2.100000 -0.158756
-2.050000 -0.282088
-2.000000 -0.237551
-1.950000 -0.186163
-1.900000 -0.059405
-1.850000 0.043372
-1.800000 -0.008017
-1.750000 0.026243
-1.700000 0.204389
-1.650000 0.214667
-1.600000 0.122167
-1.550000 0.245500
-1.500000 0.396239
-1.450000 0.307165
-1.400000 0.183834
-1.350000 0.118742
-1.300000 -0.062831
-1.250000 -0.158755
-1.200000 -0.035423
-1.150000 -0.097089
-1.100000 -0.391716
-1.050000 -0.419123
-1.000000 -0.193015
-0.950000 -0.141626
-0.900000 -0.127923
-0.850000 0.108464
-0.800000 0.296888
-0.750000 0.307165
-0.700000 0.416794
-0.650000 0.601792
-0.600000 0.632625
-0.550000 0.598367
-0.500000 0.670310
-0.450000 0.762809
-0.400000 0.749105
-0.350000 0.677161
-0.300000 0.608644
-0.250000 0.557256
-0.200000 0.485312
-0.150000 0.379109
-0.100000 0.320870
-0.050000 0.303739
0.000000 0.197537
0.050000 0.026243
0.100000 -0.021720
0.150000 0.019390
0.200000 -0.086812
0.250000 -0.264958
0.300000 -0.230699
0.350000 -0.042275
0.400000 0.070779
0.450000 0.129020
0.500000 0.266054
0.550000 0.382535
0.600000 0.403090
0.650000 0.461331
0.700000 0.629199
0.750000 0.800494
0.800000 0.992344
0.850000 1.341785
0.900000 1.848816
0.950000 2.513439
1.000000 3.455559
1.050000 4.784804
1.100000 6.453213
1.150000 8.440224
1.200000 10.800670
1.250000 13.493414
1.300000 16.364316
1.350000 19.320857
1.400000 22.393874
1.450000 25.586808
1.500000 28.759182
1.550000 31.801377
1.600000 34.737361
1.650000 37.522608
1.700000 40.023510
1.750000 42.243490
1.800000 44.281890
1.850000 46.101040
1.900000 47.591300
1.950000 48.728700
2.000000 49.520080
2.050000 49.941460
2.100000 49.999700
2.150000 49.687940
2.200000 48.951380
2.250000 47.824270
2.300000 46.426500
2.350000 44.771800
2.400000 42.843020
2.450000 40.718970
2.500000 38.457880
2.550000 36.032350
2.600000 33.524590
2.650000 31.037400
2.700000 28.546780
2.750000 26.073280
2.800000 23.747110
2.850000 21.612780
2.900000 19.625756
2.950000 17.871702
3.000000 16.453390
3.050000 15.305717
3.100000 14.401274
3.150000 13.859984
3.200000 13.651010
3.250000 13.644159
3.300000 13.829156
3.350000 14.257393
3.400000 14.860342
3.450000 15.552379
3.500000 16.292367
3.550000 17.052917
3.600000 17.782633
3.650000 18.460955
3.700000 19.070769
3.750000 19.564091
3.800000 19.875848
3.850000 20.009455
3.900000 20.016314
3.950000 19.886130
4.000000 19.550395
4.050000 19.029650
4.100000 18.399296
4.150000 17.662723
4.200000 16.775416
4.250000 15.788763
4.300000 14.822661
4.350000 13.870264
4.400000 12.873330
4.450000 11.855841
4.500000 10.906870
4.550000 10.022989
4.600000 9.156240
4.650000 8.337452
4.700000 7.638570
4.750000 7.066447
4.800000 6.586821
4.850000 6.199697
4.900000 5.922200
4.950000 5.757757
5.000000 5.682387
5.050000 5.733775
5.100000 5.905070
5.150000 6.155160
5.200000 6.439509
5.250000 6.768395
5.300000 7.107557
5.350000 7.409035
5.400000 7.689959
5.450000 7.953752
5.500000 8.169583
5.550000 8.340878
5.600000 8.484765
5.650000 8.556709
5.700000 8.556709
5.750000 8.529302
5.800000 8.447081
5.850000 8.279211
5.900000 8.080510
5.950000 7.868105
6.000000 7.583756
6.050000 7.234315
6.100000 6.881448
6.150000 6.497748
6.200000 6.042105
6.250000 5.569332
6.300000 5.106837
6.350000 4.627212
6.400000 4.137311
6.450000 3.685093
6.500000 3.270560
6.550000 2.873157
6.600000 2.527142
6.650000 2.294182
6.700000 2.174276
6.750000 2.102332
6.800000 2.074924
6.850000 2.146869
6.900000 2.294182
6.950000 2.455199
7.000000 2.633344
7.050000 2.838898
7.100000 3.020470
7.150000 3.143802
7.200000 3.243153
7.250000 3.328800
7.300000 3.359634
7.350000 3.356207
7.400000 3.332226
7.450000 3.318523
7.500000 3.311671
7.550000 3.315097
7.600000 3.301394
7.650000 3.277413
7.700000 3.273986
7.750000 3.267135
7.800000 3.226024
7.850000 3.147229
7.900000 3.044452
7.950000 2.903991
8.000000 2.701862
8.050000 2.455199
8.100000 2.205108
8.150000 1.937889
8.200000 1.660392
8.250000 1.410302
8.300000 1.208174
8.350000 1.040306
8.400000 0.899845
8.450000 0.793642
8.500000 0.704569
8.550000 0.618921
8.600000 0.588088
8.650000 0.618921
8.700000 0.656607
8.750000 0.660032
8.800000 0.663458
8.850000 0.690865
8.900000 0.718272
8.950000 0.725124
9.000000 0.759383
9.050000 0.838178
9.100000 0.927251
9.150000 0.988918
9.200000 1.033454
9.250000 1.081417
9.300000 1.095120
9.350000 1.077991
9.400000 1.064287
9.450000 1.050584
9.500000 1.002622
9.550000 0.940955
9.600000 0.889567
9.650000 0.851882
9.700000 0.841604
9.750000 0.845030
9.800000 0.848456
9.850000 0.858733
9.900000 0.903270
9.950000 0.954659
10.000000 0.992343
10.050000 1.043732
10.100000 1.098546
10.150000 1.136231
10.200000 1.149934
10.250000 1.149934
10.300000 1.122528
10.350000 1.071139
10.400000 0.988917
10.450000 0.865585
10.500000 0.721698
10.550000 0.608644
10.600000 0.505867
10.650000 0.358554
10.700000 0.190685
10.750000 0.060501
10.800000 -0.028572
10.850000 -0.093664
10.900000 -0.151904
10.950000 -0.213569
11.000000 -0.264958
11.050000 -0.285514
11.100000 -0.251255
11.150000 -0.179311
11.200000 -0.097090
11.250000 -0.014868
11.300000 0.084482
11.350000 0.207815
11.400000 0.348277
11.450000 0.464757
11.500000 0.553830
11.550000 0.653180
11.600000 0.745680
11.650000 0.793642
11.700000 0.845030
11.750000 0.910122
11.800000 0.934103
11.850000 0.910123
11.900000 0.910122
11.950000 0.923826
12.000000 0.896418
12.050000 0.831326
12.100000 0.766235
12.150000 0.687440
12.200000 0.594941
12.250000 0.488738
12.300000 0.348276
12.350000 0.180407
12.400000 0.002261
12.450000 -0.179311
12.500000 -0.354031
12.550000 -0.532178
12.600000 -0.713749
12.650000 -0.850785
12.700000 -0.915878
12.750000 -0.987821
12.800000 -1.100875
12.850000 -1.155689
12.900000 -1.121431
12.950000 -1.087172
13.000000 -1.028932
13.050000 -0.885044
13.100000 -0.741157
13.150000 -0.628102
13.200000 -0.473937
13.250000 -0.275236
13.300000 -0.114219
13.350000 0.050224
13.400000 0.235222
13.450000 0.379110
13.500000 0.461330
13.550000 0.516145
13.600000 0.536700
13.650000 0.502441
13.700000 0.437349
13.750000 0.355128
13.800000 0.221518
13.850000 0.081057
13.900000 -0.025146
13.950000 -0.121071
14.000000 -0.223847
14.050000 -0.312921
14.100000 -0.367734
14.150000 -0.391716
14.200000 -0.378012
14.250000 -0.340328
14.300000 -0.323198
14.350000 -0.292365
14.400000 -0.234126
14.450000 -0.165607
14.500000 -0.093664
14.550000 -0.031997
14.600000 -0.014868
14.650000 -0.025146
14.700000 -0.014869
14.750000 -0.038849
14.800000 -0.124496
14.850000 -0.210144
14.900000 -0.275236
14.950000 -0.384865
15.000000 -0.504771
15.050000 -0.580140
15.100000 -0.634954
15.150000 -0.706898
15.200000 -0.751434
15.250000 -0.758286
15.300000 -0.744583
15.350000 -0.700046
15.400000 -0.600695
15.450000 -0.484215
15.500000 -0.367735
15.550000 -0.251255
15.600000 -0.165607
15.650000 -0.110793
15.700000 -0.097090
15.750000 -0.169033
15.800000 -0.312920
15.850000 -0.460234
15.900000 -0.604121
15.950000 -0.802822
16.000000 -1.035784
16.050000 -1.241337
16.100000 -1.388650
16.150000 -1.470871
16.200000 -1.498278
16.250000 -1.474297
16.300000 -1.364669
16.350000 -1.179671
16.400000 -0.980969
16.450000 -0.795971
16.500000 -0.624677
16.550000 -0.487641
16.600000 -0.405420
16.650000 -0.357457
16.700000 -0.357457
16.750000 -0.425975
16.800000 -0.539029
16.850000 -0.669213
16.900000 -0.782267
16.950000 -0.871341
17.000000 -0.922729
17.050000 -0.946710
17.100000 -0.939858
17.150000 -0.909025
17.200000 -0.867915
17.250000 -0.826804
17.300000 -0.813101
17.350000 -0.819952
17.400000 -0.826804
17.450000 -0.847360
17.500000 -0.895322
17.550000 -0.950137
17.600000 -0.987821
17.650000 -1.008376
17.700000 -1.032358
17.750000 -1.035783
17.800000 -1.011802
17.850000 -0.980969
17.900000 -0.936433
17.950000 -0.888470
18.000000 -0.861063
18.050000 -0.874767
18.100000 -0.881618
18.150000 -0.881618
18.200000 -0.912451
18.250000 -0.967265
18.300000 -0.987821
18.350000 -0.984395
18.400000 -0.980969
18.450000 -0.956988
18.500000 -0.891896
18.550000 -0.802822
18.600000 -0.713750
18.650000 -0.631529
18.700000 -0.552733
18.750000 -0.497918
18.800000 -0.487641
18.850000 -0.532178
18.900000 -0.593843
18.950000 -0.645232
19.000000 -0.710324
19.050000 -0.813100
19.100000 -0.933007
19.150000 -1.035783
19.200000 -1.135134
19.250000 -1.237911
19.300000 -1.313280
19.350000 -1.371521
19.400000 -1.446890
19.450000 -1.505131
19.500000 -1.515408
19.550000 -1.501705
19.600000 -1.491427
19.650000 -1.450317
19.700000 -1.378372
19.750000 -1.275595
19.800000 -1.135135
19.850000 -0.980969
19.900000 -0.830230
19.950000 -0.676065
20.000000 -0.532177
20.050000 -0.412271
20.100000 -0.288939
20.150000 -0.165607
20.200000 -0.107367
20.250000 -0.110793
20.300000 -0.100515
20.350000 -0.062831
20.400000 -0.083386
20.450000 -0.151904
20.500000 -0.193014
20.550000 -0.216995
20.600000 -0.271810
20.650000 -0.360883
20.700000 -0.429400
20.750000 -0.494493
20.800000 -0.580140
20.850000 -0.672639
20.900000 -0.761713
20.950000 -0.847360
21.000000 -0.922729
21.050000 -0.950136
21.100000 -0.953562
21.150000 -0.956988
21.200000 -0.963840
21.250000 -0.960413
21.300000 -0.943284
21.350000 -0.881619
21.400000 -0.795971
21.450000 -0.727453
21.500000 -0.655509
21.550000 -0.539029
21.600000 -0.422549
21.650000 -0.360883
21.700000 -0.306069
21.750000 -0.251254
21.800000 -0.230699
21.850000 -0.234126
21.900000 -0.220421
21.950000 -0.220422
22.000000 -0.251255
22.050000 -0.302643
22.100000 -0.347180
22.150000 -0.381438
22.200000 -0.422549
22.250000 -0.484216
22.300000 -0.525326
22.350000 -0.525326
22.400000 -0.535604
22.450000 -0.545881
22.500000 -0.525326
22.550000 -0.504770
22.600000 -0.521900
22.650000 -0.525326
22.700000 -0.491067
22.750000 -0.497918
22.800000 -0.535603
22.850000 -0.528751
22.900000 -0.494492
22.950000 -0.487641
23.000000 -0.491067
23.050000 -0.480790
23.100000 -0.460234
23.150000 -0.432826
23.200000 -0.412271
23.250000 -0.422549
23.300000 -0.453382
23.350000 -0.491067
23.400000 -0.552733
23.450000 -0.631528
23.500000 -0.682917
23.550000 -0.693194
23.600000 -0.682916
23.650000 -0.634954
23.700000 -0.539030
23.750000 -0.408845
23.800000 -0.271810
23.850000 -0.134774
23.900000 -0.001165
23.950000 0.094761
24.000000 0.139297
24.050000 0.135871
24.100000 0.105038
24.150000 0.036520
24.200000 -0.097089
24.250000 -0.271810
24.300000 -0.439678
24.350000 -0.604122
24.400000 -0.771990
24.450000 -0.885044
24.500000 -0.915877
24.550000 -0.936433
24.600000 -0.970692
24.650000 -0.950136
24.700000 -0.871341
24.750000 -0.833655
24.800000 -0.867915
24.850000 -0.929580
24.900000 -1.004950
24.950000 -1.121431
25.000000 -1.275596
25.050000 -1.429761
25.100000 -1.573648
25.150000 -1.720962
25.200000 -1.851145
25.250000 -1.919663
25.300000 -1.916237
25.350000 -1.854571
25.400000 -1.758646
25.450000 -1.611333
25.500000 -1.426335
25.550000 -1.237911
25.600000 -1.073468
25.650000 -0.943284
25.700000 -0.854212
25.750000 -0.785694
25.800000 -0.727453
25.850000 -0.689768
25.900000 -0.665788
25.950000 -0.638381
26.000000 -0.628102
26.050000 -0.621251
26.100000 -0.576714
26.150000 -0.497919
26.200000 -0.439679
26.250000 -0.415697
26.300000 -0.395142
26.350000 -0.398568
26.400000 -0.456808
26.450000 -0.545881
26.500000 -0.628102
26.550000 -0.706898
26.600000 -0.775416
26.650000 -0.843934
26.700000 -0.919303
26.750000 -0.977543
26.800000 -1.008376
26.850000 -1.025506
26.900000 -1.022079
26.950000 -0.977543
27.000000 -0.912452
27.050000 -0.881619
27.100000 -0.864489
27.150000 -0.850785
27.200000 -0.898747
27.250000 -0.987821
27.300000 -1.063191
27.350000 -1.121431
27.400000 -1.196800
27.450000 -1.285873
27.500000 -1.344113
27.550000 -1.378372
27.600000 -1.419483
27.650000 -1.446890
27.700000 -1.412631
27.750000 -1.333836
27.800000 -1.251614
27.850000 -1.162542
27.900000 -1.032357
27.950000 -0.902173
28.000000 -0.826804
28.050000 -0.771990
28.100000 -0.706898
28.150000 -0.676064
28.200000 -0.706898
28.250000 -0.765138
28.300000 -0.823378
28.350000 -0.909025
28.400000 -1.015228
28.450000 -1.124857
28.500000 -1.224207
28.550000 -1.303003
28.600000 -1.361243
28.650000 -1.409205
28.700000 -1.443465
28.750000 -1.453742
28.800000 -1.474297
28.850000 -1.515408
28.900000 -1.553093
28.950000 -1.570223
29.000000 -1.577074
29.050000 -1.583926
29.100000 -1.580500
29.150000 -1.577074
29.200000 -1.563371
29.250000 -1.539389
29.300000 -1.501704
29.350000 -1.460594
29.400000 -1.433187
29.450000 -1.395502
29.500000 -1.347540
29.550000 -1.323558
29.600000 -1.330409
29.650000 -1.313280
29.700000 -1.275595
29.750000 -1.261892
29.800000 -1.268744
29.850000 -1.279022
29.900000 -1.275596
29.950000 -1.261892
30.000000 -1.248188
30.050000 -1.244762
30.100000 -1.224207
30.150000 -1.186523
30.200000 -1.162541
30.250000 -1.176245
30.300000 -1.176245
30.350000 -1.135135
30.400000 -1.076894
30.450000 -1.046061
30.500000 -1.001524
30.550000 -0.946710
30.600000 -0.905600
30.650000 -0.871340
30.700000 -0.792545
30.750000 -0.703472
30.800000 -0.679491
30.850000 -0.689768
30.900000 -0.669213
30.950000 -0.658935
31.000000 -0.717175
31.050000 -0.795971
31.100000 -0.874767
31.150000 -0.974118
31.200000 -1.097449
31.250000 -1.210504
31.300000 -1.323558
31.350000 -1.419483
31.400000 -1.481149
31.450000 -1.505130
31.500000 -1.505130
31.550000 -1.481149
31.600000 -1.443465
31.650000 -1.388651
31.700000 -1.326984
31.750000 -1.261892
31.800000 -1.189948
31.850000 -1.107728
31.900000 -1.046061
31.950000 -1.028931
32.000000 -1.025506
32.050000 -1.032358
32.100000 -1.076895
32.150000 -1.148838
32.200000 -1.220782
32.250000 -1.303003
32.300000 -1.388650
32.350000 -1.464020
32.400000 -1.532538
32.450000 -1.597630
32.500000 -1.631888
32.550000 -1.628463
32.600000 -1.601055
32.650000 -1.563370
32.700000 -1.505130
32.750000 -1.436613
32.800000 -1.347540
32.850000 -1.261892
32.900000 -1.193375
32.950000 -1.135134
33.000000 -1.097449
33.050000 -1.121431
33.100000 -1.183097
33.150000 -1.231059
33.200000 -1.299577
33.250000 -1.412632
33.300000 -1.498279
33.350000 -1.515408
33.400000 -1.525686
33.450000 -1.525685
33.500000 -1.464020
33.550000 -1.350965
33.600000 -1.231059
33.650000 -1.100875
33.700000 -0.936433
33.750000 -0.758286
33.800000 -0.604122
33.850000 -0.467086
33.900000 -0.381438
33.950000 -0.354031
34.000000 -0.378012
34.050000 -0.453382
34.100000 -0.583566
34.150000 -0.734305
34.200000 -0.888470
34.250000 -1.056339
34.300000 -1.220782
34.350000 -1.344114
34.400000 -1.416057
34.450000 -1.443464
34.500000 -1.443464
34.550000 -1.412631
34.600000 -1.330410
34.650000 -1.203652
34.700000 -1.087171
34.750000 -1.015228
34.800000 -0.939858
34.850000 -0.857637
34.900000 -0.830230
34.950000 -0.861063
35.000000 -0.915877
35.050000 -0.977544
35.100000 -1.070043
35.150000 -1.155689
35.200000 -1.227633
35.250000 -1.303003
35.300000 -1.374946
35.350000 -1.419483
35.400000 -1.433186
35.450000 -1.422909
35.500000 -1.395502
35.550000 -1.364668
35.600000 -1.350965
35.650000 -1.320132
35.700000 -1.272170
35.750000 -1.224208
35.800000 -1.200226
35.850000 -1.200226
35.900000 -1.200226
35.950000 -1.183097
36.000000 -1.141986
36.050000 -1.090598
36.100000 -1.056339
36.150000 -1.022080
36.200000 -0.984395
36.250000 -0.967265
36.300000 -0.956987
36.350000 -0.943284
36.400000 -0.933007
36.450000 -0.967266
36.500000 -1.039210
36.550000 -1.118005
36.600000 -1.172819
36.650000 -1.231059
36.700000 -1.289299
36.750000 -1.303003
36.800000 -1.292725
36.850000 -1.268744
36.900000 -1.196801
36.950000 -1.097450
37.000000 -1.022080
37.050000 -0.946710
37.100000 -0.847360
37.150000 -0.775416
37.200000 -0.761712
37.250000 -0.744583
37.300000 -0.734305
37.350000 -0.782268
37.400000 -0.871340
37.450000 -0.960414
37.500000 -1.056338
37.550000 -1.169393
37.600000 -1.261892
37.650000 -1.326984
37.700000 -1.392076
37.750000 -1.433187
37.800000 -1.460594
37.850000 -1.467446
37.900000 -1.436612
37.950000 -1.361243
38.000000 -1.272170
38.050000 -1.196801
38.100000 -1.121431
38.150000 -1.052913
38.200000 -1.018654
38.250000 -1.015228
38.300000 -1.008376
38.350000 -1.028932
38.400000 -1.094023
38.450000 -1.172819
38.500000 -1.217355
38.550000 -1.258466
38.600000 -1.344114
38.650000 -1.433187
38.700000 -1.457168
38.750000 -1.453742
38.800000 -1.481149
38.850000 -1.522259
38.900000 -1.535963
38.950000 -1.532537
39.000000 -1.518834
39.050000 -1.488001
39.100000 -1.436613
39.150000 -1.374946
39.200000 -1.309854
39.250000 -1.258467
39.300000 -1.200226
39.350000 -1.141986
39.400000 -1.104302
39.450000 -1.111153
39.500000 -1.131709
39.550000 -1.138560
39.600000 -1.176245
39.650000 -1.279021
39.700000 -1.398928
39.750000 -1.484575
39.800000 -1.556518
39.850000 -1.635314
39.900000 -1.700406
39.950000 -1.714110
40.000000 -1.669573
40.050000 -1.587351
40.100000 -1.518834
40.150000 -1.453742
40.200000 -1.347539
40.250000 -1.210504
40.300000 -1.121431
40.350000 -1.063191
40.400000 -1.011803
40.450000 -0.960413
40.500000 -0.926155
40.550000 -0.912451
40.600000 -0.912451
40.650000 -0.912452
40.700000 -0.888470
40.750000 -0.861063
40.800000 -0.857637
40.850000 -0.847359
40.900000 -0.823378
40.950000 -0.809674
41.000000 -0.806249
41.050000 -0.819952
41.100000 -0.830230
41.150000 -0.833656
41.200000 -0.847359
41.250000 -0.881618
41.300000 -0.915877
41.350000 -0.915877
41.400000 -0.902173
41.450000 -0.909025
41.500000 -0.909025
41.550000 -0.891896
41.600000 -0.861063
41.650000 -0.830230
41.700000 -0.809675
41.750000 -0.806249
41.800000 -0.809674
41.850000 -0.809674
41.900000 -0.819952
41.950000 -0.857637
42.000000 -0.915877
42.050000 -0.980969
42.100000 -1.046061
42.150000 -1.111153
42.200000 -1.183096
42.250000 -1.261892
42.300000 -1.289299
42.350000 -1.272170
42.400000 -1.241337
42.450000 -1.213930
42.500000 -1.159115
42.550000 -1.087172
42.600000 -1.035783
42.650000 -0.994672
42.700000 -0.953562
42.750000 -0.926155
42.800000 -0.933006
42.850000 -0.950136
42.900000 -0.963839
42.950000 -1.004950
43.000000 -1.073468
43.050000 -1.128282
43.100000 -1.159116
43.150000 -1.200226
43.200000 -1.248189
43.250000 -1.272170
43.300000 -1.275595
43.350000 -1.275596
43.400000 -1.268744
43.450000 -1.227633
43.500000 -1.189949
43.550000 -1.169393
43.600000 -1.148838
43.650000 -1.100875
43.700000 -1.066616
43.750000 -1.080320
43.800000 -1.114579
43.850000 -1.128282
43.900000 -1.155690
43.950000 -1.207077
44.000000 -1.241337
44.050000 -1.234485
44.100000 -1.227633
44.150000 -1.248188
44.200000 -1.258466
44.250000 -1.258466
44.300000 -1.268744
44.350000 -1.289299
44.400000 -1.333836
44.450000 -1.402353
44.500000 -1.474297
44.550000 -1.535964
44.600000 -1.604481
44.650000 -1.679851
44.700000 -1.734665
44.750000 -1.738091
44.800000 -1.717536
44.850000 -1.686703
44.900000 -1.631888
44.950000 -1.553093
45.000000 -1.474297
45.050000 -1.429760
45.100000 -1.378372
45.150000 -1.320132
45.200000 -1.292725
45.250000 -1.296151
45.300000 -1.275596
45.350000 -1.244763
45.400000 -1.227633
45.450000 -1.210504
45.500000 -1.165967
45.550000 -1.141986
45.600000 -1.145412
45.650000 -1.131708
45.700000 -1.111153
45.750000 -1.111153
45.800000 -1.104301
45.850000 -1.073468
45.900000 -1.059765
45.950000 -1.063191
46.000000 -1.046061
46.050000 -1.001525
46.100000 -0.943284
46.150000 -0.878193
46.200000 -0.799397
46.250000 -0.730880
46.300000 -0.672639
46.350000 -0.621251
46.400000 -0.597270
46.450000 -0.610973
46.500000 -0.662362
46.550000 -0.748009
46.600000 -0.871340
46.650000 -1.001524
46.700000 -1.135134
46.750000 -1.282447
46.800000 -1.436612
46.850000 -1.546241
46.900000 -1.607907
46.950000 -1.642166
47.000000 -1.645591
47.050000 -1.590778
47.100000 -1.488001
47.150000 -1.392076
47.200000 -1.326984
47.250000 -1.272170
47.300000 -1.227634
47.350000 -1.251615
47.400000 -1.340688
47.450000 -1.440038
47.500000 -1.549667
47.550000 -1.686702
47.600000 -1.823738
47.650000 -1.905959
47.700000 -1.940219
47.750000 -1.923089
47.800000 -1.847719
47.850000 -1.727813
47.900000 -1.577074
47.950000 -1.392076
48.000000 -1.186522
48.050000 -1.018654
48.100000 -0.912452
48.150000 -0.850785
48.200000 -0.833656
48.250000 -0.871340
48.300000 -0.956988
48.350000 -1.063191
48.400000 -1.179671
48.450000 -1.292725
48.500000 -1.371521
48.550000 -1.416057
48.600000 -1.429761
48.650000 -1.398928
48.700000 -1.320132
48.750000 -1.231059
48.800000 -1.141986
48.850000 -1.032358
48.900000 -0.919303
48.950000 -0.837081
49.000000 -0.785693
49.050000 -0.771990
49.100000 -0.813100
49.150000 -0.895322
49.200000 -1.011802
49.250000 -1.162541
49.300000 -1.337261
49.350000 -1.522260
49.400000 -1.703832
49.450000 -1.864849
49.500000 -2.005311
49.550000 -2.125216
49.600000 -2.217716
49.650000 -2.265678
49.700000 -2.258826
49.750000 -2.204012
49.800000 -2.121791
49.850000 -2.005310
49.900000 -1.857997
49.950000 -1.710684
50.000000 -1.587351
50.050000 -1.453742
50.100000 -1.303003
50.150000 -1.169394
50.200000 -1.066616
50.250000 -0.991247
50.300000 -0.936433
50.350000 -0.902173
50.400000 -0.912451
50.450000 -0.974117
50.500000 -1.042635
50.550000 -1.073468
50.600000 -1.107727
50.650000 -1.172819
50.700000 -1.234485
50.750000 -1.268744
50.800000 -1.313281
50.850000 -1.378372
50.900000 -1.426335
50.950000 -1.436613
51.000000 -1.426335
51.050000 -1.412631
51.100000 -1.405780
51.150000 -1.398928
51.200000 -1.357817
51.250000 -1.306429
51.300000 -1.272169
51.350000 -1.244763
51.400000 -1.200226
51.450000 -1.162541
51.500000 -1.124857
51.550000 -1.080320
51.600000 -1.032357
51.650000 -0.980969
51.700000 -0.922729
51.750000 -0.864489
51.800000 -0.833656
51.850000 -0.792545
51.900000 -0.724028
51.950000 -0.686343
52.000000 -0.686343
52.050000 -0.706898
52.100000 -0.758286
52.150000 -0.867914
52.200000 -1.025506
52.250000 -1.220782
52.300000 -1.443464
52.350000 -1.659296
52.400000 -1.854572
52.450000 -2.036143
52.500000 -2.176605
52.550000 -2.241697
52.600000 -2.234845
52.650000 -2.193734
52.700000 -2.094383
52.750000 -1.923089
52.800000 -1.744942
52.850000 -1.597630
52.900000 -1.443465
52.950000 -1.292725
53.000000 -1.210504
53.050000 -1.200227
53.100000 -1.220782
53.150000 -1.268744
53.200000 -1.347539
53.250000 -1.436612
53.300000 -1.511982
53.350000 -1.573648
53.400000 -1.625037
53.450000 -1.652443
53.500000 -1.649018
53.550000 -1.611333
53.600000 -1.556519
53.650000 -1.484575
53.700000 -1.402354
53.750000 -1.330410
53.800000 -1.279022
53.850000 -1.234485
53.900000 -1.196800
53.950000 -1.196801
54.000000 -1.217355
54.050000 -1.234485
54.100000 -1.251615
54.150000 -1.316706
54.200000 -1.395502
54.250000 -1.450317
54.300000 -1.488001
54.350000 -1.525686
54.400000 -1.549667
54.450000 -1.535963
54.500000 -1.498278
54.550000 -1.464019
54.600000 -1.422909
54.650000 -1.381799
54.700000 -1.350965
54.750000 -1.337261
54.800000 -1.316706
54.850000 -1.275596
54.900000 -1.237911
54.950000 -1.203652
55.000000 -1.169393
55.050000 -1.121431
55.100000 -1.066617
55.150000 -1.001525
55.200000 -0.933006
55.250000 -0.854212
55.300000 -0.778842
55.350000 -0.741157
55.400000 -0.744583
55.450000 -0.758287
55.500000 -0.768564
55.550000 -0.785693
55.600000 -0.816526
55.650000 -0.854212
55.700000 -0.905599
55.750000 -0.946710
55.800000 -0.977543
55.850000 -1.011803
55.900000 -1.052913
55.950000 -1.090598
56.000000 -1.135134
56.050000 -1.217355
56.100000 -1.313281
56.150000 -1.385225
56.200000 -1.450316
56.250000 -1.515408
56.300000 -1.559945
56.350000 -1.556518
56.400000 -1.511982
56.450000 -1.450316
56.500000 -1.374947
56.550000 -1.292726
56.600000 -1.203652
56.650000 -1.114578
56.700000 -1.046061
56.750000 -1.001525
56.800000 -0.967266
56.850000 -0.939858
56.900000 -0.922729
56.950000 -0.912451
57.000000 -0.905599
57.050000 -0.898747
57.100000 -0.891896
57.150000 -0.881618
57.200000 -0.864489
57.250000 -0.871341
57.300000 -0.898748
57.350000 -0.953562
57.400000 -1.015228
57.450000 -1.087171
57.500000 -1.176245
57.550000 -1.248188
57.600000 -1.279022
57.650000 -1.292726
57.700000 -1.296151
57.750000 -1.258467
57.800000 -1.210504
57.850000 -1.176245
57.900000 -1.155689
57.950000 -1.124857
58.000000 -1.100875
58.050000 -1.104301
58.100000 -1.118005
58.150000 -1.152264
58.200000 -1.224207
58.250000 -1.292725
58.300000 -1.333836
58.350000 -1.378372
58.400000 -1.412632
58.450000 -1.402354
58.500000 -1.357817
58.550000 -1.306428
58.600000 -1.258466
58.650000 -1.237911
58.700000 -1.268744
58.750000 -1.296151
58.800000 -1.292725
58.850000 -1.337262
58.900000 -1.419483
58.950000 -1.477723
59.000000 -1.525686
59.050000 -1.583926
59.100000 -1.587352
59.150000 -1.525686
59.200000 -1.443464
59.250000 -1.344114
59.300000 -1.186523
59.350000 -1.004950
59.400000 -0.833656
59.450000 -0.669213
59.500000 -0.521899
59.550000 -0.436253
59.600000 -0.405420
59.650000 -0.415698
59.700000 -0.449956
59.750000 -0.497919
59.800000 -0.559585
59.850000 -0.645232
59.900000 -0.713750
59.950000 -0.758286
60.000000 -0.819952
60.050000 -0.881618
60.100000 -0.898748
60.150000 -0.885045
60.200000 -0.891896
60.250000 -0.891896
60.300000 -0.891896
60.350000 -0.922729
60.400000 -0.991247
60.450000 -1.073468
60.500000 -1.172819
60.550000 -1.275596
60.600000 -1.378372
60.650000 -1.467446
60.700000 -1.532537
60.750000 -1.580500
60.800000 -1.621611
60.850000 -1.652444
60.900000 -1.645592
60.950000 -1.601055
61.000000 -1.549667
61.050000 -1.491427
61.100000 -1.405779
61.150000 -1.326984
61.200000 -1.268744
61.250000 -1.186522
61.300000 -1.073468
61.350000 -0.977543
61.400000 -0.939858
61.450000 -0.902174
61.500000 -0.847360
61.550000 -0.799397
61.600000 -0.782267
61.650000 -0.789119
61.700000 -0.816526
61.750000 -0.867915
61.800000 -0.919304
61.850000 -0.994673
61.900000 -1.111153
61.950000 -1.231059
62.000000 -1.323558
62.050000 -1.429761
62.100000 -1.549667
62.150000 -1.635314
62.200000 -1.683277
62.250000 -1.734665
62.300000 -1.765498
62.350000 -1.765498
62.400000 -1.755220
62.450000 -1.748368
62.500000 -1.720961
62.550000 -1.676425
62.600000 -1.676425
62.650000 -1.693554
62.700000 -1.686702
62.750000 -1.683276
62.800000 -1.717536
62.850000 -1.734665
62.900000 -1.703832
62.950000 -1.655869
63.000000 -1.583926
63.050000 -1.467446
63.100000 -1.326984
63.150000 -1.189949
63.200000 -1.049487
63.250000 -0.902174
63.300000 -0.771990
63.350000 -0.679491
63.400000 -0.628103
63.450000 -0.628103
63.500000 -0.676065
63.550000 -0.751435
63.600000 -0.833656
63.650000 -0.919303
63.700000 -1.015228
63.750000 -1.107727
63.800000 -1.179671
63.850000 -1.207077
63.900000 -1.217355
63.950000 -1.234485
64.000000 -1.265318
64.050000 -1.268744
64.100000 -1.248189
64.150000 -1.237911
64.200000 -1.251615
64.250000 -1.261892
64.300000 -1.244763
64.350000 -1.200226
64.400000 -1.148838
64.450000 -1.094024
64.500000 -1.001524
64.550000 -0.878193
64.600000 -0.754860
64.650000 -0.655509
64.700000 -0.590418
64.750000 -0.569862
64.800000 -0.593843
64.850000 -0.648658
64.900000 -0.720601
64.950000 -0.819952
65.000000 -0.936432
65.050000 -1.063190
65.100000 -1.159115
65.150000 -1.210504
65.200000 -1.224207
65.250000 -1.200226
65.300000 -1.148838
65.350000 -1.076894
65.400000 -0.967266
65.450000 -0.826804
65.500000 -0.706898
65.550000 -0.638380
65.600000 -0.593843
65.650000 -0.549307
65.700000 -0.539030
65.750000 -0.586992
65.800000 -0.662361
65.850000 -0.765138
65.900000 -0.895322
65.950000 -1.018654
66.000000 -1.107727
66.050000 -1.186523
66.100000 -1.255040
66.150000 -1.296151
66.200000 -1.320132
66.250000 -1.344114
66.300000 -1.333835
66.350000 -1.285874
66.400000 -1.241336
66.450000 -1.210503
66.500000 -1.172819
66.550000 -1.141986
66.600000 -1.104301
66.650000 -1.028932
66.700000 -0.977543
66.750000 -0.967265
66.800000 -0.963840
66.850000 -0.950136
66.900000 -0.950136
66.950000 -0.950136
67.000000 -0.956988
67.050000 -1.025506
67.100000 -1.104301
67.150000 -1.114579
67.200000 -1.138560
67.250000 -1.210504
67.300000 -1.234485
67.350000 -1.189948
67.400000 -1.186523
67.450000 -1.207078
67.500000 -1.155689
67.550000 -1.100875
67.600000 -1.080320
67.650000 -1.035783
67.700000 -0.980969
67.750000 -0.980970
67.800000 -1.004951
67.850000 -1.025506
67.900000 -1.059764
67.950000 -1.107727
68.000000 -1.148838
68.050000 -1.183096
68.100000 -1.207078
68.150000 -1.207078
68.200000 -1.183097
68.250000 -1.145412
68.300000 -1.104301
68.350000 -1.076894
68.400000 -1.046061
68.450000 -0.994673
68.500000 -0.974118
68.550000 -1.004951
68.600000 -1.059764
68.650000 -1.107727
68.700000 -1.145412
68.750000 -1.159115
68.800000 -1.159115
68.850000 -1.159116
68.900000 -1.118005
68.950000 -1.035783
69.000000 -0.967266
69.050000 -0.922729
69.100000 -0.854211
69.150000 -0.816527
69.200000 -0.847360
69.250000 -0.915877
69.300000 -0.967266
69.350000 -1.035783
69.400000 -1.141986
69.450000 -1.258467
69.500000 -1.364669
69.550000 -1.453742
69.600000 -1.532538
69.650000 -1.583926
69.700000 -1.587352
69.750000 -1.539390
69.800000 -1.464019
69.850000 -1.381799
69.900000 -1.292725
69.950000 -1.200226
70.000000 -1.114579
70.050000 -1.032358
70.100000 -0.939858
70.150000 -0.857637
70.200000 -0.837082
70.250000 -0.857637
70.300000 -0.895321
70.350000 -0.984395
70.400000 -1.124857
70.450000 -1.265318
70.500000 -1.395502
70.550000 -1.515408
70.600000 -1.590778
70.650000 -1.611333
70.700000 -1.583926
70.750000 -1.491427
70.800000 -1.330410
70.850000 -1.138560
70.900000 -0.922729
70.950000 -0.693194
71.000000 -0.504770
71.050000 -0.381438
71.100000 -0.306069
71.150000 -0.312920
71.200000 -0.408846
71.250000 -0.552733
71.300000 -0.737730
71.350000 -0.960414
71.400000 -1.145412
71.450000 -1.268744
71.500000 -1.364668
71.550000 -1.419483
71.600000 -1.364668
71.650000 -1.251614
71.700000 -1.131708
71.750000 -0.987821
71.800000 -0.826804
71.850000 -0.689768
71.900000 -0.566437
71.950000 -0.473938
72.000000 -0.449956
72.050000 -0.473938
72.100000 -0.508196
72.150000 -0.580140
72.200000 -0.686342
72.250000 -0.778841
72.300000 -0.854211
72.350000 -0.926155
72.400000 -0.953562
72.450000 -0.922729
72.500000 -0.885044
72.550000 -0.864489
72.600000 -0.833656
72.650000 -0.799397
72.700000 -0.775416
72.750000 -0.768564
72.800000 -0.802823
72.850000 -0.861063
72.900000 -0.919303
72.950000 -0.977544
73.000000 -1.032358
73.050000 -1.070043
73.100000 -1.073468
73.150000 -1.066616
73.200000 -1.032357
73.250000 -0.922729
73.300000 -0.785694
73.350000 -0.672639
73.400000 -0.576714
73.450000 -0.477364
73.500000 -0.408845
73.550000 -0.391716
73.600000 -0.401994
73.650000 -0.453382
73.700000 -0.535603
73.750000 -0.624677
73.800000 -0.727453
73.850000 -0.830230
73.900000 -0.885044
73.950000 -0.905600
74.000000 -0.915877
74.050000 -0.905599
74.100000 -0.857637
74.150000 -0.802823
74.200000 -0.754860
74.250000 -0.713750
74.300000 -0.700046
74.350000 -0.700046
74.400000 -0.703472
74.450000 -0.744582
74.500000 -0.816527
74.550000 -0.885044
74.600000 -0.946711
74.650000 -1.042635
74.700000 -1.172819
74.750000 -1.289299
74.800000 -1.368095
74.850000 -1.440039
74.900000 -1.525686
74.950000 -1.590778
75.000000 -1.601056
75.050000 -1.573648
75.100000 -1.556519
75.150000 -1.525685
75.200000 -1.443465
75.250000 -1.333836
75.300000 -1.261892
75.350000 -1.213929
75.400000 -1.148838
75.450000 -1.083746
75.500000 -1.042635
75.550000 -1.042635
75.600000 -1.080320
75.650000 -1.121431
75.700000 -1.148838
75.750000 -1.169394
75.800000 -1.189949
75.850000 -1.189949
75.900000 -1.165968
75.950000 -1.138561
76.000000 -1.083746
76.050000 -1.001524
76.100000 -0.909025
76.150000 -0.816526
76.200000 -0.741157
76.250000 -0.686343
76.300000 -0.638380
76.350000 -0.607547
76.400000 -0.614399
76.450000 -0.628103
76.500000 -0.628102
76.550000 -0.665787
76.600000 -0.768564
76.650000 -0.881618
76.700000 -0.970692
76.750000 -1.056339
76.800000 -1.162541
76.850000 -1.251615
76.900000 -1.299577
76.950000 -1.316706
77.000000 -1.316707
77.050000 -1.296151
77.100000 -1.241336
77.150000 -1.179671
77.200000 -1.131708
77.250000 -1.100875
77.300000 -1.073469
77.350000 -1.066617
77.400000 -1.107727
77.450000 -1.172819
77.500000 -1.258467
77.550000 -1.340688
77.600000 -1.412632
77.650000 -1.470871
77.700000 -1.518833
77.750000 -1.529112
77.800000 -1.481149
77.850000 -1.429761
77.900000 -1.385224
77.950000 -1.309855
78.000000 -1.213930
78.050000 -1.128282
78.100000 -1.056338
78.150000 -1.004950
78.200000 -0.977543
78.250000 -0.943285
78.300000 -0.891896
78.350000 -0.857637
78.400000 -0.833656
78.450000 -0.795971
78.500000 -0.761712
78.550000 -0.754860
78.600000 -0.768564
78.650000 -0.789120
78.700000 -0.843934
78.750000 -0.950136
78.800000 -1.083746
78.850000 -1.220782
78.900000 -1.337262
78.950000 -1.416057
79.000000 -1.464020
79.050000 -1.491427
79.100000 -1.457168
79.150000 -1.364668
79.200000 -1.241336
79.250000 -1.097449
79.300000 -0.939858
79.350000 -0.813100
79.400000 -0.737731
79.450000 -0.710324
79.500000 -0.734306
79.550000 -0.809674
79.600000 -0.922729
79.650000 -1.066616
79.700000 -1.213930
79.750000 -1.323558
79.800000 -1.398928
79.850000 -1.453742
79.900000 -1.446890
79.950000 -1.371521
80.000000 -1.309855
80.050000 -1.261892
80.100000 -1.189949
80.150000 -1.111153
80.200000 -1.063191
80.250000 -1.028931
80.300000 -1.008376
80.350000 -1.032357
80.400000 -1.063190
80.450000 -1.063190
80.500000 -1.049487
80.550000 -1.015228
80.600000 -0.933006
80.650000 -0.809675
80.700000 -0.655510
80.750000 -0.497919
80.800000 -0.374586
80.850000 -0.295791
80.900000 -0.237551
80.950000 -0.237551
81.000000 -0.330050
81.050000 -0.453382
81.100000 -0.573289
81.150000 -0.710323
81.200000 -0.864489
81.250000 -0.953562
81.300000 -0.963840
81.350000 -0.936433
81.400000 -0.857637
81.450000 -0.717176
81.500000 -0.549307
81.550000 -0.378013
81.600000 -0.240977
81.650000 -0.162182
81.700000 -0.141626
81.750000 -0.158756
81.800000 -0.244403
81.850000 -0.401993
81.900000 -0.569863
81.950000 -0.727453
82.000000 -0.912451
82.050000 -1.097450
82.100000 -1.207078
82.150000 -1.237911
82.200000 -1.248189
82.250000 -1.237910
82.300000 -1.172819
82.350000 -1.052913
82.400000 -0.929581
82.450000 -0.830230
82.500000 -0.730880
82.550000 -0.655509
82.600000 -0.645232
82.650000 -0.689768
82.700000 -0.751435
82.750000 -0.840507
82.800000 -0.974117
82.850000 -1.111153
82.900000 -1.248188
82.950000 -1.385224
83.000000 -1.498279
83.050000 -1.556518
83.100000 -1.566796
83.150000 -1.539389
83.200000 -1.477723
83.250000 -1.388650
83.300000 -1.285873
83.350000 -1.176245
83.400000 -1.080320
83.450000 -1.008376
83.500000 -0.956988
83.550000 -0.926155
83.600000 -0.915878
83.650000 -0.909025
83.700000 -0.915877
83.750000 -0.936432
83.800000 -0.956987
83.850000 -0.970692
83.900000 -0.998099
83.950000 -1.028931
84.000000 -1.052913
84.050000 -1.063190
84.100000 -1.070042
84.150000 -1.070043
84.200000 -1.059765
84.250000 -1.049487
84.300000 -1.049487
84.350000 -1.039209
84.400000 -1.008377
84.450000 -0.980969
84.500000 -0.994673
84.550000 -1.035784
84.600000 -1.090597
84.650000 -1.145412
84.700000 -1.200226
84.750000 -1.265318
84.800000 -1.340688
84.850000 -1.385224
84.900000 -1.381798
84.950000 -1.361243
85.000000 -1.337262
85.050000 -1.272170
85.100000 -1.155689
85.150000 -1.025506
85.200000 -0.909025
85.250000 -0.809675
85.300000 -0.730879
85.350000 -0.703472
85.400000 -0.717176
85.450000 -0.744583
85.500000 -0.761712
85.550000 -0.799397
85.600000 -0.878193
85.650000 -0.967266
85.700000 -1.032357
85.750000 -1.066616
85.800000 -1.090598
85.850000 -1.094023
85.900000 -1.076895
85.950000 -1.046062
86.000000 -1.018654
86.050000 -0.980969
86.100000 -0.909026
86.150000 -0.840508
86.200000 -0.792545
86.250000 -0.741157
86.300000 -0.665787
86.350000 -0.607547
86.400000 -0.580140
86.450000 -0.559585
86.500000 -0.566437
86.550000 -0.586992
86.600000 -0.624676
86.650000 -0.682916
86.700000 -0.775415
86.750000 -0.843934
86.800000 -0.885044
86.850000 -0.950136
86.900000 -1.052913
86.950000 -1.128283
87.000000 -1.179671
87.050000 -1.227634
87.100000 -1.261892
87.150000 -1.282447
87.200000 -1.289299
87.250000 -1.272170
87.300000 -1.244763
87.350000 -1.203652
87.400000 -1.135134
87.450000 -1.059765
87.500000 -1.004951
87.550000 -0.967266
87.600000 -0.933007
87.650000 -0.922729
87.700000 -0.956988
87.750000 -1.022080
87.800000 -1.114579
87.850000 -1.203652
87.900000 -1.303003
87.950000 -1.398928
88.000000 -1.488000
88.050000 -1.553093
88.100000 -1.614759
88.150000 -1.649018
88.200000 -1.628462
88.250000 -1.590778
88.300000 -1.549667
88.350000 -1.494853
88.400000 -1.429761
88.450000 -1.378372
88.500000 -1.326984
88.550000 -1.248188
88.600000 -1.172819
88.650000 -1.111153
88.700000 -1.049486
88.750000 -0.994673
88.800000 -0.950137
88.850000 -0.905599
88.900000 -0.871340
88.950000 -0.874766
89.000000 -0.867915
89.050000 -0.857638
89.100000 -0.878192
89.150000 -0.902174
89.200000 -0.905600
89.250000 -0.912451
89.300000 -0.933007
89.350000 -0.922729
89.400000 -0.891896
89.450000 -0.864489
89.500000 -0.816527
89.550000 -0.748009
89.600000 -0.700046
89.650000 -0.662362
89.700000 -0.617825
89.750000 -0.569862
89.800000 -0.545881
89.850000 -0.521900
89.900000 -0.491067
89.950000 -0.477364
90.000000 -0.473938
90.050000 -0.463660
90.100000 -0.456808
90.150000 -0.477363
90.200000 -0.511622
90.250000 -0.528751
90.300000 -0.552733
90.350000 -0.607547
90.400000 -0.672639
90.450000 -0.730879
90.500000 -0.792545
90.550000 -0.857637
90.600000 -0.922729
90.650000 -0.967266
90.700000 -0.977543
90.750000 -0.977543
90.800000 -1.018654
90.850000 -1.076894
90.900000 -1.080320
90.950000 -1.046062
91.000000 -1.039209
91.050000 -1.039209
91.100000 -1.018654
91.150000 -0.998099
91.200000 -0.998099
91.250000 -0.980969
91.300000 -0.926155
91.350000 -0.891896
91.400000 -0.895322
91.450000 -0.891896
91.500000 -0.874766
91.550000 -0.867915
91.600000 -0.878193
91.650000 -0.891896
91.700000 -0.891896
91.750000 -0.885044
91.800000 -0.885044
91.850000 -0.885044
91.900000 -0.864489
91.950000 -0.830230
92.000000 -0.816526
92.050000 -0.819952
92.100000 -0.826804
92.150000 -0.857637
92.200000 -0.929581
92.250000 -1.011802
92.300000 -1.063191
92.350000 -1.114579
92.400000 -1.179670
92.450000 -1.217356
92.500000 -1.227634
92.550000 -1.251615
92.600000 -1.268744
92.650000 -1.227634
92.700000 -1.145412
92.750000 -1.052912
92.800000 -0.960414
92.850000 -0.878192
92.900000 -0.819952
92.950000 -0.785693
93.000000 -0.768564
93.050000 -0.778842
93.100000 -0.816526
93.150000 -0.864489
93.200000 -0.943284
93.250000 -1.059764
93.300000 -1.159115
93.350000 -1.241337
93.400000 -1.323559
93.450000 -1.412631
93.500000 -1.467446
93.550000 -1.488001
93.600000 -1.488001
93.650000 -1.464020
93.700000 -1.398928
93.750000 -1.299577
93.800000 -1.207078
93.850000 -1.138560
93.900000 -1.063191
93.950000 -0.970691
94.000000 -0.891896
94.050000 -0.830230
94.100000 -0.765138
94.150000 -0.689769
94.200000 -0.662361
94.250000 -0.662361
94.300000 -0.665788
94.350000 -0.672639
94.400000 -0.696621
94.450000 -0.734305
94.500000 -0.785693
94.550000 -0.826804
94.600000 -0.867914
94.650000 -0.926155
94.700000 -1.008377
94.750000 -1.087172
94.800000 -1.152264
94.850000 -1.203652
94.900000 -1.227634
94.950000 -1.210504
95.000000 -1.183097
95.050000 -1.135134
95.100000 -1.070042
95.150000 -1.001524
95.200000 -0.967266
95.250000 -0.939858
95.300000 -0.905599
95.350000 -0.895322
95.400000 -0.953562
95.450000 -1.018654
95.500000 -1.052913
95.550000 -1.100875
95.600000 -1.189948
95.650000 -1.255040
95.700000 -1.258466
95.750000 -1.261893
95.800000 -1.282447
95.850000 -1.275596
95.900000 -1.244763
95.950000 -1.227633
96.000000 -1.207078
96.050000 -1.189949
96.100000 -1.203652
96.150000 -1.241337
96.200000 -1.272170
96.250000 -1.285873
96.300000 -1.275596
96.350000 -1.241337
96.400000 -1.193374
96.450000 -1.131708
96.500000 -1.063191
96.550000 -0.984395
96.600000 -0.905599
96.650000 -0.833656
96.700000 -0.792545
96.750000 -0.792545
96.800000 -0.792545
96.850000 -0.792545
96.900000 -0.816526
96.950000 -0.874766
97.000000 -0.929581
97.050000 -0.950137
97.100000 -0.953562
97.150000 -0.974117
97.200000 -1.001525
97.250000 -1.008376
97.300000 -1.001524
97.350000 -1.008377
97.400000 -1.039209
97.450000 -1.066617
97.500000 -1.097449
97.550000 -1.148837
97.600000 -1.207078
97.650000 -1.272169
97.700000 -1.347539
97.750000 -1.416058
97.800000 -1.470872
97.850000 -1.522260
97.900000 -1.566797
97.950000 -1.573649
98.000000 -1.559945
98.050000 -1.549667
98.100000 -1.535963
98.150000 -1.515408
98.200000 -1.498278
98.250000 -1.464020
98.300000 -1.416057
98.350000 -1.392076
98.400000 -1.371520
98.450000 -1.316706
98.500000 -1.255040
98.550000 -1.203652
98.600000 -1.114579
98.650000 -0.987821
98.700000 -0.902173
98.750000 -0.833656
98.800000 -0.737731
98.850000 -0.662361
98.900000 -0.645232
98.950000 -0.645232
99.000000 -0.645232
99.050000 -0.686343
99.100000 -0.751435
99.150000 -0.816526
99.200000 -0.891896
99.250000 -0.987821
99.300000 -1.056339
99.350000 -1.073469
99.400000 -1.070042
99.450000 -1.080320
99.500000 -1.083746
99.550000 -1.046061
99.600000 -0.987821
99.650000 -0.956988
99.700000 -0.950136
99.750000 -0.936432
99.800000 -0.926155
99.850000 -0.950136
99.900000 -0.998098
99.950000 -1.063191
100.000000 -1.135134
100.050000 -1.200226
100.100000 -1.268744
100.150000 -1.330410
100.200000 -1.374946
100.250000 -1.402353
100.300000 -1.405779
100.350000 -1.388650
100.400000 -1.340688
100.450000 -1.255040
100.500000 -1.138560
100.550000 -1.032358
100.600000 -0.943284
100.650000 -0.857637
100.700000 -0.778841
100.750000 -0.727454
100.800000 -0.703472
100.850000 -0.686343
100.900000 -0.679491
100.950000 -0.686343
101.000000 -0.693195
101.050000 -0.710324
101.100000 -0.713750
101.150000 -0.686342
101.200000 -0.658936
101.250000 -0.662361
101.300000 -0.679491
101.350000 -0.686343
101.400000 -0.724028
101.450000 -0.806249
101.500000 -0.885045
101.550000 -0.974117
101.600000 -1.087171
101.650000 -1.193375
101.700000 -1.275595
101.750000 -1.350966
101.800000 -1.398928
101.850000 -1.364669
101.900000 -1.285873
101.950000 -1.227633
102.000000 -1.159115
102.050000 -1.052913
102.100000 -0.960414
102.150000 -0.888470
102.200000 -0.802823
102.250000 -0.713750
102.300000 -0.679490
102.350000 -0.682917
102.400000 -0.693195
102.450000 -0.734305
102.500000 -0.816526
102.550000 -0.902174
102.600000 -0.960413
102.650000 -1.011802
102.700000 -1.059764
102.750000 -1.094023
102.800000 -1.114579
102.850000 -1.131708
102.900000 -1.121431
102.950000 -1.073468
103.000000 -1.025505
103.050000 -0.998098
103.100000 -0.953562
103.150000 -0.898748
103.200000 -0.871341
103.250000 -0.888470
103.300000 -0.922729
103.350000 -0.956988
103.400000 -1.011802
103.450000 -1.063191
103.500000 -1.063191
103.550000 -1.015228
103.600000 -0.943285
103.650000 -0.840507
103.700000 -0.720601
103.750000 -0.593844
103.800000 -0.446530
103.850000 -0.271810
103.900000 -0.131349
103.950000 -0.031998
104.000000 0.039946
104.050000 0.084483
104.100000 0.070780
104.150000 0.002262
104.200000 -0.100515
104.250000 -0.199866
104.300000 -0.278661
104.350000 -0.336902
104.400000 -0.391717
104.450000 -0.443105
104.500000 -0.463660
104.550000 -0.453383
104.600000 -0.453382
104.650000 -0.494493
104.700000 -0.552733
104.750000 -0.593843
104.800000 -0.655510
104.850000 -0.754860
104.900000 -0.861063
104.950000 -0.960413
105.000000 -1.083746
105.050000 -1.189948
105.100000 -1.241337
105.150000 -1.248189
105.200000 -1.237911
105.250000 -1.189949
105.300000 -1.111153
105.350000 -0.987821
105.400000 -0.837082
105.450000 -0.724027
105.500000 -0.641806
105.550000 -0.563011
105.600000 -0.525326
105.650000 -0.563011
105.700000 -0.593844
105.750000 -0.614399
105.800000 -0.689769
105.850000 -0.785693
105.900000 -0.840508
105.950000 -0.885045
106.000000 -0.950136
106.050000 -0.980969
106.100000 -0.960413
106.150000 -0.939859
106.200000 -0.936432
106.250000 -0.922729
106.300000 -0.926155
106.350000 -0.963840
106.400000 -1.018654
106.450000 -1.070042
106.500000 -1.131708
106.550000 -1.200226
106.600000 -1.261892
106.650000 -1.289299
106.700000 -1.255041
106.750000 -1.165967
106.800000 -1.056338
106.850000 -0.933006
106.900000 -0.768564
106.950000 -0.593843
107.000000 -0.467085
107.050000 -0.374587
107.100000 -0.295791
107.150000 -0.261532
107.200000 -0.292366
107.250000 -0.364309
107.300000 -0.470511
107.350000 -0.604121
107.400000 -0.737731
107.450000 -0.857637
107.500000 -0.953562
107.550000 -1.015228
107.600000 -1.028932
107.650000 -1.015228
107.700000 -0.974117
107.750000 -0.902174
107.800000 -0.823379
107.850000 -0.741157
107.900000 -0.682917
107.950000 -0.652084
108.000000 -0.631528
108.050000 -0.604122
108.100000 -0.586991
108.150000 -0.576714
108.200000 -0.573289
108.250000 -0.569863
108.300000 -0.559585
108.350000 -0.556159
108.400000 -0.549307
108.450000 -0.535603
108.500000 -0.525326
108.550000 -0.542455
108.600000 -0.576714
108.650000 -0.604121
108.700000 -0.641806
108.750000 -0.724028
108.800000 -0.819952
108.850000 -0.912451
108.900000 -1.004950
108.950000 -1.070042
109.000000 -1.118005
109.050000 -1.155690
109.100000 -1.169393
109.150000 -1.124856
109.200000 -1.063191
109.250000 -1.001525
109.300000 -0.919303
109.350000 -0.837082
109.400000 -0.806249
109.450000 -0.792545
109.500000 -0.768564
109.550000 -0.754861
109.600000 -0.778841
109.650000 -0.813100
109.700000 -0.857637
109.750000 -0.881618
109.800000 -0.864489
109.850000 -0.854211
109.900000 -0.864489
109.950000 -0.850786
110.000000 -0.809675
110.050000 -0.768564
110.100000 -0.758286
110.150000 -0.775416
110.200000 -0.826804
110.250000 -0.895322
110.300000 -0.967265
110.350000 -1.066616
110.400000 -1.186522
110.450000 -1.282448
110.500000 -1.354391
110.550000 -1.412631
110.600000 -1.457168
110.650000 -1.474298
110.700000 -1.460593
110.750000 -1.416057
110.800000 -1.350965
110.850000 -1.303002
110.900000 -1.272170
110.950000 -1.234485
111.000000 -1.210504
111.050000 -1.224207
111.100000 -1.227633
111.150000 -1.200227
111.200000 -1.176245
111.250000 -1.138560
111.300000 -1.046061
111.350000 -0.929581
111.400000 -0.833656
111.450000 -0.717175
111.500000 -0.576714
111.550000 -0.460234
111.600000 -0.340328
111.650000 -0.216996
111.700000 -0.121070
111.750000 -0.073108
111.800000 -0.052553
111.850000 -0.059405
111.900000 -0.093663
111.950000 -0.155330
112.000000 -0.251255
112.050000 -0.378013
112.100000 -0.487641
112.150000 -0.583566
112.200000 -0.706898
112.250000 -0.840508
112.300000 -0.946711
112.350000 -1.070042
112.400000 -1.196801
112.450000 -1.289299
112.500000 -1.361243
112.550000 -1.416057
112.600000 -1.412631
112.650000 -1.350965
112.700000 -1.251615
112.750000 -1.131708
112.800000 -1.011802
112.850000 -0.878193
112.900000 -0.720602
112.950000 -0.604121
113.000000 -0.566437
113.050000 -0.556159
113.100000 -0.552733
113.150000 -0.614399
113.200000 -0.737731
113.250000 -0.847360
113.300000 -0.926155
113.350000 -1.008377
113.400000 -1.100875
113.450000 -1.172819
113.500000 -1.189949
113.550000 -1.155689
113.600000 -1.097450
113.650000 -1.015228
113.700000 -0.902174
113.750000 -0.778841
113.800000 -0.682917
113.850000 -0.597269
113.900000 -0.511622
113.950000 -0.443104
114.000000 -0.405419
114.050000 -0.374587
114.100000 -0.347180
114.150000 -0.340327
114.200000 -0.367735
114.250000 -0.398568
114.300000 -0.425975
114.350000 -0.477364
114.400000 -0.532177
114.450000 -0.576714
114.500000 -0.628103
114.550000 -0.679491
114.600000 -0.710324
114.650000 -0.741157
114.700000 -0.778842
114.750000 -0.785693
114.800000 -0.775416
114.850000 -0.802823
114.900000 -0.830230
114.950000 -0.826804
115.000000 -0.843934
115.050000 -0.891896
115.100000 -0.943284
115.150000 -1.004951
115.200000 -1.087171
115.250000 -1.138560
115.300000 -1.165968
115.350000 -1.189949
115.400000 -1.196800
115.450000 -1.183097
115.500000 -1.152264
115.550000 -1.083746
115.600000 -0.994673
115.650000 -0.933007
115.700000 -0.874766
115.750000 -0.768564
115.800000 -0.652084
115.850000 -0.573288
115.900000 -0.525326
115.950000 -0.487641
116.000000 -0.463659
116.050000 -0.432827
116.100000 -0.412272
116.150000 -0.415697
116.200000 -0.429401
116.250000 -0.422549
116.300000 -0.391716
116.350000 -0.340328
116.400000 -0.299217
116.450000 -0.275236
116.500000 -0.247829
116.550000 -0.220422
116.600000 -0.210143
116.650000 -0.216996
116.700000 -0.234125
116.750000 -0.254681
116.800000 -0.288939
116.850000 -0.357457
116.900000 -0.429401
116.950000 -0.494493
117.000000 -0.552733
117.050000 -0.597270
117.100000 -0.600695
117.150000 -0.569862
117.200000 -0.521900
117.250000 -0.467086
117.300000 -0.401993
117.350000 -0.330050
117.400000 -0.251254
117.450000 -0.179311
117.500000 -0.141626
117.550000 -0.141626
117.600000 -0.179311
117.650000 -0.237551
117.700000 -0.323198
117.750000 -0.446530
117.800000 -0.607547
117.850000 -0.748008
117.900000 -0.864489
117.950000 -0.967266
118.000000 -1.056339
118.050000 -1.104302
118.100000 -1.094024
118.150000 -1.046061
118.200000 -0.980969
118.250000 -0.915877
118.300000 -0.833656
118.350000 -0.730879
118.400000 -0.645232
118.450000 -0.580140
118.500000 -0.515048
118.550000 -0.467086
118.600000 -0.477363
118.650000 -0.528752
118.700000 -0.569863
118.750000 -0.634954
118.800000 -0.744582
118.850000 -0.874766
118.900000 -0.991247
118.950000 -1.097449
119.000000 -1.179671
119.050000 -1.234485
119.100000 -1.265318
119.150000 -1.268744
119.200000 -1.244763
119.250000 -1.196800
119.300000 -1.104302
119.350000 -0.967266
119.400000 -0.840507
119.450000 -0.748009
119.500000 -0.689768
119.550000 -0.682917
119.600000 -0.734305
119.650000 -0.795971
119.700000 -0.847360
119.750000 -0.936433
119.800000 -1.056339
119.850000 -1.141986
119.900000 -1.165967
119.950000 -1.141986
120.000000 -1.059764
120.050000 -0.912452
120.100000 -0.724027
120.150000 -0.525326
120.200000 -0.323198
120.250000 -0.145052
120.300000 -0.014868
120.350000 0.067353
120.400000 0.070779
120.450000 -0.014868
120.500000 -0.158755
120.550000 -0.336902
120.600000 -0.559585
120.650000 -0.813101
120.700000 -1.052913
120.750000 -1.248189
120.800000 -1.395502
120.850000 -1.498278
120.900000 -1.532537
120.950000 -1.501705
121.000000 -1.436613
121.050000 -1.330410
121.100000 -1.176245
121.150000 -1.015228
121.200000 -0.905600
121.250000 -0.837082
121.300000 -0.765138
121.350000 -0.734305
121.400000 -0.775416
121.450000 -0.843934
121.500000 -0.895322
121.550000 -0.946711
121.600000 -1.001525
121.650000 -1.042636
121.700000 -1.073468
121.750000 -1.083746
121.800000 -1.059765
121.850000 -1.022080
121.900000 -0.977543
121.950000 -0.912452
122.000000 -0.861063
122.050000 -0.850785
122.100000 -0.850785
122.150000 -0.847359
122.200000 -0.847359
122.250000 -0.847359
122.300000 -0.843934
122.350000 -0.840508
122.400000 -0.837082
122.450000 -0.819952
122.500000 -0.795971
122.550000 -0.751434
122.600000 -0.693194
122.650000 -0.638380
122.700000 -0.624676
122.750000 -0.645231
122.800000 -0.652084
122.850000 -0.655509
122.900000 -0.679491
122.950000 -0.717175
123.000000 -0.744583
123.050000 -0.765138
123.100000 -0.785693
123.150000 -0.789119
123.200000 -0.789119
123.250000 -0.799397
123.300000 -0.826804
123.350000 -0.871341
123.400000 -0.926155
123.450000 -0.987821
123.500000 -1.052913
123.550000 -1.128283
123.600000 -1.196801
123.650000 -1.224207
123.700000 -1.207078
123.750000 -1.159116
123.800000 -1.083746
123.850000 -0.974117
123.900000 -0.837082
123.950000 -0.686343
124.000000 -0.559585
124.050000 -0.480789
124.100000 -0.446530
124.150000 -0.439679
124.200000 -0.491067
124.250000 -0.617825
124.300000 -0.761712
124.350000 -0.902173
124.400000 -1.039210
124.450000 -1.189949
124.500000 -1.323558
124.550000 -1.405780
124.600000 -1.440039
124.650000 -1.453742
124.700000 -1.422909
124.750000 -1.320132
124.800000 -1.186522
124.850000 -1.073469
124.900000 -0.950136
124.950000 -0.813100
125.000000 -0.720601
125.050000 -0.682917
125.100000 -0.634955
125.150000 -0.576714
125.200000 -0.556159
125.250000 -0.535604
125.300000 -0.501345
125.350000 -0.501345
125.400000 -0.528752
125.450000 -0.535604
125.500000 -0.539029
125.550000 -0.569863
125.600000 -0.604121
125.650000 -0.614399
125.700000 -0.610973
125.750000 -0.607548
125.800000 -0.607547
125.850000 -0.610973
125.900000 -0.600695
125.950000 -0.583566
126.000000 -0.597270
126.050000 -0.607547
126.100000 -0.576714
126.150000 -0.559585
126.200000 -0.593844
126.250000 -0.607547
126.300000 -0.566436
126.350000 -0.539029
126.400000 -0.545881
126.450000 -0.542455
126.500000 -0.515049
126.550000 -0.491067
126.600000 -0.484215
126.650000 -0.521900
126.700000 -0.569862
126.750000 -0.617825
126.800000 -0.713750
126.850000 -0.857637
126.900000 -0.984395
126.950000 -1.080320
127.000000 -1.207078
127.050000 -1.333836
127.100000 -1.402354
127.150000 -1.426335
127.200000 -1.426335
127.250000 -1.374946
127.300000 -1.261892
127.350000 -1.100875
127.400000 -0.912452
127.450000 -0.720601
127.500000 -0.545881
127.550000 -0.364309
127.600000 -0.199866
127.650000 -0.093664
127.700000 -0.021720
127.750000 0.026243
127.800000 -0.011442
127.850000 -0.145052
127.900000 -0.295791
127.950000 -0.456808
128.000000 -0.676065
128.050000 -0.902174
128.100000 -1.076895
128.150000 -1.217356
128.200000 -1.337261
128.250000 -1.361243
128.300000 -1.303003
128.350000 -1.200226
128.400000 -1.046061
128.450000 -0.840508
128.500000 -0.631528
128.550000 -0.446531
128.600000 -0.306069
128.650000 -0.199866
128.700000 -0.138201
128.750000 -0.114219
128.800000 -0.151904
128.850000 -0.234125
128.900000 -0.316346
128.950000 -0.408845
129.000000 -0.501345
129.050000 -0.549307
129.100000 -0.563010
129.150000 -0.576714
129.200000 -0.566437
129.250000 -0.528752
129.300000 -0.480789
129.350000 -0.470511
129.400000 -0.518474
129.450000 -0.617825
129.500000 -0.710324
129.550000 -0.806249
129.600000 -0.936432
129.650000 -1.073468
129.700000 -1.155690
129.750000 -1.193374
129.800000 -1.231059
129.850000 -1.241337
129.900000 -1.196800
129.950000 -1.128282
130.000000 -1.073468
130.050000 -1.018653
130.100000 -0.936433
130.150000 -0.864489
130.200000 -0.857637
130.250000 -0.874767
130.300000 -0.864489
130.350000 -0.833656
130.400000 -0.823378
130.450000 -0.806249
130.500000 -0.741157
130.550000 -0.669213
130.600000 -0.621250
130.650000 -0.545881
130.700000 -0.467085
130.750000 -0.443105
130.800000 -0.439679
130.850000 -0.422549
130.900000 -0.449956
130.950000 -0.532178
131.000000 -0.621251
131.050000 -0.703472
131.100000 -0.802823
131.150000 -0.888470
131.200000 -0.926155
131.250000 -0.950136
131.300000 -0.977543
131.350000 -1.004950
131.400000 -1.008376
131.450000 -1.008376
131.500000 -1.039209
131.550000 -1.107727
131.600000 -1.183096
131.650000 -1.255041
131.700000 -1.330410
131.750000 -1.409205
131.800000 -1.477723
131.850000 -1.535964
131.900000 -1.546241
131.950000 -1.484575
132.000000 -1.385225
132.050000 -1.282447
132.100000 -1.141986
132.150000 -0.980969
132.200000 -0.837082
132.250000 -0.734305
132.300000 -0.634954
132.350000 -0.559585
132.400000 -0.521900
132.450000 -0.518474
132.500000 -0.552733
132.550000 -0.614399
132.600000 -0.662361
132.650000 -0.686343
132.700000 -0.713750
132.750000 -0.734305
132.800000 -0.734305
132.850000 -0.724027
132.900000 -0.710324
132.950000 -0.676065
133.000000 -0.658936
133.050000 -0.703472
133.100000 -0.768564
133.150000 -0.819953
133.200000 -0.902174
133.250000 -1.011802
133.300000 -1.094024
133.350000 -1.128282
133.400000 -1.155689
133.450000 -1.169393
133.500000 -1.141986
133.550000 -1.090598
133.600000 -1.049487
133.650000 -1.008376
133.700000 -0.950136
133.750000 -0.898748
133.800000 -0.874767
133.850000 -0.878192
133.900000 -0.895322
133.950000 -0.919303
134.000000 -0.933007
134.050000 -0.929581
134.100000 -0.912452
134.150000 -0.881618
134.200000 -0.840508
134.250000 -0.771990
134.300000 -0.696621
134.350000 -0.648658
134.400000 -0.634954
134.450000 -0.648658
134.500000 -0.665787
134.550000 -0.703472
134.600000 -0.789119
134.650000 -0.905599
134.700000 -0.974117
134.750000 -0.987821
134.800000 -1.018654
134.850000 -1.042635
134.900000 -1.004951
134.950000 -0.929581
135.000000 -0.833655
135.050000 -0.710324
135.100000 -0.586992
135.150000 -0.508196
135.200000 -0.470512
135.250000 -0.460234
135.300000 -0.501344
135.350000 -0.590418
135.400000 -0.696620
135.450000 -0.806249
135.500000 -0.939858
135.550000 -1.059765
135.600000 -1.135135
135.650000 -1.159116
135.700000 -1.135134
135.750000 -1.080320
135.800000 -1.011802
135.850000 -0.919304
135.900000 -0.792545
135.950000 -0.652084
136.000000 -0.539029
136.050000 -0.456808
136.100000 -0.391716
136.150000 -0.357457
136.200000 -0.357457
136.250000 -0.374586
136.300000 -0.405420
136.350000 -0.473937
136.400000 -0.566436
136.450000 -0.648657
136.500000 -0.710324
136.550000 -0.778842
136.600000 -0.850785
136.650000 -0.915878
136.700000 -0.960414
136.750000 -0.956988
136.800000 -0.922729
136.850000 -0.895322
136.900000 -0.867915
136.950000 -0.813101
137.000000 -0.758286
137.050000 -0.741157
137.100000 -0.703472
137.150000 -0.628103
137.200000 -0.583566
137.250000 -0.590418
137.300000 -0.586992
137.350000 -0.545881
137.400000 -0.518474
137.450000 -0.515048
137.500000 -0.491067
137.550000 -0.449957
137.600000 -0.422549
137.650000 -0.388290
137.700000 -0.343754
137.750000 -0.309495
137.800000 -0.312921
137.850000 -0.343753
137.900000 -0.388290
137.950000 -0.467085
138.000000 -0.569863
138.050000 -0.676065
138.100000 -0.782268
138.150000 -0.871341
138.200000 -0.929581
138.250000 -0.950137
138.300000 -0.946710
138.350000 -0.902173
138.400000 -0.830230
138.450000 -0.751434
138.500000 -0.652084
138.550000 -0.549307
138.600000 -0.470511
138.650000 -0.415697
138.700000 -0.364309
138.750000 -0.350605
138.800000 -0.408846
138.850000 -0.497919
138.900000 -0.593844
138.950000 -0.700046
139.000000 -0.802823
139.050000 -0.888470
139.100000 -0.970692
139.150000 -1.059765
139.200000 -1.124857
139.250000 -1.183097
139.300000 -1.251615
139.350000 -1.296151
139.400000 -1.303003
139.450000 -1.326985
139.500000 -1.364669
139.550000 -1.361243
139.600000 -1.340688
139.650000 -1.326984
139.700000 -1.299577
139.750000 -1.248188
139.800000 -1.183097
139.850000 -1.090598
139.900000 -0.984395
139.950000 -0.898747
140.000000 -0.830230
140.050000 -0.741157
140.100000 -0.689769
140.150000 -0.686342
140.200000 -0.676065
140.250000 -0.665787
140.300000 -0.700046
140.350000 -0.737731
140.400000 -0.748008
140.450000 -0.782267
140.500000 -0.847360
140.550000 -0.878192
140.600000 -0.881618
140.650000 -0.905599
140.700000 -0.936433
140.750000 -0.956988
140.800000 -0.987821
140.850000 -1.018654
140.900000 -1.046061
140.950000 -1.073468
141.000000 -1.087172
141.050000 -1.070043
141.100000 -1.070042
141.150000 -1.083746
141.200000 -1.076895
141.250000 -1.056338
141.300000 -1.063190
141.350000 -1.083746
141.400000 -1.080320
141.450000 -1.080320
141.500000 -1.107727
141.550000 -1.135134
141.600000 -1.141986
141.650000 -1.135135
141.700000 -1.100875
141.750000 -1.059764
141.800000 -1.022080
141.850000 -0.974117
141.900000 -0.891896
141.950000 -0.816527
142.000000 -0.765138
142.050000 -0.720601
142.100000 -0.672639
142.150000 -0.631529
142.200000 -0.597269
142.250000 -0.559585
142.300000 -0.535604
142.350000 -0.525326
142.400000 -0.511623
142.450000 -0.508196
142.500000 -0.511622
142.550000 -0.511622
142.600000 -0.508196
142.650000 -0.539029
142.700000 -0.586991
142.750000 -0.631528
142.800000 -0.672639
142.850000 -0.724028
142.900000 -0.768564
142.950000 -0.823378
143.000000 -0.898748
143.050000 -0.974118
143.100000 -1.018654
143.150000 -1.035784
143.200000 -1.032358
143.250000 -1.018654
143.300000 -1.008376
143.350000 -0.987821
143.400000 -0.943285
143.450000 -0.888470
143.500000 -0.864489
143.550000 -0.837082
143.600000 -0.799397
143.650000 -0.768564
143.700000 -0.765139
143.750000 -0.754861
143.800000 -0.761712
143.850000 -0.813101
143.900000 -0.871341
143.950000 -0.912451
144.000000 -0.970691
144.050000 -1.049487
144.100000 -1.083745
144.150000 -1.094023
144.200000 -1.131709
144.250000 -1.169393
144.300000 -1.155690
144.350000 -1.131709
144.400000 -1.118004
144.450000 -1.076894
144.500000 -0.994673
144.550000 -0.929581
144.600000 -0.878193
144.650000 -0.816527
144.700000 -0.737731
144.750000 -0.682917
144.800000 -0.662361
144.850000 -0.655509
144.900000 -0.645232
144.950000 -0.634954
145.000000 -0.638380
145.050000 -0.658936
145.100000 -0.696620
145.150000 -0.730879
145.200000 -0.741157
145.250000 -0.744582
145.300000 -0.751434
145.350000 -0.768564
145.400000 -0.785693
145.450000 -0.802823
145.500000 -0.830230
145.550000 -0.854211
145.600000 -0.878193
145.650000 -0.912451
145.700000 -0.946711
145.750000 -0.977543
145.800000 -1.011802
145.850000 -1.049487
145.900000 -1.073468
145.950000 -1.080320
146.000000 -1.080320
146.050000 -1.070042
146.100000 -1.032358
146.150000 -0.984395
146.200000 -0.946710
146.250000 -0.895322
146.300000 -0.830230
146.350000 -0.799397
146.400000 -0.823378
146.450000 -0.850785
146.500000 -0.888471
146.550000 -0.980969
146.600000 -1.104302
146.650000 -1.220781
146.700000 -1.354391
146.750000 -1.498278
146.800000 -1.607907
146.850000 -1.679850
146.900000 -1.714110
146.950000 -1.693554
147.000000 -1.628463
147.050000 -1.525686
147.100000 -1.368095
147.150000 -1.172819
147.200000 -0.991247
147.250000 -0.843934
147.300000 -0.696620
147.350000 -0.580140
147.400000 -0.525326
147.450000 -0.518474
147.500000 -0.535603
147.550000 -0.559584
147.600000 -0.590418
147.650000 -0.628103
147.700000 -0.648658
147.750000 -0.645232
147.800000 -0.624677
147.850000 -0.593843
147.900000 -0.535604
147.950000 -0.467085
148.000000 -0.408845
148.050000 -0.367735
148.100000 -0.347179
148.150000 -0.384864
148.200000 -0.460234
148.250000 -0.539029
148.300000 -0.628103
148.350000 -0.727453
148.400000 -0.837082
148.450000 -0.939859
148.500000 -1.032357
148.550000 -1.083746
148.600000 -1.100875
148.650000 -1.118005
148.700000 -1.121431
148.750000 -1.066617
148.800000 -0.998099
148.850000 -0.970692
148.900000 -0.943284
148.950000 -0.898747
149.000000 -0.888470
149.050000 -0.933007
149.100000 -0.977544
149.150000 -1.001524
149.200000 -1.052913
149.250000 -1.131709
149.300000 -1.186523
149.350000 -1.193374
149.400000 -1.207078
149.450000 -1.227634
149.500000 -1.200226
149.550000 -1.090597
149.600000 -0.970692
149.650000 -0.874766
149.700000 -0.768564
149.750000 -0.662361
149.800000 -0.583565
149.850000 -0.525326
149.900000 -0.494492
149.950000 -0.528751
150.000000 -0.600696
150.050000 -0.658936
150.100000 -0.713749
150.150000 -0.789119
150.200000 -0.850785
150.250000 -0.854212
150.300000 -0.813101
150.350000 -0.758287
150.400000 -0.693194
150.450000 -0.617825
150.500000 -0.518474
150.550000 -0.453382
150.600000 -0.443104
150.650000 -0.446530
150.700000 -0.443105
150.750000 -0.480789
150.800000 -0.569862
150.850000 -0.645232
150.900000 -0.693195
150.950000 -0.771989
151.000000 -0.843933
151.050000 -0.871341
151.100000 -0.874767
151.150000 -0.885044
151.200000 -0.874767
151.250000 -0.837082
151.300000 -0.806248
151.350000 -0.785694
151.400000 -0.768564
151.450000 -0.778842
151.500000 -0.782268
151.550000 -0.748008
151.600000 -0.703472
151.650000 -0.686343
151.700000 -0.658935
151.750000 -0.593843
151.800000 -0.552733
151.850000 -0.549307
151.900000 -0.535604
151.950000 -0.528752
152.000000 -0.573289
152.050000 -0.614399
152.100000 -0.634954
152.150000 -0.700046
152.200000 -0.813101
152.250000 -0.874767
152.300000 -0.891896
152.350000 -0.891896
152.400000 -0.871340
152.450000 -0.795971
152.500000 -0.693194
152.550000 -0.576714
152.600000 -0.446531
152.650000 -0.336902
152.700000 -0.275236
152.750000 -0.261533
152.800000 -0.292365
152.850000 -0.374587
152.900000 -0.504771
152.950000 -0.665787
153.000000 -0.854211
153.050000 -1.028931
153.100000 -1.159115
153.150000 -1.265318
153.200000 -1.344113
153.250000 -1.350965
153.300000 -1.282447
153.350000 -1.203652
153.400000 -1.114578
153.450000 -0.987821
153.500000 -0.850785
153.550000 -0.741157
153.600000 -0.655510
153.650000 -0.593844
153.700000 -0.583566
153.750000 -0.604121
153.800000 -0.648658
153.850000 -0.730879
153.900000 -0.843934
153.950000 -0.953562
154.000000 -1.046061
154.050000 -1.124856
154.100000 -1.183097
154.150000 -1.220781
154.200000 -1.210503
154.250000 -1.118005
154.300000 -0.967266
154.350000 -0.809675
154.400000 -0.641806
154.450000 -0.449956
154.500000 -0.282088
154.550000 -0.182737
154.600000 -0.138200
154.650000 -0.141626
154.700000 -0.199866
154.750000 -0.309494
154.800000 -0.456808
154.850000 -0.631529
154.900000 -0.799397
154.950000 -0.922729
155.000000 -1.011802
155.050000 -1.063191
155.100000 -1.039209
155.150000 -0.967265
155.200000 -0.871340
155.250000 -0.761712
155.300000 -0.638380
155.350000 -0.539029
155.400000 -0.480789
155.450000 -0.432827
155.500000 -0.395142
155.550000 -0.398568
155.600000 -0.425975
155.650000 -0.432827
155.700000 -0.422549
155.750000 -0.401994
155.800000 -0.367734
155.850000 -0.343754
155.900000 -0.336902
155.950000 -0.319773
156.000000 -0.295791
156.050000 -0.323198
156.100000 -0.398568
156.150000 -0.463659
156.200000 -0.528752
156.250000 -0.607547
156.300000 -0.676065
156.350000 -0.744583
156.400000 -0.813101
156.450000 -0.854211
156.500000 -0.874766
156.550000 -0.891896
156.600000 -0.885044
156.650000 -0.819952
156.700000 -0.765138
156.750000 -0.751435
156.800000 -0.751435
156.850000 -0.751435
156.900000 -0.789119
156.950000 -0.850786
157.000000 -0.915877
157.050000 -0.998098
157.100000 -1.090597
157.150000 -1.169393
157.200000 -1.231059
157.250000 -1.289299
157.300000 -1.333836
157.350000 -1.368095
157.400000 -1.416057
157.450000 -1.440038
157.500000 -1.440038
157.550000 -1.433187
157.600000 -1.429761
157.650000 -1.422909
157.700000 -1.392076
157.750000 -1.330409
157.800000 -1.268744
157.850000 -1.213930
157.900000 -1.138560
157.950000 -1.032357
158.000000 -0.960414
158.050000 -0.926155
158.100000 -0.874766
158.150000 -0.795971
158.200000 -0.761712
158.250000 -0.782268
158.300000 -0.809675
158.350000 -0.843934
158.400000 -0.915878
158.450000 -1.008376
158.500000 -1.056339
158.550000 -1.076894
158.600000 -1.097449
158.650000 -1.107727
158.700000 -1.056339
158.750000 -0.974118
158.800000 -0.919303
158.850000 -0.864489
158.900000 -0.799397
158.950000 -0.751434
159.000000 -0.751434
159.050000 -0.758287
159.100000 -0.765138
159.150000 -0.785693
159.200000 -0.833656
159.250000 -0.898748
159.300000 -0.960414
159.350000 -0.991247
159.400000 -0.998099
159.450000 -1.008376
159.500000 -0.991247
159.550000 -0.943284
159.600000 -0.912451
159.650000 -0.922729
159.700000 -0.909025
159.750000 -0.871341
159.800000 -0.881618
159.850000 -0.933006
159.900000 -0.946710
159.950000 -0.936432
160.000000 -0.956988
160.050000 -0.984395
160.100000 -0.994673
160.150000 -1.011802
160.200000 -1.035784
160.250000 -1.056339
160.300000 -1.090598
160.350000 -1.138560
160.400000 -1.207078
160.450000 -1.292725
160.500000 -1.374947
160.550000 -1.436613
160.600000 -1.491427
160.650000 -1.539390
160.700000 -1.542815
160.750000 -1.494853
160.800000 -1.429761
160.850000 -1.347539
160.900000 -1.241336
160.950000 -1.145412
161.000000 -1.097450
161.050000 -1.076894
161.100000 -1.076894
161.150000 -1.100875
161.200000 -1.162541
161.250000 -1.234485
161.300000 -1.299577
161.350000 -1.350966
161.400000 -1.398927
161.450000 -1.419483
161.500000 -1.395502
161.550000 -1.333836
161.600000 -1.279022
161.650000 -1.248189
161.700000 -1.210504
161.750000 -1.183097
161.800000 -1.179670
161.850000 -1.179671
161.900000 -1.186523
161.950000 -1.203652
162.000000 -1.207078
162.050000 -1.179670
162.100000 -1.135135
162.150000 -1.097450
162.200000 -1.046061
162.250000 -0.970692
162.300000 -0.881619
162.350000 -0.778841
162.400000 -0.672639
162.450000 -0.607547
162.500000 -0.580140
162.550000 -0.573288
162.600000 -0.569862
162.650000 -0.583566
162.700000 -0.604121
162.750000 -0.638380
162.800000 -0.686342
162.850000 -0.727453
162.900000 -0.758286
162.950000 -0.802823
163.000000 -0.850785
163.050000 -0.864489
163.100000 -0.854211
163.150000 -0.850785
163.200000 -0.861063
163.250000 -0.833656
163.300000 -0.789119
163.350000 -0.751434
163.400000 -0.706898
163.450000 -0.652084
163.500000 -0.597270
163.550000 -0.542455
163.600000 -0.456808
163.650000 -0.391716
163.700000 -0.371161
163.750000 -0.333476
163.800000 -0.275236
163.850000 -0.264958
163.900000 -0.295791
163.950000 -0.309494
164.000000 -0.354031
164.050000 -0.449956
164.100000 -0.525325
164.150000 -0.556159
164.200000 -0.610973
164.250000 -0.682917
164.300000 -0.717176
164.350000 -0.713750
164.400000 -0.703472
164.450000 -0.696621
164.500000 -0.669213
164.550000 -0.631528
164.600000 -0.607547
164.650000 -0.624676
164.700000 -0.645232
164.750000 -0.665787
164.800000 -0.717176
164.850000 -0.813100
164.900000 -0.898748
164.950000 -0.960414
165.000000 -1.018654
165.050000 -1.056339
165.100000 -1.056338
165.150000 -1.042635
165.200000 -1.028932
165.250000 -1.018654
165.300000 -1.018653
165.350000 -1.042635
165.400000 -1.052913
165.450000 -1.056339
165.500000 -1.090597
165.550000 -1.152264
165.600000 -1.179671
165.650000 -1.183096
165.700000 -1.186522
165.750000 -1.165967
165.800000 -1.100875
165.850000 -1.035783
165.900000 -0.974118
165.950000 -0.874766
166.000000 -0.782267
166.050000 -0.727454
166.100000 -0.686342
166.150000 -0.652084
166.200000 -0.676065
166.250000 -0.720601
166.300000 -0.737731
166.350000 -0.765138
166.400000 -0.819953
166.450000 -0.837082
166.500000 -0.833656
166.550000 -0.843934
166.600000 -0.847359
166.650000 -0.802823
166.700000 -0.727454
166.750000 -0.641806
166.800000 -0.552733
166.850000 -0.477363
166.900000 -0.401994
166.950000 -0.326624
167.000000 -0.282088
167.050000 -0.268384
167.100000 -0.251254
167.150000 -0.230699
167.200000 -0.227273
167.250000 -0.230699
167.300000 -0.258106
167.350000 -0.309494
167.400000 -0.357458
167.450000 -0.395142
167.500000 -0.446531
167.550000 -0.528752
167.600000 -0.624676
167.650000 -0.734305
167.700000 -0.837082
167.750000 -0.905600
167.800000 -0.960414
167.850000 -1.018654
167.900000 -1.052913
167.950000 -1.059764
168.000000 -1.046061
168.050000 -1.022080
168.100000 -0.970691
168.150000 -0.902174
168.200000 -0.819952
168.250000 -0.737731
168.300000 -0.682917
168.350000 -0.655510
168.400000 -0.617825
168.450000 -0.586991
168.500000 -0.590418
168.550000 -0.604121
168.600000 -0.610973
168.650000 -0.621250
168.700000 -0.628103
168.750000 -0.617825
168.800000 -0.610973
168.850000 -0.597269
168.900000 -0.556159
168.950000 -0.535603
169.000000 -0.556159
169.050000 -0.573289
169.100000 -0.573289
169.150000 -0.607547
169.200000 -0.679490
169.250000 -0.727453
169.300000 -0.758286
169.350000 -0.789120
169.400000 -0.806248
169.450000 -0.806249
169.500000 -0.816527
169.550000 -0.792545
169.600000 -0.727453
169.650000 -0.676064
169.700000 -0.634954
169.750000 -0.583566
169.800000 -0.545881
169.850000 -0.539029
169.900000 -0.528752
169.950000 -0.542455
170.000000 -0.607548
170.050000 -0.689769
170.100000 -0.741157
170.150000 -0.761712
170.200000 -0.778842
170.250000 -0.813100
170.300000 -0.847359
170.350000 -0.861063
170.400000 -0.854211
170.450000 -0.864489
170.500000 -0.878193
170.550000 -0.850785
170.600000 -0.816526
170.650000 -0.799397
170.700000 -0.768564
170.750000 -0.710324
170.800000 -0.679490
170.850000 -0.665787
170.900000 -0.621251
170.950000 -0.535604
171.000000 -0.449956
171.050000 -0.371161
171.100000 -0.288939
171.150000 -0.213570
171.200000 -0.169033
171.250000 -0.158755
171.300000 -0.175885
171.350000 -0.220421
171.400000 -0.278662
171.450000 -0.354031
171.500000 -0.446531
171.550000 -0.559585
171.600000 -0.669213
171.650000 -0.758287
171.700000 -0.826804
171.750000 -0.847359
171.800000 -0.826804
171.850000 -0.775416
171.900000 -0.700046
171.950000 -0.600695
172.000000 -0.508196
172.050000 -0.449957
172.100000 -0.405419
172.150000 -0.374586
172.200000 -0.401994
172.250000 -0.494493
172.300000 -0.607547
172.350000 -0.717175
172.400000 -0.857637
172.450000 -1.004950
172.500000 -1.094024
172.550000 -1.135134
172.600000 -1.162541
172.650000 -1.172819
172.700000 -1.121431
172.750000 -1.035783
172.800000 -0.946710
172.850000 -0.885044
172.900000 -0.806248
172.950000 -0.693194
173.000000 -0.583566
173.050000 -0.504771
173.100000 -0.436253
173.150000 -0.357457
173.200000 -0.295791
173.250000 -0.264958
173.300000 -0.264958
173.350000 -0.319773
173.400000 -0.419123
173.450000 -0.518474
173.500000 -0.610973
173.550000 -0.734305
173.600000 -0.864489
173.650000 -0.977543
173.700000 -1.073468
173.750000 -1.131708
173.800000 -1.145412
173.850000 -1.131709
173.900000 -1.083746
173.950000 -1.011803
174.000000 -0.950136
174.050000 -0.929581
174.100000 -0.915878
174.150000 -0.915877
174.200000 -0.974117
174.250000 -1.059765
174.300000 -1.159115
174.350000 -1.265318
174.400000 -1.354391
174.450000 -1.385224
174.500000 -1.388650
174.550000 -1.381798
174.600000 -1.357817
174.650000 -1.299577
174.700000 -1.200227
174.750000 -1.076894
174.800000 -0.974117
174.850000 -0.919303
174.900000 -0.905600
174.950000 -0.915878
175.000000 -0.933007
175.050000 -0.977543
175.100000 -1.052913
175.150000 -1.124856
175.200000 -1.159115
175.250000 -1.189949
175.300000 -1.200227
175.350000 -1.141986
175.400000 -1.022080
175.450000 -0.909025
175.500000 -0.778842
175.550000 -0.600695
175.600000 -0.432827
175.650000 -0.309495
175.700000 -0.199867
175.750000 -0.100515
175.800000 -0.055979
175.850000 -0.073109
175.900000 -0.138200
175.950000 -0.244403
176.000000 -0.367735
176.050000 -0.467086
176.100000 -0.552733
176.150000 -0.658936
176.200000 -0.768564
176.250000 -0.833656
176.300000 -0.885045
176.350000 -0.936433
176.400000 -0.956988
176.450000 -0.936433
176.500000 -0.902174
176.550000 -0.850785
176.600000 -0.792545
176.650000 -0.754860
176.700000 -0.713750
176.750000 -0.641806
176.800000 -0.583566
176.850000 -0.580140
176.900000 -0.586991
176.950000 -0.597269
177.000000 -0.658936
177.050000 -0.737731
177.100000 -0.809675
177.150000 -0.895322
177.200000 -0.984395
177.250000 -1.025506
177.300000 -1.028931
177.350000 -1.022080
177.400000 -1.001524
177.450000 -0.963839
177.500000 -0.898748
177.550000 -0.806249
177.600000 -0.724028
177.650000 -0.662361
177.700000 -0.566436
177.750000 -0.446531
177.800000 -0.384864
177.850000 -0.371160
177.900000 -0.340328
177.950000 -0.326624
178.000000 -0.340328
178.050000 -0.357458
178.100000 -0.367734
178.150000 -0.405420
178.200000 -0.460234
178.250000 -0.484215
178.300000 -0.480789
178.350000 -0.477363
178.400000 -0.494493
178.450000 -0.487641
178.500000 -0.449956
178.550000 -0.419123
178.600000 -0.439678
178.650000 -0.473937
178.700000 -0.497918
178.750000 -0.535603
178.800000 -0.597269
178.850000 -0.638381
178.900000 -0.628102
178.950000 -0.604121
179.000000 -0.607547
179.050000 -0.583566
179.100000 -0.494493
179.150000 -0.384864
179.200000 -0.309494
179.250000 -0.244403
179.300000 -0.175885
179.350000 -0.134774
179.400000 -0.114219
179.450000 -0.114219
179.500000 -0.155329
179.550000 -0.227273
179.600000 -0.299217
179.650000 -0.374587
179.700000 -0.446530
179.750000 -0.494493
179.800000 -0.525325
179.850000 -0.573289
179.900000 -0.617825
179.950000 -0.662361
180.000000 -0.717176
180.050000 -0.775416
180.100000 -0.833656
180.150000 -0.915877
180.200000 -0.998099
180.250000 -1.070043
180.300000 -1.159115
180.350000 -1.231059
180.400000 -1.268744
180.450000 -1.303003
180.500000 -1.330410
180.550000 -1.306428
180.600000 -1.251615
180.650000 -1.189948
180.700000 -1.104301
180.750000 -0.994672
180.800000 -0.926155
180.850000 -0.864489
180.900000 -0.761712
180.950000 -0.655510
181.000000 -0.610973
181.050000 -0.580140
181.100000 -0.539029
181.150000 -0.501344
181.200000 -0.470511
181.250000 -0.425975
181.300000 -0.381438
181.350000 -0.354031
181.400000 -0.336902
181.450000 -0.323199
181.500000 -0.299217
181.550000 -0.288939
181.600000 -0.302643
181.650000 -0.333476
181.700000 -0.360883
181.750000 -0.395142
181.800000 -0.463660
181.850000 -0.576714
181.900000 -0.696620
181.950000 -0.806249
182.000000 -0.912452
182.050000 -1.004951
182.100000 -1.059764
182.150000 -1.097449
182.200000 -1.114579
182.250000 -1.080320
182.300000 -1.022080
182.350000 -0.967265
182.400000 -0.874767
182.450000 -0.737731
182.500000 -0.617824
182.550000 -0.528751
182.600000 -0.436253
182.650000 -0.357458
182.700000 -0.316346
182.750000 -0.306069
182.800000 -0.302643
182.850000 -0.302643
182.900000 -0.292365
182.950000 -0.271810
183.000000 -0.258107
183.050000 -0.247829
183.100000 -0.213570
183.150000 -0.169033
183.200000 -0.162182
183.250000 -0.186162
183.300000 -0.193015
183.350000 -0.210143
183.400000 -0.264958
183.450000 -0.343754
183.500000 -0.401994
183.550000 -0.470511
183.600000 -0.576714
183.650000 -0.679491
183.700000 -0.775416
183.750000 -0.864489
183.800000 -0.933007
183.850000 -0.950137
183.900000 -0.922729
183.950000 -0.895322
184.000000 -0.881618
184.050000 -0.874766
184.100000 -0.864489
184.150000 -0.867914
184.200000 -0.888470
184.250000 -0.922729
184.300000 -0.977543
184.350000 -1.070042
184.400000 -1.183096
184.450000 -1.279021
184.500000 -1.354391
184.550000 -1.412631
184.600000 -1.433187
184.650000 -1.374947
184.700000 -1.241337
184.750000 -1.087171
184.800000 -0.946710
184.850000 -0.809675
184.900000 -0.652083
184.950000 -0.487641
185.000000 -0.367735
185.050000 -0.306068
185.100000 -0.275236
185.150000 -0.244402
185.200000 -0.240977
185.250000 -0.288940
185.300000 -0.357457
185.350000 -0.388290
185.400000 -0.398567
185.450000 -0.401993
185.500000 -0.384864
185.550000 -0.330051
185.600000 -0.282087
185.650000 -0.271810
185.700000 -0.258107
185.750000 -0.247829
185.800000 -0.292365
185.850000 -0.374587
185.900000 -0.463660
185.950000 -0.559585
186.000000 -0.679491
186.050000 -0.795971
186.100000 -0.885045
186.150000 -0.936433
186.200000 -0.956988
186.250000 -0.950136
186.300000 -0.909025
186.350000 -0.826804
186.400000 -0.717176
186.450000 -0.593844
186.500000 -0.491067
186.550000 -0.415698
186.600000 -0.378013
186.650000 -0.374587
186.700000 -0.405420
186.750000 -0.463660
186.800000 -0.542456
186.850000 -0.641806
186.900000 -0.734305
186.950000 -0.806248
187.000000 -0.843934
187.050000 -0.867915
187.100000 -0.878192
187.150000 -0.857637
187.200000 -0.809675
187.250000 -0.754861
187.300000 -0.696621
187.350000 -0.645232
187.400000 -0.610973
187.450000 -0.573288
187.500000 -0.525326
187.550000 -0.487641
187.600000 -0.491067
187.650000 -0.501344
187.700000 -0.494493
187.750000 -0.480789
187.800000 -0.480789
187.850000 -0.491067
187.900000 -0.491067
187.950000 -0.480790
188.000000 -0.491067
188.050000 -0.525326
188.100000 -0.542455
188.150000 -0.556159
188.200000 -0.593844
188.250000 -0.655509
188.300000 -0.727453
188.350000 -0.809675
188.400000 -0.939859
188.450000 -1.090598
188.500000 -1.227633
188.550000 -1.344114
188.600000 -1.443464
188.650000 -1.505130
188.700000 -1.518834
188.750000 -1.501704
