time[ns] Raw_signal[mV]
-11.200000 0.257421
-11.150000 0.250570
-11.100000 0.188904
-11.050000 0.096405
-11.000000 -0.013224
-10.950000 -0.153685
-10.900000 -0.304424
-10.850000 -0.403776
-10.800000 -0.444886
-10.750000 -0.468868
-10.700000 -0.472293
-10.650000 -0.434609
-10.600000 -0.366091
-10.550000 -0.294147
-10.500000 -0.215352
-10.450000 -0.157111
-10.400000 -0.126279
-10.350000 -0.122852
-10.300000 -0.143408
-10.250000 -0.191371
-10.200000 -0.253036
-10.150000 -0.283869
-10.100000 -0.300999
-10.050000 -0.324980
-10.000000 -0.331832
-9.950000 -0.304425
-9.900000 -0.273591
-9.850000 -0.232481
-9.800000 -0.167389
-9.750000 -0.095445
-9.700000 -0.040631
-9.650000 0.003906
-9.600000 0.051868
-9.550000 0.110108
-9.500000 0.192330
-9.450000 0.281403
-9.400000 0.346494
-9.350000 0.415013
-9.300000 0.493808
-9.250000 0.538344
-9.200000 0.562325
-9.150000 0.596584
-9.100000 0.610288
-9.050000 0.576029
-9.000000 0.514363
-8.950000 0.418438
-8.900000 0.291680
-8.850000 0.158071
-8.800000 0.041590
-8.750000 -0.074890
-8.700000 -0.205074
-8.650000 -0.335258
-8.600000 -0.448312
-8.550000 -0.527107
-8.500000 -0.581922
-8.450000 -0.612755
-8.400000 -0.592200
-8.350000 -0.520256
-8.300000 -0.434608
-8.250000 -0.342110
-8.200000 -0.201648
-8.150000 -0.047483
-8.100000 0.099831
-8.050000 0.226589
-8.000000 0.322514
-7.950000 0.360198
-7.900000 0.346494
-7.850000 0.298532
-7.800000 0.216310
-7.750000 0.082701
-7.700000 -0.078316
-7.650000 -0.225629
-7.600000 -0.342110
-7.550000 -0.438034
-7.500000 -0.509978
-7.450000 -0.527108
-7.400000 -0.492848
-7.350000 -0.451738
-7.300000 -0.390072
-7.250000 -0.287295
-7.200000 -0.187944
-7.150000 -0.126278
-7.100000 -0.078316
-7.050000 -0.057761
-7.000000 -0.074890
-6.950000 -0.119426
-6.900000 -0.170815
-6.850000 -0.235907
-6.800000 -0.294147
-6.750000 -0.328406
-6.700000 -0.348961
-6.650000 -0.338684
-6.600000 -0.270166
-6.550000 -0.177667
-6.500000 -0.109149
-6.450000 -0.023502
-6.400000 0.116960
-6.350000 0.240292
-6.300000 0.295106
-6.250000 0.339643
-6.200000 0.391031
-6.150000 0.384180
-6.100000 0.329365
-6.050000 0.277976
-6.000000 0.240292
-5.950000 0.199181
-5.900000 0.158071
-5.850000 0.134089
-5.800000 0.130664
-5.750000 0.147793
-5.700000 0.182052
-5.650000 0.212885
-5.600000 0.260847
-5.550000 0.295106
-5.500000 0.301957
-5.450000 0.301958
-5.400000 0.281403
-5.350000 0.188904
-5.300000 0.065571
-5.250000 -0.037205
-5.200000 -0.136556
-5.150000 -0.239333
-5.100000 -0.280443
-5.050000 -0.273592
-5.000000 -0.246184
-4.950000 -0.167389
-4.900000 -0.030354
-4.850000 0.096404
-4.800000 0.216310
-4.750000 0.346494
-4.700000 0.442420
-4.650000 0.490381
-4.600000 0.528066
-4.550000 0.548622
-4.500000 0.528066
-4.450000 0.473252
-4.400000 0.397883
-4.350000 0.319087
-4.300000 0.253995
-4.250000 0.192329
-4.200000 0.137516
-4.150000 0.106682
-4.100000 0.092978
-4.050000 0.072424
-4.000000 0.075849
-3.950000 0.103256
-3.900000 0.127237
-3.850000 0.127238
-3.800000 0.161497
-3.750000 0.212885
-3.700000 0.230014
-3.650000 0.236866
-3.600000 0.281402
-3.550000 0.322513
-3.500000 0.315662
-3.450000 0.332791
-3.400000 0.401308
-3.350000 0.397883
-3.300000 0.301958
-3.250000 0.281403
-3.200000 0.391031
-3.150000 0.404735
-3.100000 0.291680
-3.050000 0.308810
-3.000000 0.445845
-2.950000 0.445845
-2.900000 0.367050
-2.850000 0.377327
-2.800000 0.370476
-2.750000 0.370475
-2.700000 0.534919
-2.650000 0.623992
-2.600000 0.442420
-2.550000 0.336216
-2.500000 0.421864
-2.450000 0.308809
-2.400000 0.038164
-2.350000 -0.023501
-2.300000 -0.061186
-2.250000 -0.300999
-2.200000 -0.390072
-2.150000 -0.208499
-2.100000 -0.163963
-2.050000 -0.283870
-2.000000 -0.229055
-1.950000 -0.020076
-1.900000 0.192329
-1.850000 0.432142
-1.800000 0.603436
-1.750000 0.600010
-1.700000 0.620566
-1.650000 0.747324
-1.600000 0.719916
-1.550000 0.589732
-1.500000 0.644546
-1.450000 0.740472
-1.400000 0.658251
-1.350000 0.534918
-1.300000 0.466401
-1.250000 0.329365
-1.200000 0.305384
-1.150000 0.480104
-1.100000 0.466400
-1.050000 0.188903
-1.000000 0.144367
-0.950000 0.360198
-0.900000 0.411586
-0.850000 0.367050
-0.800000 0.510937
-0.750000 0.613714
-0.700000 0.524641
-0.650000 0.507511
-0.600000 0.576029
-0.550000 0.466401
-0.500000 0.267699
-0.450000 0.175200
-0.400000 0.099830
-0.350000 -0.054335
-0.300000 -0.187944
-0.250000 -0.280443
-0.200000 -0.348961
-0.150000 -0.362664
-0.100000 -0.311276
-0.050000 -0.205074
0.000000 -0.044057
0.050000 0.096404
0.100000 0.171774
0.150000 0.301958
0.200000 0.483530
0.250000 0.486955
0.300000 0.339643
0.350000 0.322514
0.400000 0.415012
0.450000 0.380753
0.500000 0.247143
0.550000 0.195756
0.600000 0.178626
0.650000 0.113534
0.700000 0.113534
0.750000 0.271125
0.800000 0.555474
0.850000 0.993988
0.900000 1.686018
0.950000 2.655544
1.000000 3.964234
1.050000 5.752549
1.100000 8.082154
1.150000 10.922222
1.200000 14.296722
1.250000 18.202237
1.300000 22.511999
1.350000 27.041031
1.400000 31.659129
1.450000 36.290932
1.500000 40.857644
1.550000 45.157136
1.600000 49.045525
1.650000 52.526230
1.700000 55.602680
1.750000 58.154960
1.800000 60.183090
1.850000 61.872060
1.900000 63.276670
1.950000 64.345550
2.000000 65.085540
2.050000 65.548030
2.100000 65.739880
2.150000 65.633680
2.200000 65.154060
2.250000 64.256470
2.300000 62.982040
2.350000 61.330760
2.400000 59.244400
2.450000 56.757200
2.500000 53.971950
2.550000 50.916050
2.600000 47.620350
2.650000 44.239000
2.700000 40.922740
2.750000 37.678420
2.800000 34.574570
2.850000 31.768760
2.900000 29.298690
2.950000 27.102700
3.000000 25.259571
3.050000 23.868655
3.100000 22.830615
3.150000 22.076919
3.200000 21.686363
3.250000 21.645251
3.300000 21.799423
3.350000 22.094042
3.400000 22.594228
3.450000 23.265695
3.500000 24.009116
3.550000 24.786799
3.600000 25.571326
3.650000 26.311317
3.700000 27.003341
3.750000 27.623428
3.800000 28.072219
3.850000 28.312038
3.900000 28.377128
3.950000 28.284626
4.000000 27.993423
4.050000 27.465844
4.100000 26.746400
4.150000 25.886502
4.200000 24.889568
4.250000 23.741901
4.300000 22.484594
4.350000 21.179337
4.400000 19.853516
4.450000 18.517416
4.500000 17.177892
4.550000 15.882909
4.600000 14.663292
4.650000 13.505340
4.700000 12.419330
4.750000 11.473786
4.800000 10.682402
4.850000 10.017777
4.900000 9.497045
4.950000 9.164731
5.000000 9.003719
5.050000 8.990012
5.100000 9.140758
5.150000 9.428525
5.200000 9.784818
5.250000 10.199353
5.300000 10.644718
5.350000 11.083233
5.400000 11.487492
5.450000 11.874614
5.500000 12.227481
5.550000 12.528958
5.600000 12.761924
5.650000 12.905803
5.700000 12.970899
5.750000 12.984607
5.800000 12.957201
5.850000 12.881829
5.900000 12.741360
5.950000 12.546090
6.000000 12.302849
6.050000 11.997951
6.100000 11.597119
6.150000 11.079811
6.200000 10.469996
6.250000 9.805377
6.300000 9.096218
6.350000 8.332244
6.400000 7.544289
6.450000 6.790594
6.500000 6.095138
6.550000 5.475052
6.600000 4.950890
6.650000 4.550062
6.700000 4.269139
6.750000 4.108122
6.800000 4.060159
6.850000 4.087566
6.900000 4.190343
6.950000 4.344508
7.000000 4.498674
7.050000 4.645986
7.100000 4.807003
7.150000 4.961168
7.200000 5.091353
7.250000 5.235239
7.300000 5.403108
7.350000 5.560699
7.400000 5.711439
7.450000 5.875881
7.500000 6.033472
7.550000 6.170508
7.600000 6.269858
7.650000 6.321247
7.700000 6.328099
7.750000 6.293839
7.800000 6.197915
7.850000 6.026620
7.900000 5.810789
7.950000 5.553847
8.000000 5.269498
8.050000 4.971446
8.100000 4.642561
8.150000 4.269138
8.200000 3.909420
8.250000 3.597664
8.300000 3.289334
8.350000 2.991281
8.400000 2.713785
8.450000 2.443139
8.500000 2.203327
8.550000 2.021755
8.600000 1.877867
8.650000 1.740832
8.700000 1.655184
8.750000 1.651759
8.800000 1.672314
8.850000 1.706573
8.900000 1.785369
8.950000 1.901848
9.000000 2.045736
9.050000 2.217030
9.100000 2.395177
9.150000 2.563046
9.200000 2.696655
9.250000 2.802858
9.300000 2.854246
9.350000 2.840542
9.400000 2.785728
9.450000 2.700081
9.500000 2.569897
9.550000 2.388325
9.600000 2.203327
9.650000 2.052588
9.700000 1.905274
9.750000 1.751109
9.800000 1.644906
9.850000 1.590092
9.900000 1.535278
9.950000 1.480464
10.000000 1.466761
10.050000 1.473612
10.100000 1.442779
10.150000 1.391391
10.200000 1.340003
10.250000 1.271485
10.300000 1.165282
10.350000 1.045376
10.400000 0.932322
10.450000 0.812416
10.500000 0.699362
10.550000 0.593159
10.600000 0.500660
10.650000 0.438994
10.700000 0.401309
10.750000 0.397882
10.800000 0.442419
10.850000 0.507511
10.900000 0.572603
10.950000 0.661677
11.000000 0.781582
11.050000 0.898062
11.100000 1.017968
11.150000 1.151579
11.200000 1.264633
11.250000 1.343429
11.300000 1.405094
11.350000 1.449632
11.400000 1.459909
11.450000 1.439353
11.500000 1.408520
11.550000 1.381114
11.600000 1.374262
11.650000 1.374261
11.700000 1.370836
11.750000 1.391390
11.800000 1.432501
11.850000 1.435927
11.900000 1.398243
11.950000 1.384539
12.000000 1.370835
12.050000 1.278336
12.100000 1.124171
12.150000 0.990562
12.200000 0.894637
12.250000 0.778157
12.300000 0.644547
12.350000 0.562326
12.400000 0.521214
12.450000 0.483530
12.500000 0.445845
12.550000 0.438993
12.600000 0.425290
12.650000 0.387605
12.700000 0.356772
12.750000 0.346494
12.800000 0.329365
12.850000 0.319087
12.900000 0.349920
12.950000 0.425290
13.000000 0.500659
13.050000 0.562326
13.100000 0.623991
13.150000 0.692509
13.200000 0.713064
13.250000 0.641121
13.300000 0.517789
13.350000 0.370476
13.400000 0.206033
13.450000 0.038164
13.500000 -0.116001
13.550000 -0.277018
13.600000 -0.431183
13.650000 -0.516830
13.700000 -0.516830
13.750000 -0.468867
13.800000 -0.366091
13.850000 -0.211926
13.900000 -0.057760
13.950000 0.058720
14.000000 0.130663
14.050000 0.154645
14.100000 0.144367
14.150000 0.140941
14.200000 0.103256
14.250000 0.000479
14.300000 -0.102297
14.350000 -0.181092
14.400000 -0.249610
14.450000 -0.290721
14.500000 -0.277018
14.550000 -0.259888
14.600000 -0.273592
14.650000 -0.263314
14.700000 -0.246185
14.750000 -0.266740
14.800000 -0.314702
14.850000 -0.376368
14.900000 -0.417479
14.950000 -0.438034
15.000000 -0.451738
15.050000 -0.479145
15.100000 -0.479146
15.150000 -0.403775
15.200000 -0.318128
15.250000 -0.242758
15.300000 -0.146834
15.350000 -0.064613
15.400000 -0.044057
15.450000 -0.057760
15.500000 -0.095445
15.550000 -0.205074
15.600000 -0.376368
15.650000 -0.557941
15.700000 -0.753217
15.750000 -0.945067
15.800000 -1.068398
15.850000 -1.133490
15.900000 -1.147193
15.950000 -1.075250
16.000000 -0.927937
16.050000 -0.777198
16.100000 -0.636736
16.150000 -0.472293
16.200000 -0.287296
16.250000 -0.139982
16.300000 -0.037206
16.350000 0.038164
16.400000 0.110108
16.450000 0.158071
16.500000 0.123812
16.550000 0.051868
16.600000 0.024461
16.650000 0.003905
16.700000 -0.064612
16.750000 -0.126278
16.800000 -0.150259
16.850000 -0.170815
16.900000 -0.201648
16.950000 -0.191371
17.000000 -0.163963
17.050000 -0.139982
17.100000 -0.102297
17.150000 -0.050909
17.200000 -0.033779
17.250000 -0.023502
17.300000 0.007331
17.350000 0.024460
17.400000 0.014184
17.450000 -0.020076
17.500000 -0.098871
17.550000 -0.215351
17.600000 -0.342110
17.650000 -0.472293
17.700000 -0.609328
17.750000 -0.729235
17.800000 -0.818308
17.850000 -0.873122
17.900000 -0.876548
17.950000 -0.828586
18.000000 -0.753217
18.050000 -0.636736
18.100000 -0.506552
18.150000 -0.383220
18.200000 -0.259888
18.250000 -0.143408
18.300000 -0.078316
18.350000 -0.057760
18.400000 -0.033780
18.450000 -0.044057
18.500000 -0.116001
18.550000 -0.167389
18.600000 -0.163963
18.650000 -0.181093
18.700000 -0.246185
18.750000 -0.283869
18.800000 -0.287295
18.850000 -0.290721
18.900000 -0.311277
18.950000 -0.345535
19.000000 -0.420905
19.050000 -0.506552
19.100000 -0.581922
19.150000 -0.650439
19.200000 -0.701828
19.250000 -0.701828
19.300000 -0.674421
19.350000 -0.619607
19.400000 -0.523682
19.450000 -0.393497
19.500000 -0.246185
19.550000 -0.088594
19.600000 0.045016
19.650000 0.127237
19.700000 0.168348
19.750000 0.161497
19.800000 0.099831
19.850000 0.010757
19.900000 -0.078316
19.950000 -0.177666
20.000000 -0.266740
20.050000 -0.297573
20.100000 -0.280444
20.150000 -0.246185
20.200000 -0.174241
20.250000 -0.044057
20.300000 0.086127
20.350000 0.195755
20.400000 0.291680
20.450000 0.346495
20.500000 0.332791
20.550000 0.267699
20.600000 0.158070
20.650000 -0.002947
20.700000 -0.191371
20.750000 -0.383220
20.800000 -0.585348
20.850000 -0.804605
20.900000 -1.010158
20.950000 -1.167749
21.000000 -1.277377
21.050000 -1.349322
21.100000 -1.393858
21.150000 -1.404135
21.200000 -1.380154
21.250000 -1.325340
21.300000 -1.249971
21.350000 -1.167749
21.400000 -1.095805
21.450000 -1.017010
21.500000 -0.924511
21.550000 -0.835438
21.600000 -0.766920
21.650000 -0.705254
21.700000 -0.660717
21.750000 -0.650439
21.800000 -0.657292
21.850000 -0.681273
21.900000 -0.698402
21.950000 -0.708680
22.000000 -0.715532
22.050000 -0.718958
22.100000 -0.688124
22.150000 -0.616181
22.200000 -0.533959
22.250000 -0.458590
22.300000 -0.359239
22.350000 -0.253037
22.400000 -0.160538
22.450000 -0.092019
22.500000 -0.050909
22.550000 -0.047483
22.600000 -0.061187
22.650000 -0.095446
22.700000 -0.170815
22.750000 -0.242759
22.800000 -0.273592
22.850000 -0.307851
22.900000 -0.369517
22.950000 -0.390072
23.000000 -0.342110
23.050000 -0.287295
23.100000 -0.242759
23.150000 -0.157112
23.200000 -0.061186
23.250000 -0.006372
23.300000 0.007331
23.350000 0.003905
23.400000 -0.023501
23.450000 -0.092020
23.500000 -0.191370
23.550000 -0.311277
23.600000 -0.424331
23.650000 -0.530533
23.700000 -0.636736
23.750000 -0.725809
23.800000 -0.780624
23.850000 -0.832012
23.900000 -0.890252
23.950000 -0.914233
24.000000 -0.903956
24.050000 -0.914234
24.100000 -0.917659
24.150000 -0.859418
24.200000 -0.780623
24.250000 -0.732661
24.300000 -0.684698
24.350000 -0.612755
24.400000 -0.527108
24.450000 -0.455164
24.500000 -0.410627
24.550000 -0.376368
24.600000 -0.342110
24.650000 -0.335258
24.700000 -0.379795
24.750000 -0.444886
24.800000 -0.516830
24.850000 -0.629885
24.900000 -0.760068
24.950000 -0.862845
25.000000 -0.941641
25.050000 -1.037565
25.100000 -1.119787
25.150000 -1.154046
25.200000 -1.150620
25.250000 -1.130064
25.300000 -1.078676
25.350000 -1.010158
25.400000 -0.948492
25.450000 -0.862845
25.500000 -0.766920
25.550000 -0.708679
25.600000 -0.667569
25.650000 -0.605903
25.700000 -0.564793
25.750000 -0.554515
25.800000 -0.527108
25.850000 -0.475719
25.900000 -0.451738
25.950000 -0.424331
26.000000 -0.348961
26.050000 -0.287295
26.100000 -0.256463
26.150000 -0.229055
26.200000 -0.198222
26.250000 -0.187945
26.300000 -0.184519
26.350000 -0.225629
26.400000 -0.342110
26.450000 -0.468867
26.500000 -0.554515
26.550000 -0.664143
26.600000 -0.821734
26.650000 -0.965621
26.700000 -1.088954
26.750000 -1.215712
26.800000 -1.304784
26.850000 -1.349321
26.900000 -1.404135
26.950000 -1.438394
27.000000 -1.400709
27.050000 -1.356173
27.100000 -1.325340
27.150000 -1.267099
27.200000 -1.167749
27.250000 -1.068398
27.300000 -0.955344
27.350000 -0.821734
27.400000 -0.688125
27.450000 -0.547663
27.500000 -0.393497
27.550000 -0.259888
27.600000 -0.126278
27.650000 0.000480
27.700000 0.068997
27.750000 0.086127
27.800000 0.130663
27.850000 0.161496
27.900000 0.099830
27.950000 -0.013224
28.000000 -0.109149
28.050000 -0.239333
28.100000 -0.414054
28.150000 -0.568218
28.200000 -0.694976
28.250000 -0.832011
28.300000 -0.951918
28.350000 -1.034140
28.400000 -1.075250
28.450000 -1.075250
28.500000 -1.023862
28.550000 -0.965622
28.600000 -0.924511
28.650000 -0.886826
28.700000 -0.832011
28.750000 -0.770346
28.800000 -0.729235
28.850000 -0.729235
28.900000 -0.753217
28.950000 -0.773772
29.000000 -0.814882
29.050000 -0.873122
29.100000 -0.910808
29.150000 -0.941640
29.200000 -0.982751
29.250000 -1.010158
29.300000 -0.999881
29.350000 -0.965621
29.400000 -0.927937
29.450000 -0.859419
29.500000 -0.780624
29.550000 -0.732661
29.600000 -0.684698
29.650000 -0.623033
29.700000 -0.575070
29.750000 -0.578496
29.800000 -0.619607
29.850000 -0.650439
29.900000 -0.688124
29.950000 -0.780623
30.000000 -0.890252
30.050000 -0.965622
30.100000 -1.017010
30.150000 -1.085527
30.200000 -1.123212
30.250000 -1.088953
30.300000 -1.044417
30.350000 -1.003306
30.400000 -0.917659
30.450000 -0.828586
30.500000 -0.770346
30.550000 -0.712105
30.600000 -0.643588
30.650000 -0.619606
30.700000 -0.633311
30.750000 -0.650439
30.800000 -0.688124
30.850000 -0.736087
30.900000 -0.777197
30.950000 -0.811456
31.000000 -0.852567
31.050000 -0.866271
31.100000 -0.849141
31.150000 -0.814882
31.200000 -0.766920
31.250000 -0.712106
31.300000 -0.677847
31.350000 -0.667569
31.400000 -0.664143
31.450000 -0.677847
31.500000 -0.732661
31.550000 -0.828585
31.600000 -0.938214
31.650000 -1.044417
31.700000 -1.164323
31.750000 -1.301358
31.800000 -1.393858
31.850000 -1.438394
31.900000 -1.462376
31.950000 -1.458949
32.000000 -1.400710
32.050000 -1.304785
32.100000 -1.208860
32.150000 -1.123213
32.200000 -1.037565
32.250000 -0.965621
32.300000 -0.931362
32.350000 -0.917659
32.400000 -0.910807
32.450000 -0.938215
32.500000 -0.999880
32.550000 -1.037565
32.600000 -1.044417
32.650000 -1.068398
32.700000 -1.123212
32.750000 -1.140342
32.800000 -1.130064
32.850000 -1.123213
32.900000 -1.119787
32.950000 -1.095805
33.000000 -1.068398
33.050000 -1.064972
33.100000 -1.082101
33.150000 -1.088953
33.200000 -1.102657
33.250000 -1.150619
33.300000 -1.222564
33.350000 -1.256822
33.400000 -1.263674
33.450000 -1.267100
33.500000 -1.243118
33.550000 -1.188304
33.600000 -1.109508
33.650000 -0.996454
33.700000 -0.842289
33.750000 -0.708680
33.800000 -0.602477
33.850000 -0.506552
33.900000 -0.431183
33.950000 -0.420905
34.000000 -0.458589
34.050000 -0.544237
34.100000 -0.670995
34.150000 -0.808031
34.200000 -0.941640
34.250000 -1.116361
34.300000 -1.315062
34.350000 -1.458949
34.400000 -1.541171
34.450000 -1.602837
34.500000 -1.643947
34.550000 -1.637096
34.600000 -1.613115
34.650000 -1.589134
34.700000 -1.575430
34.750000 -1.551449
34.800000 -1.530894
34.850000 -1.510338
34.900000 -1.489783
34.950000 -1.462375
35.000000 -1.452097
35.050000 -1.462376
35.100000 -1.472654
35.150000 -1.479505
35.200000 -1.486356
35.250000 -1.500060
35.300000 -1.530894
35.350000 -1.544597
35.400000 -1.520616
35.450000 -1.482931
35.500000 -1.458949
35.550000 -1.417839
35.600000 -1.339043
35.650000 -1.270525
35.700000 -1.225990
35.750000 -1.164323
35.800000 -1.075250
35.850000 -1.006732
35.900000 -0.972473
35.950000 -0.934788
36.000000 -0.886826
36.050000 -0.849141
36.100000 -0.852567
36.150000 -0.866270
36.200000 -0.879974
36.250000 -0.924511
36.300000 -1.003306
36.350000 -1.054695
36.400000 -1.082102
36.450000 -1.130064
36.500000 -1.164323
36.550000 -1.157471
36.600000 -1.136916
36.650000 -1.130064
36.700000 -1.099231
36.750000 -1.034139
36.800000 -0.948492
36.850000 -0.879974
36.900000 -0.842290
36.950000 -0.808031
37.000000 -0.773772
37.050000 -0.787475
37.100000 -0.859418
37.150000 -0.938215
37.200000 -1.006732
37.250000 -1.095806
37.300000 -1.184879
37.350000 -1.263673
37.400000 -1.332191
37.450000 -1.376729
37.500000 -1.376729
37.550000 -1.369876
37.600000 -1.393858
37.650000 -1.421265
37.700000 -1.407561
37.750000 -1.393858
37.800000 -1.410987
37.850000 -1.431543
37.900000 -1.428117
37.950000 -1.424691
38.000000 -1.445246
38.050000 -1.452098
38.100000 -1.414413
38.150000 -1.356173
38.200000 -1.287655
38.250000 -1.198582
38.300000 -1.112935
38.350000 -1.027287
38.400000 -0.938215
38.450000 -0.845716
38.500000 -0.797753
38.550000 -0.780624
38.600000 -0.749791
38.650000 -0.732661
38.700000 -0.749790
38.750000 -0.794327
38.800000 -0.849141
38.850000 -0.927937
38.900000 -1.003306
38.950000 -1.047843
39.000000 -1.092379
39.050000 -1.136916
39.100000 -1.147194
39.150000 -1.133490
39.200000 -1.116361
39.250000 -1.092379
39.300000 -1.051269
39.350000 -1.010158
39.400000 -0.972473
39.450000 -0.951918
39.500000 -0.979325
39.550000 -1.030713
39.600000 -1.075250
39.650000 -1.143768
39.700000 -1.253396
39.750000 -1.342469
39.800000 -1.393858
39.850000 -1.458949
39.900000 -1.500061
39.950000 -1.472653
40.000000 -1.414414
40.050000 -1.369877
40.100000 -1.315062
40.150000 -1.232841
40.200000 -1.147193
40.250000 -1.054695
40.300000 -0.962196
40.350000 -0.897104
40.400000 -0.849141
40.450000 -0.801178
40.500000 -0.770346
40.550000 -0.766920
40.600000 -0.790901
40.650000 -0.832012
40.700000 -0.876549
40.750000 -0.914233
40.800000 -0.955344
40.850000 -0.996454
40.900000 -1.027287
40.950000 -1.047843
41.000000 -1.058121
41.050000 -1.034139
41.100000 -0.986177
41.150000 -0.948492
41.200000 -0.934788
41.250000 -0.941641
41.300000 -0.979325
41.350000 -1.051269
41.400000 -1.130064
41.450000 -1.225989
41.500000 -1.345895
41.550000 -1.434968
41.600000 -1.445246
41.650000 -1.438394
41.700000 -1.414413
41.750000 -1.308210
41.800000 -1.154045
41.850000 -1.010158
41.900000 -0.842289
41.950000 -0.647013
42.000000 -0.503126
42.050000 -0.414054
42.100000 -0.328406
42.150000 -0.283869
42.200000 -0.331832
42.250000 -0.403776
42.300000 -0.479146
42.350000 -0.619607
42.400000 -0.821734
42.450000 -0.993029
42.500000 -1.123212
42.550000 -1.222563
42.600000 -1.287655
42.650000 -1.325340
42.700000 -1.359599
42.750000 -1.359599
42.800000 -1.335617
42.850000 -1.315062
42.900000 -1.291081
42.950000 -1.253396
43.000000 -1.215711
43.050000 -1.195156
43.100000 -1.191731
43.150000 -1.202008
43.200000 -1.212286
43.250000 -1.215712
43.300000 -1.222563
43.350000 -1.246544
43.400000 -1.267099
43.450000 -1.267100
43.500000 -1.249970
43.550000 -1.205433
43.600000 -1.150620
43.650000 -1.092379
43.700000 -1.047843
43.750000 -0.986176
43.800000 -0.903956
43.850000 -0.814882
43.900000 -0.746365
43.950000 -0.698402
44.000000 -0.633310
44.050000 -0.547663
44.100000 -0.482571
44.150000 -0.465441
44.200000 -0.472294
44.250000 -0.499701
44.300000 -0.595625
44.350000 -0.742939
44.400000 -0.897103
44.450000 -1.064972
44.500000 -1.267099
44.550000 -1.445246
44.600000 -1.565152
44.650000 -1.647373
44.700000 -1.726170
44.750000 -1.757002
44.800000 -1.702188
44.850000 -1.602837
44.900000 -1.486357
44.950000 -1.352747
45.000000 -1.219138
45.050000 -1.119786
45.100000 -1.054695
45.150000 -1.013584
45.200000 -0.999881
45.250000 -1.013584
45.300000 -1.061547
45.350000 -1.116361
45.400000 -1.154045
45.450000 -1.160897
45.500000 -1.143768
45.550000 -1.092380
45.600000 -1.006732
45.650000 -0.938215
45.700000 -0.910807
45.750000 -0.876549
45.800000 -0.828586
45.850000 -0.804604
45.900000 -0.811456
45.950000 -0.832012
46.000000 -0.879974
46.050000 -0.941640
46.100000 -0.969048
46.150000 -0.972473
46.200000 -0.975899
46.250000 -0.975899
46.300000 -0.962195
46.350000 -0.931363
46.400000 -0.886826
46.450000 -0.855993
46.500000 -0.842289
46.550000 -0.828586
46.600000 -0.825160
46.650000 -0.852568
46.700000 -0.900530
46.750000 -0.948493
46.800000 -1.010158
46.850000 -1.085528
46.900000 -1.150619
46.950000 -1.198582
47.000000 -1.236267
47.050000 -1.277378
47.100000 -1.297933
47.150000 -1.294507
47.200000 -1.260248
47.250000 -1.253397
47.300000 -1.273951
47.350000 -1.287656
47.400000 -1.270525
47.450000 -1.280803
47.500000 -1.311636
47.550000 -1.321914
47.600000 -1.325340
47.650000 -1.328766
47.700000 -1.311636
47.750000 -1.273952
47.800000 -1.246545
47.850000 -1.205433
47.900000 -1.119787
47.950000 -1.034139
48.000000 -0.999880
48.050000 -0.975899
48.100000 -0.934788
48.150000 -0.897104
48.200000 -0.907381
48.250000 -0.941640
48.300000 -0.972473
48.350000 -1.003307
48.400000 -1.047843
48.450000 -1.064972
48.500000 -1.054694
48.550000 -1.051268
48.600000 -1.044417
48.650000 -1.013584
48.700000 -0.989603
48.750000 -1.017010
48.800000 -1.037565
48.850000 -1.034139
48.900000 -1.075250
48.950000 -1.164323
49.000000 -1.239693
49.050000 -1.335617
49.100000 -1.469227
49.150000 -1.565153
49.200000 -1.609689
49.250000 -1.674781
49.300000 -1.739873
49.350000 -1.757002
49.400000 -1.757002
49.450000 -1.770706
49.500000 -1.753576
49.550000 -1.695336
49.600000 -1.654225
49.650000 -1.609689
49.700000 -1.551448
49.750000 -1.503486
49.800000 -1.458949
49.850000 -1.393858
49.900000 -1.308210
49.950000 -1.202008
50.000000 -1.071824
50.050000 -0.948492
50.100000 -0.866271
50.150000 -0.794327
50.200000 -0.729235
50.250000 -0.732661
50.300000 -0.777197
50.350000 -0.814883
50.400000 -0.859418
50.450000 -0.927936
50.500000 -0.989603
50.550000 -1.034140
50.600000 -1.058121
50.650000 -1.044417
50.700000 -0.986176
50.750000 -0.903956
50.800000 -0.797753
50.850000 -0.715531
50.900000 -0.684698
50.950000 -0.664143
51.000000 -0.657291
51.050000 -0.746365
51.100000 -0.917659
51.150000 -1.064972
51.200000 -1.202008
51.250000 -1.376729
51.300000 -1.534319
51.350000 -1.626818
51.400000 -1.695336
51.450000 -1.746725
51.500000 -1.743298
51.550000 -1.681632
51.600000 -1.582281
51.650000 -1.452098
51.700000 -1.339043
51.750000 -1.246545
51.800000 -1.167749
51.850000 -1.116361
51.900000 -1.106083
51.950000 -1.119786
52.000000 -1.157471
52.050000 -1.236267
52.100000 -1.308211
52.150000 -1.352747
52.200000 -1.400709
52.250000 -1.462375
52.300000 -1.489782
52.350000 -1.496635
52.400000 -1.496635
52.450000 -1.452098
52.500000 -1.380154
52.550000 -1.332192
52.600000 -1.287655
52.650000 -1.215711
52.700000 -1.136915
52.750000 -1.071824
52.800000 -1.023862
52.850000 -0.993029
52.900000 -0.972473
52.950000 -0.958770
53.000000 -0.962196
53.050000 -0.975899
53.100000 -1.003306
53.150000 -1.051269
53.200000 -1.116360
53.250000 -1.167749
53.300000 -1.202008
53.350000 -1.249970
53.400000 -1.297932
53.450000 -1.339043
53.500000 -1.428117
53.550000 -1.537745
53.600000 -1.595985
53.650000 -1.630244
53.700000 -1.681632
53.750000 -1.715891
53.800000 -1.736447
53.850000 -1.770706
53.900000 -1.780983
53.950000 -1.726169
54.000000 -1.667929
54.050000 -1.619967
54.100000 -1.541171
54.150000 -1.445246
54.200000 -1.366451
54.250000 -1.280804
54.300000 -1.198582
54.350000 -1.150620
54.400000 -1.150620
54.450000 -1.184878
54.500000 -1.219137
54.550000 -1.243119
54.600000 -1.277378
54.650000 -1.345895
54.700000 -1.397283
54.750000 -1.400710
54.800000 -1.387006
54.850000 -1.369877
54.900000 -1.304785
54.950000 -1.208860
55.000000 -1.126638
55.050000 -1.037565
55.100000 -0.945066
55.150000 -0.890252
55.200000 -0.876548
55.250000 -0.873122
55.300000 -0.917659
55.350000 -1.010158
55.400000 -1.088954
55.450000 -1.160898
55.500000 -1.277377
55.550000 -1.390431
55.600000 -1.458950
55.650000 -1.530894
55.700000 -1.609689
55.750000 -1.626818
55.800000 -1.595985
55.850000 -1.572004
55.900000 -1.527467
55.950000 -1.441820
56.000000 -1.315062
56.050000 -1.178026
56.100000 -1.040991
56.150000 -0.883400
56.200000 -0.718957
56.250000 -0.592200
56.300000 -0.516830
56.350000 -0.441460
56.400000 -0.379794
56.450000 -0.390072
56.500000 -0.427757
56.550000 -0.472294
56.600000 -0.568218
56.650000 -0.715532
56.700000 -0.835437
56.750000 -0.934789
56.800000 -1.051269
56.850000 -1.136916
56.900000 -1.167749
56.950000 -1.191730
57.000000 -1.191730
57.050000 -1.136916
57.100000 -1.088953
57.150000 -1.075250
57.200000 -1.030714
57.250000 -0.962195
57.300000 -0.907382
57.350000 -0.886826
57.400000 -0.897104
57.450000 -0.934789
57.500000 -0.989603
57.550000 -1.054695
57.600000 -1.130064
57.650000 -1.215712
57.700000 -1.297933
57.750000 -1.390432
57.800000 -1.458949
57.850000 -1.479505
57.900000 -1.482931
57.950000 -1.448672
58.000000 -1.369877
58.050000 -1.273952
58.100000 -1.171174
58.150000 -1.023862
58.200000 -0.849141
58.250000 -0.701828
58.300000 -0.599051
58.350000 -0.523681
58.400000 -0.482571
58.450000 -0.475720
58.500000 -0.527108
58.550000 -0.647013
58.600000 -0.787475
58.650000 -0.934789
58.700000 -1.119786
58.750000 -1.311636
58.800000 -1.438395
58.850000 -1.506912
58.900000 -1.548023
58.950000 -1.544597
59.000000 -1.493209
59.050000 -1.414413
59.100000 -1.294507
59.150000 -1.126638
59.200000 -0.975899
59.250000 -0.869696
59.300000 -0.766919
59.350000 -0.684698
59.400000 -0.684699
59.450000 -0.729235
59.500000 -0.784050
59.550000 -0.886826
59.600000 -1.037565
59.650000 -1.195156
59.700000 -1.349322
59.750000 -1.476079
59.800000 -1.534319
59.850000 -1.561726
59.900000 -1.578856
59.950000 -1.534319
60.000000 -1.400709
60.050000 -1.239693
60.100000 -1.088953
60.150000 -0.931363
60.200000 -0.797753
60.250000 -0.708680
60.300000 -0.664143
60.350000 -0.681273
60.400000 -0.753216
60.450000 -0.842289
60.500000 -0.941640
60.550000 -1.051268
60.600000 -1.147194
60.650000 -1.222563
60.700000 -1.291081
60.750000 -1.304784
60.800000 -1.249970
60.850000 -1.174601
60.900000 -1.099231
60.950000 -1.006732
61.000000 -0.907382
61.050000 -0.832012
61.100000 -0.770345
61.150000 -0.722384
61.200000 -0.691550
61.250000 -0.664143
61.300000 -0.664143
61.350000 -0.712105
61.400000 -0.773771
61.450000 -0.814883
61.500000 -0.842289
61.550000 -0.883401
61.600000 -0.924511
61.650000 -0.969047
61.700000 -1.006732
61.750000 -1.037565
61.800000 -1.075250
61.850000 -1.106083
61.900000 -1.119786
61.950000 -1.130064
62.000000 -1.140342
62.050000 -1.126638
62.100000 -1.106083
62.150000 -1.119786
62.200000 -1.150619
62.250000 -1.160897
62.300000 -1.167749
62.350000 -1.198582
62.400000 -1.225989
62.450000 -1.243119
62.500000 -1.270525
62.550000 -1.294507
62.600000 -1.294507
62.650000 -1.297933
62.700000 -1.311636
62.750000 -1.294507
62.800000 -1.253396
62.850000 -1.246544
62.900000 -1.256823
62.950000 -1.239692
63.000000 -1.222563
63.050000 -1.232841
63.100000 -1.232841
63.150000 -1.215711
63.200000 -1.219137
63.250000 -1.236267
63.300000 -1.243119
63.350000 -1.287655
63.400000 -1.359599
63.450000 -1.397283
63.500000 -1.421264
63.550000 -1.455523
63.600000 -1.476079
63.650000 -1.465801
63.700000 -1.417839
63.750000 -1.321914
63.800000 -1.215712
63.850000 -1.126638
63.900000 -1.017010
63.950000 -0.859419
64.000000 -0.712105
64.050000 -0.629884
64.100000 -0.581922
64.150000 -0.551089
64.200000 -0.568218
64.250000 -0.633310
64.300000 -0.701828
64.350000 -0.763494
64.400000 -0.849141
64.450000 -0.945066
64.500000 -1.020436
64.550000 -1.071824
64.600000 -1.119787
64.650000 -1.171175
64.700000 -1.195156
64.750000 -1.198582
64.800000 -1.236267
64.850000 -1.315063
64.900000 -1.387006
64.950000 -1.441820
65.000000 -1.510338
65.050000 -1.565152
65.100000 -1.554875
65.150000 -1.493209
65.200000 -1.441820
65.250000 -1.380154
65.300000 -1.270525
65.350000 -1.160897
65.400000 -1.092379
65.450000 -1.085528
65.500000 -1.116360
65.550000 -1.174601
65.600000 -1.263674
65.650000 -1.376729
65.700000 -1.482931
65.750000 -1.554875
65.800000 -1.640522
65.850000 -1.729595
65.900000 -1.757002
65.950000 -1.715891
66.000000 -1.674781
66.050000 -1.613115
66.100000 -1.503486
66.150000 -1.383580
66.200000 -1.301358
66.250000 -1.212286
66.300000 -1.130064
66.350000 -1.092379
66.400000 -1.075250
66.450000 -1.034139
66.500000 -0.999880
66.550000 -0.993029
66.600000 -0.989602
66.650000 -0.986176
66.700000 -1.006732
66.750000 -1.061547
66.800000 -1.126639
66.850000 -1.181453
66.900000 -1.212286
66.950000 -1.260248
67.000000 -1.318488
67.050000 -1.349321
67.100000 -1.352747
67.150000 -1.356173
67.200000 -1.335617
67.250000 -1.291081
67.300000 -1.263674
67.350000 -1.225989
67.400000 -1.164323
67.450000 -1.130064
67.500000 -1.133490
67.550000 -1.123213
67.600000 -1.112935
67.650000 -1.143767
67.700000 -1.178027
67.750000 -1.191731
67.800000 -1.198582
67.850000 -1.174601
67.900000 -1.088954
67.950000 -1.003306
68.000000 -0.927937
68.050000 -0.835438
68.100000 -0.746365
68.150000 -0.722383
68.200000 -0.766920
68.250000 -0.838863
68.300000 -0.958770
68.350000 -1.130065
68.400000 -1.311636
68.450000 -1.482931
68.500000 -1.637096
68.550000 -1.787835
68.600000 -1.894038
68.650000 -1.935149
68.700000 -1.935148
68.750000 -1.894038
68.800000 -1.808390
68.850000 -1.691910
68.900000 -1.572004
68.950000 -1.448672
69.000000 -1.311637
69.050000 -1.198582
69.100000 -1.099232
69.150000 -0.993028
69.200000 -0.900529
69.250000 -0.835438
69.300000 -0.787475
69.350000 -0.736087
69.400000 -0.712105
69.450000 -0.712106
69.500000 -0.718958
69.550000 -0.722384
69.600000 -0.725809
69.650000 -0.753216
69.700000 -0.811456
69.750000 -0.883400
69.800000 -0.945066
69.850000 -0.999880
69.900000 -1.061546
69.950000 -1.095805
70.000000 -1.092379
70.050000 -1.095806
70.100000 -1.106083
70.150000 -1.054694
70.200000 -0.941641
70.250000 -0.828585
70.300000 -0.749790
70.350000 -0.688124
70.400000 -0.633310
70.450000 -0.581922
70.500000 -0.568218
70.550000 -0.616181
70.600000 -0.712106
70.650000 -0.828586
70.700000 -0.958770
70.750000 -1.099231
70.800000 -1.219138
70.850000 -1.318488
70.900000 -1.407562
70.950000 -1.434968
71.000000 -1.393857
71.050000 -1.335618
71.100000 -1.280804
71.150000 -1.184879
71.200000 -1.082101
71.250000 -1.027287
71.300000 -0.975899
71.350000 -0.914233
71.400000 -0.879974
71.450000 -0.883400
71.500000 -0.879974
71.550000 -0.893678
71.600000 -0.934789
71.650000 -0.972474
71.700000 -0.975899
71.750000 -0.969047
71.800000 -0.945066
71.850000 -0.917659
71.900000 -0.897104
71.950000 -0.849141
72.000000 -0.784050
72.050000 -0.746365
72.100000 -0.742938
72.150000 -0.725809
72.200000 -0.688124
72.250000 -0.660717
72.300000 -0.640162
72.350000 -0.619607
72.400000 -0.588773
72.450000 -0.564792
72.500000 -0.568218
72.550000 -0.592200
72.600000 -0.599051
72.650000 -0.592200
72.700000 -0.605903
72.750000 -0.629884
72.800000 -0.633310
72.850000 -0.640162
72.900000 -0.684699
72.950000 -0.732661
73.000000 -0.760069
73.050000 -0.790901
73.100000 -0.821735
73.150000 -0.818308
73.200000 -0.804605
73.250000 -0.825160
73.300000 -0.845715
73.350000 -0.859419
73.400000 -0.883400
73.450000 -0.914233
73.500000 -0.945066
73.550000 -0.975899
73.600000 -1.006732
73.650000 -1.027288
73.700000 -1.027287
73.750000 -1.006732
73.800000 -0.955344
73.850000 -0.893678
73.900000 -0.832012
73.950000 -0.766920
74.000000 -0.688124
74.050000 -0.629884
74.100000 -0.623033
74.150000 -0.657292
74.200000 -0.732661
74.250000 -0.828586
74.300000 -0.931363
74.350000 -1.023861
74.400000 -1.112935
74.450000 -1.202008
74.500000 -1.267100
74.550000 -1.284229
74.600000 -1.256822
74.650000 -1.198582
74.700000 -1.109508
74.750000 -1.017010
74.800000 -0.927937
74.850000 -0.842289
74.900000 -0.794327
74.950000 -0.825160
75.000000 -0.893678
75.050000 -0.934788
75.100000 -0.965622
75.150000 -1.030714
75.200000 -1.092380
75.250000 -1.095805
75.300000 -1.071824
75.350000 -1.051269
75.400000 -1.010158
75.450000 -0.955344
75.500000 -0.893678
75.550000 -0.825160
75.600000 -0.729235
75.650000 -0.623032
75.700000 -0.540811
75.750000 -0.489423
75.800000 -0.468868
75.850000 -0.465442
75.900000 -0.499700
75.950000 -0.581922
76.000000 -0.677846
76.050000 -0.770346
76.100000 -0.883400
76.150000 -1.023862
76.200000 -1.150620
76.250000 -1.280804
76.300000 -1.400709
76.350000 -1.465801
76.400000 -1.448672
76.450000 -1.407561
76.500000 -1.342469
76.550000 -1.219137
76.600000 -1.064973
76.650000 -0.907381
76.700000 -0.773772
76.750000 -0.674421
76.800000 -0.636736
76.850000 -0.670995
76.900000 -0.777197
76.950000 -0.931362
77.000000 -1.095805
77.050000 -1.284230
77.100000 -1.500061
77.150000 -1.688484
77.200000 -1.818668
77.250000 -1.935148
77.300000 -2.007092
77.350000 -1.983110
77.400000 -1.887186
77.450000 -1.791261
77.500000 -1.709039
77.550000 -1.623393
77.600000 -1.530893
77.650000 -1.441820
77.700000 -1.383580
77.750000 -1.373302
77.800000 -1.383580
77.850000 -1.393858
77.900000 -1.424691
77.950000 -1.472653
78.000000 -1.493208
78.050000 -1.489783
78.100000 -1.489782
78.150000 -1.482930
78.200000 -1.448672
78.250000 -1.414414
78.300000 -1.387006
78.350000 -1.352747
78.400000 -1.321914
78.450000 -1.301359
78.500000 -1.291081
78.550000 -1.284230
78.600000 -1.270525
78.650000 -1.243119
78.700000 -1.232841
78.750000 -1.243118
78.800000 -1.225989
78.850000 -1.174601
78.900000 -1.140342
78.950000 -1.109509
79.000000 -1.051269
79.050000 -0.986177
79.100000 -0.945066
79.150000 -0.897103
79.200000 -0.838864
79.250000 -0.797753
79.300000 -0.770345
79.350000 -0.746365
79.400000 -0.766919
79.450000 -0.821734
79.500000 -0.862845
79.550000 -0.914233
79.600000 -1.027288
79.650000 -1.174600
79.700000 -1.318488
79.750000 -1.503487
79.800000 -1.705613
79.850000 -1.866630
79.900000 -1.989963
79.950000 -2.120147
80.000000 -2.205793
80.050000 -2.181812
80.100000 -2.079036
80.150000 -1.945426
80.200000 -1.774132
80.250000 -1.544597
80.300000 -1.273951
80.350000 -0.986177
80.400000 -0.736087
80.450000 -0.564792
80.500000 -0.451738
80.550000 -0.379794
80.600000 -0.372942
80.650000 -0.414053
80.700000 -0.479145
80.750000 -0.578496
80.800000 -0.705253
80.850000 -0.801179
80.900000 -0.869696
80.950000 -0.951918
81.000000 -0.979325
81.050000 -0.938214
81.100000 -0.897104
81.150000 -0.883400
81.200000 -0.866271
81.250000 -0.862845
81.300000 -0.903956
81.350000 -0.931363
81.400000 -0.951918
81.450000 -1.030714
81.500000 -1.143768
81.550000 -1.229415
81.600000 -1.318489
81.650000 -1.428117
81.700000 -1.520616
81.750000 -1.582281
81.800000 -1.643948
81.850000 -1.709040
81.900000 -1.763854
81.950000 -1.818668
82.000000 -1.859779
82.050000 -1.866631
82.100000 -1.856353
82.150000 -1.808391
82.200000 -1.736447
82.250000 -1.685058
82.300000 -1.633670
82.350000 -1.517189
82.400000 -1.383580
82.450000 -1.287656
82.500000 -1.205434
82.550000 -1.102657
82.600000 -1.030713
82.650000 -1.006732
82.700000 -1.013584
82.750000 -1.047843
82.800000 -1.109509
82.850000 -1.195157
82.900000 -1.328766
82.950000 -1.489782
83.000000 -1.640521
83.050000 -1.784409
83.100000 -1.938574
83.150000 -2.037925
83.200000 -2.082461
83.250000 -2.116721
83.300000 -2.130424
83.350000 -2.055055
83.400000 -1.914593
83.450000 -1.763854
83.500000 -1.602837
83.550000 -1.431543
83.600000 -1.249970
83.650000 -1.085528
83.700000 -0.975899
83.750000 -0.917659
83.800000 -0.886826
83.850000 -0.910807
83.900000 -0.999881
83.950000 -1.095805
84.000000 -1.143768
84.050000 -1.212285
84.100000 -1.280803
84.150000 -1.273951
84.200000 -1.225989
84.250000 -1.202008
84.300000 -1.157471
84.350000 -1.078676
84.400000 -1.034139
84.450000 -1.040991
84.500000 -1.068398
84.550000 -1.123212
84.600000 -1.212286
84.650000 -1.301358
84.700000 -1.421264
84.750000 -1.578855
84.800000 -1.712466
84.850000 -1.801538
84.900000 -1.863205
84.950000 -1.873482
85.000000 -1.825520
85.050000 -1.777557
85.100000 -1.719317
85.150000 -1.606263
85.200000 -1.489783
85.250000 -1.434969
85.300000 -1.414414
85.350000 -1.383580
85.400000 -1.369876
85.450000 -1.393857
85.500000 -1.421265
85.550000 -1.438394
85.600000 -1.462375
85.650000 -1.469228
85.700000 -1.428117
85.750000 -1.369876
85.800000 -1.325340
85.850000 -1.284229
85.900000 -1.202008
85.950000 -1.095806
86.000000 -1.010158
86.050000 -0.955344
86.100000 -0.910807
86.150000 -0.879974
86.200000 -0.866271
86.250000 -0.842290
86.300000 -0.818308
86.350000 -0.818308
86.400000 -0.835438
86.450000 -0.832012
86.500000 -0.828586
86.550000 -0.832012
86.600000 -0.832012
86.650000 -0.845715
86.700000 -0.903956
86.750000 -0.989602
86.800000 -1.071824
86.850000 -1.174600
86.900000 -1.304784
86.950000 -1.414413
87.000000 -1.496635
87.050000 -1.592559
87.100000 -1.685059
87.150000 -1.729595
87.200000 -1.760428
87.250000 -1.794687
87.300000 -1.811816
87.350000 -1.808391
87.400000 -1.784409
87.450000 -1.726169
87.500000 -1.637096
87.550000 -1.527468
87.600000 -1.383580
87.650000 -1.222563
87.700000 -1.064973
87.750000 -0.893677
87.800000 -0.698402
87.850000 -0.537385
87.900000 -0.441460
87.950000 -0.376368
88.000000 -0.345535
88.050000 -0.407201
88.100000 -0.527107
88.150000 -0.660717
88.200000 -0.794327
88.250000 -0.945066
88.300000 -1.071824
88.350000 -1.140342
88.400000 -1.178027
88.450000 -1.212286
88.500000 -1.202008
88.550000 -1.136916
88.600000 -1.068398
88.650000 -1.010159
88.700000 -0.927936
88.750000 -0.842289
88.800000 -0.780624
88.850000 -0.742939
88.900000 -0.698402
88.950000 -0.667569
89.000000 -0.681273
89.050000 -0.712106
89.100000 -0.718957
89.150000 -0.725809
89.200000 -0.763494
89.250000 -0.838864
89.300000 -0.917659
89.350000 -0.986176
89.400000 -1.058121
89.450000 -1.154046
89.500000 -1.243118
89.550000 -1.297933
89.600000 -1.321914
89.650000 -1.349321
89.700000 -1.356173
89.750000 -1.321914
89.800000 -1.267099
89.850000 -1.198582
89.900000 -1.106083
89.950000 -1.023861
90.000000 -0.982751
90.050000 -0.931362
90.100000 -0.869697
90.150000 -0.845716
90.200000 -0.849142
90.250000 -0.859419
90.300000 -0.897103
90.350000 -0.986176
90.400000 -1.075250
90.450000 -1.147194
90.500000 -1.232841
90.550000 -1.315063
90.600000 -1.373302
90.650000 -1.424691
90.700000 -1.479505
90.750000 -1.500060
90.800000 -1.469227
90.850000 -1.417839
90.900000 -1.345895
90.950000 -1.243118
91.000000 -1.099231
91.050000 -0.938214
91.100000 -0.790901
91.150000 -0.701828
91.200000 -0.677847
91.250000 -0.691550
91.300000 -0.739513
91.350000 -0.832012
91.400000 -0.972473
91.450000 -1.133490
91.500000 -1.304785
91.550000 -1.458949
91.600000 -1.592560
91.650000 -1.719317
91.700000 -1.794687
91.750000 -1.787835
91.800000 -1.739873
91.850000 -1.678207
91.900000 -1.578856
91.950000 -1.452098
92.000000 -1.349321
92.050000 -1.256822
92.100000 -1.167749
92.150000 -1.123212
92.200000 -1.112935
92.250000 -1.112935
92.300000 -1.123213
92.350000 -1.140342
92.400000 -1.133490
92.450000 -1.130065
92.500000 -1.154046
92.550000 -1.171175
92.600000 -1.181452
92.650000 -1.202008
92.700000 -1.222564
92.750000 -1.253397
92.800000 -1.318489
92.850000 -1.404136
92.900000 -1.503486
92.950000 -1.592560
93.000000 -1.647374
93.050000 -1.667929
93.100000 -1.691910
93.150000 -1.664503
93.200000 -1.572004
93.250000 -1.469228
93.300000 -1.380154
93.350000 -1.273951
93.400000 -1.164323
93.450000 -1.068398
93.500000 -0.982751
93.550000 -0.934789
93.600000 -0.955344
93.650000 -1.013584
93.700000 -1.088954
93.750000 -1.198582
93.800000 -1.311636
93.850000 -1.383580
93.900000 -1.434968
93.950000 -1.482931
94.000000 -1.472653
94.050000 -1.397284
94.100000 -1.328766
94.150000 -1.256822
94.200000 -1.136916
94.250000 -0.999880
94.300000 -0.903956
94.350000 -0.835438
94.400000 -0.770346
94.450000 -0.715532
94.500000 -0.708680
94.550000 -0.756642
94.600000 -0.825160
94.650000 -0.897103
94.700000 -0.989603
94.750000 -1.099232
94.800000 -1.174601
94.850000 -1.202008
94.900000 -1.212285
94.950000 -1.205434
95.000000 -1.157471
95.050000 -1.092380
95.100000 -1.040991
95.150000 -0.979325
95.200000 -0.927937
95.250000 -0.917659
95.300000 -0.938214
95.350000 -0.969048
95.400000 -1.047843
95.450000 -1.202008
95.500000 -1.376728
95.550000 -1.551449
95.600000 -1.739873
95.650000 -1.914593
95.700000 -2.044777
95.750000 -2.116720
95.800000 -2.150979
95.850000 -2.133850
95.900000 -2.061906
95.950000 -1.945426
96.000000 -1.794687
96.050000 -1.647374
96.100000 -1.517190
96.150000 -1.410987
96.200000 -1.315063
96.250000 -1.253396
96.300000 -1.239692
96.350000 -1.243118
96.400000 -1.246544
96.450000 -1.260248
96.500000 -1.308210
96.550000 -1.352747
96.600000 -1.359599
96.650000 -1.359599
96.700000 -1.369876
96.750000 -1.328766
96.800000 -1.225989
96.850000 -1.154046
96.900000 -1.133490
96.950000 -1.119787
97.000000 -1.147194
97.050000 -1.232840
97.100000 -1.321914
97.150000 -1.397284
97.200000 -1.503486
97.250000 -1.630244
97.300000 -1.733021
97.350000 -1.808390
97.400000 -1.859778
97.450000 -1.870057
97.500000 -1.849501
97.550000 -1.798112
97.600000 -1.709040
97.650000 -1.592559
97.700000 -1.458950
97.750000 -1.304784
97.800000 -1.133490
97.850000 -0.969048
97.900000 -0.801179
97.950000 -0.623032
98.000000 -0.468868
98.050000 -0.348961
98.100000 -0.263314
98.150000 -0.218777
98.200000 -0.218777
98.250000 -0.253036
98.300000 -0.314702
98.350000 -0.400350
98.400000 -0.537385
98.450000 -0.718957
98.500000 -0.883401
98.550000 -1.020436
98.600000 -1.171175
98.650000 -1.308211
98.700000 -1.376728
98.750000 -1.383580
98.800000 -1.376728
98.850000 -1.335618
98.900000 -1.267100
98.950000 -1.184879
99.000000 -1.085528
99.050000 -0.951918
99.100000 -0.838864
99.150000 -0.760069
99.200000 -0.681273
99.250000 -0.636736
99.300000 -0.633310
99.350000 -0.650440
99.400000 -0.681273
99.450000 -0.749791
99.500000 -0.835438
99.550000 -0.910807
99.600000 -0.965621
99.650000 -1.023861
99.700000 -1.058121
99.750000 -1.075250
99.800000 -1.075250
99.850000 -1.051268
99.900000 -1.017010
99.950000 -0.989603
100.000000 -0.965622
100.050000 -0.962196
100.100000 -1.006732
100.150000 -1.075250
100.200000 -1.119786
100.250000 -1.167749
100.300000 -1.246544
100.350000 -1.301359
100.400000 -1.325340
100.450000 -1.332192
100.500000 -1.321914
100.550000 -1.277378
100.600000 -1.225989
100.650000 -1.150619
100.700000 -1.027287
100.750000 -0.914233
100.800000 -0.818308
100.850000 -0.732661
100.900000 -0.657291
100.950000 -0.609329
101.000000 -0.571645
101.050000 -0.533959
101.100000 -0.547663
101.150000 -0.585348
101.200000 -0.616181
101.250000 -0.636736
101.300000 -0.674421
101.350000 -0.708680
101.400000 -0.718958
101.450000 -0.712105
101.500000 -0.729235
101.550000 -0.753216
101.600000 -0.760068
101.650000 -0.773772
101.700000 -0.832011
101.750000 -0.938214
101.800000 -1.051268
101.850000 -1.167749
101.900000 -1.284230
101.950000 -1.390432
102.000000 -1.462375
102.050000 -1.500060
102.100000 -1.513764
102.150000 -1.493208
102.200000 -1.424691
102.250000 -1.318488
102.300000 -1.184878
102.350000 -1.020436
102.400000 -0.845715
102.450000 -0.722384
102.500000 -0.650439
102.550000 -0.571644
102.600000 -0.492848
102.650000 -0.472293
102.700000 -0.492849
102.750000 -0.489423
102.800000 -0.482571
102.850000 -0.516830
102.900000 -0.557941
102.950000 -0.592200
103.000000 -0.650440
103.050000 -0.718957
103.100000 -0.753216
103.150000 -0.790901
103.200000 -0.838864
103.250000 -0.873122
103.300000 -0.879974
103.350000 -0.886826
103.400000 -0.883400
103.450000 -0.845715
103.500000 -0.797753
103.550000 -0.773772
103.600000 -0.756642
103.650000 -0.739513
103.700000 -0.746364
103.750000 -0.801178
103.800000 -0.855993
103.850000 -0.893678
103.900000 -0.934788
103.950000 -1.003306
104.000000 -1.085527
104.050000 -1.150619
104.100000 -1.198582
104.150000 -1.243119
104.200000 -1.263674
104.250000 -1.256823
104.300000 -1.256822
104.350000 -1.256822
104.400000 -1.215712
104.450000 -1.157471
104.500000 -1.140342
104.550000 -1.133490
104.600000 -1.099231
104.650000 -1.082102
104.700000 -1.092380
104.750000 -1.092379
104.800000 -1.102657
104.850000 -1.150620
104.900000 -1.191730
104.950000 -1.215712
105.000000 -1.277377
105.050000 -1.352747
105.100000 -1.397283
105.150000 -1.431542
105.200000 -1.493209
105.250000 -1.548023
105.300000 -1.561726
105.350000 -1.565152
105.400000 -1.582282
105.450000 -1.575430
105.500000 -1.541171
105.550000 -1.500060
105.600000 -1.441820
105.650000 -1.363024
105.700000 -1.297932
105.750000 -1.253396
105.800000 -1.181453
105.850000 -1.102657
105.900000 -1.078675
105.950000 -1.088953
106.000000 -1.088953
106.050000 -1.112934
106.100000 -1.174601
106.150000 -1.195156
106.200000 -1.171175
106.250000 -1.157471
106.300000 -1.160898
106.350000 -1.133491
106.400000 -1.078676
106.450000 -1.013584
106.500000 -0.945066
106.550000 -0.879974
106.600000 -0.818308
106.650000 -0.753216
106.700000 -0.688124
106.750000 -0.657291
106.800000 -0.660717
106.850000 -0.660717
106.900000 -0.667569
106.950000 -0.705253
107.000000 -0.780623
107.050000 -0.849142
107.100000 -0.897103
107.150000 -0.941640
107.200000 -0.993028
107.250000 -1.023861
107.300000 -1.030713
107.350000 -1.040991
107.400000 -1.023862
107.450000 -0.951917
107.500000 -0.866270
107.550000 -0.794327
107.600000 -0.708680
107.650000 -0.609329
107.700000 -0.527107
107.750000 -0.468867
107.800000 -0.438035
107.850000 -0.438034
107.900000 -0.458590
107.950000 -0.479145
108.000000 -0.503126
108.050000 -0.544237
108.100000 -0.588774
108.150000 -0.619606
108.200000 -0.650440
108.250000 -0.701828
108.300000 -0.746364
108.350000 -0.794327
108.400000 -0.873122
108.450000 -0.965622
108.500000 -1.037565
108.550000 -1.102657
108.600000 -1.195156
108.650000 -1.280803
108.700000 -1.342469
108.750000 -1.383580
108.800000 -1.393858
108.850000 -1.363025
108.900000 -1.315063
108.950000 -1.277377
109.000000 -1.243119
109.050000 -1.202008
109.100000 -1.184879
109.150000 -1.198582
109.200000 -1.212286
109.250000 -1.205434
109.300000 -1.205434
109.350000 -1.208859
109.400000 -1.167749
109.450000 -1.099231
109.500000 -1.044417
109.550000 -1.010158
109.600000 -0.996455
109.650000 -0.982751
109.700000 -0.962195
109.750000 -0.958769
109.800000 -0.979325
109.850000 -0.982751
109.900000 -0.979325
109.950000 -1.006732
110.000000 -1.037565
110.050000 -1.017010
110.100000 -0.982751
110.150000 -0.948492
110.200000 -0.890252
110.250000 -0.832011
110.300000 -0.797753
110.350000 -0.763494
110.400000 -0.753216
110.450000 -0.808031
110.500000 -0.886826
110.550000 -0.941641
110.600000 -1.027287
110.650000 -1.140342
110.700000 -1.222563
110.750000 -1.280803
110.800000 -1.342469
110.850000 -1.380155
110.900000 -1.393857
110.950000 -1.424691
111.000000 -1.455524
111.050000 -1.452098
111.100000 -1.452098
111.150000 -1.476080
111.200000 -1.506912
111.250000 -1.537746
111.300000 -1.561726
111.350000 -1.589133
111.400000 -1.595986
111.450000 -1.572004
111.500000 -1.524041
111.550000 -1.472653
111.600000 -1.424691
111.650000 -1.387006
111.700000 -1.383580
111.750000 -1.380154
111.800000 -1.352747
111.850000 -1.342469
111.900000 -1.373303
111.950000 -1.390432
112.000000 -1.400709
112.050000 -1.441820
112.100000 -1.500060
112.150000 -1.527467
112.200000 -1.554874
112.250000 -1.589133
112.300000 -1.599411
112.350000 -1.599411
112.400000 -1.623392
112.450000 -1.637096
112.500000 -1.609689
112.550000 -1.558300
112.600000 -1.500060
112.650000 -1.431542
112.700000 -1.342470
112.750000 -1.225990
112.800000 -1.099231
112.850000 -0.999880
112.900000 -0.945067
112.950000 -0.893677
113.000000 -0.832011
113.050000 -0.814883
113.100000 -0.842290
113.150000 -0.886826
113.200000 -0.927937
113.250000 -0.965622
113.300000 -1.006732
113.350000 -1.068399
113.400000 -1.123212
113.450000 -1.147193
113.500000 -1.147194
113.550000 -1.157472
113.600000 -1.147193
113.650000 -1.095806
113.700000 -1.054695
113.750000 -1.030714
113.800000 -0.999880
113.850000 -0.982751
113.900000 -1.006732
113.950000 -1.023862
114.000000 -1.027288
114.050000 -1.085527
114.100000 -1.174601
114.150000 -1.236267
114.200000 -1.301358
114.250000 -1.369876
114.300000 -1.404135
114.350000 -1.414413
114.400000 -1.434969
114.450000 -1.434969
114.500000 -1.397284
114.550000 -1.356173
114.600000 -1.321914
114.650000 -1.263674
114.700000 -1.205434
114.750000 -1.188304
114.800000 -1.181453
114.850000 -1.167749
114.900000 -1.171175
114.950000 -1.191730
115.000000 -1.181453
115.050000 -1.164324
115.100000 -1.150620
115.150000 -1.109509
115.200000 -1.027287
115.250000 -0.972473
115.300000 -0.917659
115.350000 -0.811457
115.400000 -0.725809
115.450000 -0.708679
115.500000 -0.712106
115.550000 -0.698402
115.600000 -0.725809
115.650000 -0.787475
115.700000 -0.825160
115.750000 -0.876548
115.800000 -0.965621
115.850000 -1.037565
115.900000 -1.064972
115.950000 -1.082102
116.000000 -1.095805
116.050000 -1.068398
116.100000 -1.017010
116.150000 -0.965621
116.200000 -0.910807
116.250000 -0.855993
116.300000 -0.818309
116.350000 -0.794327
116.400000 -0.780623
116.450000 -0.784049
116.500000 -0.814882
116.550000 -0.866271
116.600000 -0.914234
116.650000 -0.972473
116.700000 -1.047843
116.750000 -1.147194
116.800000 -1.267100
116.850000 -1.366451
116.900000 -1.438395
116.950000 -1.489783
117.000000 -1.513764
117.050000 -1.476079
117.100000 -1.393858
117.150000 -1.301359
117.200000 -1.195157
117.250000 -1.058120
117.300000 -0.921085
117.350000 -0.811456
117.400000 -0.739513
117.450000 -0.729235
117.500000 -0.790901
117.550000 -0.897104
117.600000 -1.017009
117.650000 -1.181452
117.700000 -1.383580
117.750000 -1.561726
117.800000 -1.688485
117.850000 -1.767280
117.900000 -1.801539
117.950000 -1.746725
118.000000 -1.616541
118.050000 -1.452098
118.100000 -1.284229
118.150000 -1.088953
118.200000 -0.883400
118.250000 -0.715532
118.300000 -0.605903
118.350000 -0.544237
118.400000 -0.533959
118.450000 -0.581922
118.500000 -0.688124
118.550000 -0.838863
118.600000 -1.013584
118.650000 -1.184879
118.700000 -1.332191
118.750000 -1.458950
118.800000 -1.585707
118.850000 -1.674781
118.900000 -1.691910
118.950000 -1.671355
119.000000 -1.647374
119.050000 -1.599411
119.100000 -1.513764
119.150000 -1.445246
119.200000 -1.397284
119.250000 -1.339043
119.300000 -1.287655
119.350000 -1.267100
119.400000 -1.239692
119.450000 -1.205434
119.500000 -1.202008
119.550000 -1.212286
119.600000 -1.198582
119.650000 -1.157471
119.700000 -1.133490
119.750000 -1.123213
119.800000 -1.085527
119.850000 -1.040991
119.900000 -1.010158
119.950000 -0.979325
120.000000 -0.941641
120.050000 -0.914234
120.100000 -0.879974
120.150000 -0.821734
120.200000 -0.787475
120.250000 -0.797753
120.300000 -0.777198
120.350000 -0.712106
120.400000 -0.674421
120.450000 -0.667569
120.500000 -0.650440
120.550000 -0.650439
120.600000 -0.670995
120.650000 -0.681273
120.700000 -0.701828
120.750000 -0.742938
120.800000 -0.787475
120.850000 -0.814882
120.900000 -0.855993
120.950000 -0.890252
121.000000 -0.938214
121.050000 -1.006732
121.100000 -1.064972
121.150000 -1.088953
121.200000 -1.123212
121.250000 -1.164323
121.300000 -1.171175
121.350000 -1.160897
121.400000 -1.178027
121.450000 -1.198582
121.500000 -1.181453
121.550000 -1.157472
121.600000 -1.119786
121.650000 -1.058120
121.700000 -0.996454
121.750000 -0.951918
121.800000 -0.900530
121.850000 -0.859419
121.900000 -0.838864
121.950000 -0.832012
122.000000 -0.821734
122.050000 -0.804605
122.100000 -0.794327
122.150000 -0.804604
122.200000 -0.832011
122.250000 -0.842289
122.300000 -0.838863
122.350000 -0.862845
122.400000 -0.924511
122.450000 -0.993029
122.500000 -1.044417
122.550000 -1.088953
122.600000 -1.130064
122.650000 -1.150620
122.700000 -1.147194
122.750000 -1.130064
122.800000 -1.109509
122.850000 -1.064972
122.900000 -0.979325
122.950000 -0.893677
123.000000 -0.832012
123.050000 -0.794327
123.100000 -0.756642
123.150000 -0.729235
123.200000 -0.718958
123.250000 -0.722383
123.300000 -0.739512
123.350000 -0.760068
123.400000 -0.794327
123.450000 -0.825160
123.500000 -0.835438
123.550000 -0.814882
123.600000 -0.770346
123.650000 -0.746365
123.700000 -0.725809
123.750000 -0.691550
123.800000 -0.626458
123.850000 -0.571644
123.900000 -0.540811
123.950000 -0.523682
124.000000 -0.485997
124.050000 -0.462016
124.100000 -0.475719
124.150000 -0.513404
124.200000 -0.523682
124.250000 -0.551089
124.300000 -0.612755
124.350000 -0.653866
124.400000 -0.650440
124.450000 -0.633310
124.500000 -0.605903
124.550000 -0.544237
124.600000 -0.462015
124.650000 -0.386646
124.700000 -0.324980
124.750000 -0.280443
124.800000 -0.256462
124.850000 -0.253036
124.900000 -0.287295
124.950000 -0.359239
125.000000 -0.462016
125.050000 -0.588774
125.100000 -0.725809
125.150000 -0.849141
125.200000 -0.948493
125.250000 -1.040991
125.300000 -1.095805
125.350000 -1.088954
125.400000 -1.037565
125.450000 -0.972473
125.500000 -0.907381
125.550000 -0.852567
125.600000 -0.797753
125.650000 -0.746365
125.700000 -0.736086
125.750000 -0.777197
125.800000 -0.845715
125.850000 -0.927937
125.900000 -1.030713
125.950000 -1.133490
126.000000 -1.208859
126.050000 -1.253396
126.100000 -1.267100
126.150000 -1.249970
126.200000 -1.222563
126.250000 -1.164323
126.300000 -1.054694
126.350000 -0.900529
126.400000 -0.756643
126.450000 -0.623032
126.500000 -0.492848
126.550000 -0.396924
126.600000 -0.359239
126.650000 -0.355813
126.700000 -0.366091
126.750000 -0.438034
126.800000 -0.575070
126.850000 -0.763494
126.900000 -0.986176
126.950000 -1.239693
127.000000 -1.506912
127.050000 -1.757002
127.100000 -1.962555
127.150000 -2.089313
127.200000 -2.154405
127.250000 -2.168109
127.300000 -2.123573
127.350000 -2.013944
127.400000 -1.846075
127.450000 -1.678207
127.500000 -1.513764
127.550000 -1.359599
127.600000 -1.229415
127.650000 -1.164323
127.700000 -1.147193
127.750000 -1.154045
127.800000 -1.195157
127.850000 -1.280803
127.900000 -1.376729
127.950000 -1.469228
128.000000 -1.527467
128.050000 -1.548022
128.100000 -1.544597
128.150000 -1.524042
128.200000 -1.469228
128.250000 -1.366450
128.300000 -1.249971
128.350000 -1.126638
128.400000 -0.982751
128.450000 -0.842289
128.500000 -0.746365
128.550000 -0.664143
128.600000 -0.599051
128.650000 -0.585347
128.700000 -0.605903
128.750000 -0.623032
128.800000 -0.650440
128.850000 -0.732661
128.900000 -0.828586
128.950000 -0.876548
129.000000 -0.910808
129.050000 -0.962196
129.100000 -1.017010
129.150000 -1.034139
129.200000 -1.030714
129.250000 -1.037565
129.300000 -1.058120
129.350000 -1.068399
129.400000 -1.061546
129.450000 -1.051269
129.500000 -1.061546
129.550000 -1.085528
129.600000 -1.099231
129.650000 -1.075250
129.700000 -1.051269
129.750000 -1.040992
129.800000 -1.017010
129.850000 -0.975900
129.900000 -0.938214
129.950000 -0.921085
130.000000 -0.914233
130.050000 -0.907381
130.100000 -0.917659
130.150000 -0.941640
130.200000 -0.972473
130.250000 -0.996455
130.300000 -1.003306
130.350000 -0.989603
130.400000 -0.969048
130.450000 -0.969047
130.500000 -0.948492
130.550000 -0.869696
130.600000 -0.766920
130.650000 -0.712105
130.700000 -0.705254
130.750000 -0.684699
130.800000 -0.677847
130.850000 -0.746365
130.900000 -0.883401
130.950000 -0.996455
131.000000 -1.095805
131.050000 -1.222563
131.100000 -1.332191
131.150000 -1.369877
131.200000 -1.380154
131.250000 -1.397283
131.300000 -1.380154
131.350000 -1.332191
131.400000 -1.287655
131.450000 -1.236267
131.500000 -1.181452
131.550000 -1.160898
131.600000 -1.167749
131.650000 -1.195157
131.700000 -1.277377
131.750000 -1.376729
131.800000 -1.445246
131.850000 -1.500060
131.900000 -1.551449
131.950000 -1.537745
132.000000 -1.458949
132.050000 -1.373303
132.100000 -1.263674
132.150000 -1.106083
132.200000 -0.941640
132.250000 -0.811457
132.300000 -0.684698
132.350000 -0.575070
132.400000 -0.527107
132.450000 -0.530533
132.500000 -0.551089
132.550000 -0.595626
132.600000 -0.670995
132.650000 -0.753217
132.700000 -0.842290
132.750000 -0.931362
132.800000 -0.986177
132.850000 -1.010158
132.900000 -1.044417
132.950000 -1.092379
133.000000 -1.130064
133.050000 -1.143767
133.100000 -1.157472
133.150000 -1.181453
133.200000 -1.205434
133.250000 -1.236266
133.300000 -1.291081
133.350000 -1.352747
133.400000 -1.404136
133.450000 -1.448672
133.500000 -1.489783
133.550000 -1.510338
133.600000 -1.506912
133.650000 -1.493208
133.700000 -1.452098
133.750000 -1.363025
133.800000 -1.263674
133.850000 -1.171174
133.900000 -1.058120
133.950000 -0.927936
134.000000 -0.814882
134.050000 -0.712105
134.100000 -0.612755
134.150000 -0.564793
134.200000 -0.557941
134.250000 -0.533960
134.300000 -0.523682
134.350000 -0.595626
134.400000 -0.681273
134.450000 -0.736086
134.500000 -0.808031
134.550000 -0.886826
134.600000 -0.938215
134.650000 -1.010158
134.700000 -1.130064
134.750000 -1.202008
134.800000 -1.212286
134.850000 -1.249970
134.900000 -1.321914
134.950000 -1.356173
135.000000 -1.352747
135.050000 -1.352747
135.100000 -1.349321
135.150000 -1.311636
135.200000 -1.232840
135.250000 -1.133490
135.300000 -1.020436
135.350000 -0.879975
135.400000 -0.732661
135.450000 -0.612754
135.500000 -0.523682
135.550000 -0.431182
135.600000 -0.362665
135.650000 -0.328406
135.700000 -0.328406
135.750000 -0.355813
135.800000 -0.414053
135.850000 -0.479145
135.900000 -0.547663
135.950000 -0.650439
136.000000 -0.773772
136.050000 -0.883400
136.100000 -0.993028
136.150000 -1.082102
136.200000 -1.147193
136.250000 -1.202008
136.300000 -1.263674
136.350000 -1.294507
136.400000 -1.294507
136.450000 -1.308211
136.500000 -1.349321
136.550000 -1.400709
136.600000 -1.458950
136.650000 -1.530894
136.700000 -1.599411
136.750000 -1.667929
136.800000 -1.722743
136.850000 -1.739872
136.900000 -1.736447
136.950000 -1.739872
137.000000 -1.715892
137.050000 -1.630244
137.100000 -1.496635
137.150000 -1.339044
137.200000 -1.150619
137.250000 -0.955343
137.300000 -0.808031
137.350000 -0.674421
137.400000 -0.533959
137.450000 -0.434608
137.500000 -0.400350
137.550000 -0.383220
137.600000 -0.366091
137.650000 -0.372942
137.700000 -0.424331
137.750000 -0.509978
137.800000 -0.616181
137.850000 -0.712106
137.900000 -0.787476
137.950000 -0.883400
138.000000 -0.962196
138.050000 -1.003306
138.100000 -1.037565
138.150000 -1.061547
138.200000 -1.037565
138.250000 -0.979325
138.300000 -0.934788
138.350000 -0.907381
138.400000 -0.866271
138.450000 -0.835437
138.500000 -0.828586
138.550000 -0.832012
138.600000 -0.832012
138.650000 -0.838864
138.700000 -0.866271
138.750000 -0.897104
138.800000 -0.910807
138.850000 -0.893678
138.900000 -0.862845
138.950000 -0.811456
139.000000 -0.749790
139.050000 -0.691550
139.100000 -0.623033
139.150000 -0.537385
139.200000 -0.462015
139.250000 -0.407201
139.300000 -0.376368
139.350000 -0.376368
139.400000 -0.400350
139.450000 -0.434609
139.500000 -0.492849
139.550000 -0.571644
139.600000 -0.650440
139.650000 -0.725810
139.700000 -0.811457
139.750000 -0.876548
139.800000 -0.886826
139.850000 -0.873122
139.900000 -0.821734
139.950000 -0.742938
140.000000 -0.664143
140.050000 -0.588774
140.100000 -0.523682
140.150000 -0.472294
140.200000 -0.441461
140.250000 -0.427757
140.300000 -0.455164
140.350000 -0.527107
140.400000 -0.588774
140.450000 -0.636736
140.500000 -0.715532
140.550000 -0.811457
140.600000 -0.873122
140.650000 -0.886826
140.700000 -0.893678
140.750000 -0.883400
140.800000 -0.855993
140.850000 -0.835437
140.900000 -0.825160
140.950000 -0.821734
141.000000 -0.842290
141.050000 -0.900530
141.100000 -0.982751
141.150000 -1.068399
141.200000 -1.143767
141.250000 -1.222563
141.300000 -1.294507
141.350000 -1.356173
141.400000 -1.383580
141.450000 -1.369876
141.500000 -1.342470
141.550000 -1.297933
141.600000 -1.225989
141.650000 -1.150619
141.700000 -1.106083
141.750000 -1.078676
141.800000 -1.075250
141.850000 -1.106083
141.900000 -1.157471
141.950000 -1.225989
142.000000 -1.318489
142.050000 -1.431542
142.100000 -1.517190
142.150000 -1.551449
142.200000 -1.537745
142.250000 -1.479505
142.300000 -1.407561
142.350000 -1.328766
142.400000 -1.236267
142.450000 -1.143768
142.500000 -1.058121
142.550000 -0.982751
142.600000 -0.955344
142.650000 -0.982751
142.700000 -1.017010
142.750000 -1.051269
142.800000 -1.106083
142.850000 -1.133490
142.900000 -1.109509
142.950000 -1.068398
143.000000 -0.993028
143.050000 -0.859419
143.100000 -0.732661
143.150000 -0.660717
143.200000 -0.581922
143.250000 -0.516830
143.300000 -0.533959
143.350000 -0.564792
143.400000 -0.578496
143.450000 -0.650440
143.500000 -0.749790
143.550000 -0.808031
143.600000 -0.838864
143.650000 -0.876549
143.700000 -0.886826
143.750000 -0.873122
143.800000 -0.862845
143.850000 -0.849141
143.900000 -0.828586
143.950000 -0.828585
144.000000 -0.845715
144.050000 -0.876548
144.100000 -0.927937
144.150000 -0.999880
144.200000 -1.071824
144.250000 -1.154046
144.300000 -1.243119
144.350000 -1.301359
144.400000 -1.345896
144.450000 -1.373302
144.500000 -1.366451
144.550000 -1.325340
144.600000 -1.263674
144.650000 -1.198583
144.700000 -1.116361
144.750000 -1.017010
144.800000 -0.910807
144.850000 -0.804604
144.900000 -0.698402
144.950000 -0.599051
145.000000 -0.544237
145.050000 -0.554514
145.100000 -0.612754
145.150000 -0.684698
145.200000 -0.770346
145.250000 -0.893678
145.300000 -1.054695
145.350000 -1.191730
145.400000 -1.267100
145.450000 -1.291081
145.500000 -1.301359
145.550000 -1.294507
145.600000 -1.253396
145.650000 -1.167749
145.700000 -1.071824
145.750000 -0.999880
145.800000 -0.955343
145.850000 -0.907381
145.900000 -0.855993
145.950000 -0.825160
146.000000 -0.835437
146.050000 -0.866271
146.100000 -0.910807
146.150000 -0.951918
146.200000 -0.982751
146.250000 -1.003306
146.300000 -0.989603
146.350000 -0.969047
146.400000 -0.955344
146.450000 -0.934788
146.500000 -0.897103
146.550000 -0.869696
146.600000 -0.845716
146.650000 -0.825160
146.700000 -0.845716
146.750000 -0.897104
146.800000 -0.938214
146.850000 -0.975899
146.900000 -1.040991
146.950000 -1.112935
147.000000 -1.198582
147.050000 -1.311637
147.100000 -1.404136
147.150000 -1.424691
147.200000 -1.397284
147.250000 -1.356173
147.300000 -1.280804
147.350000 -1.174601
147.400000 -1.044417
147.450000 -0.921084
147.500000 -0.821734
147.550000 -0.746364
147.600000 -0.667569
147.650000 -0.605903
147.700000 -0.612755
147.750000 -0.653866
147.800000 -0.701828
147.850000 -0.766920
147.900000 -0.832011
147.950000 -0.855993
148.000000 -0.849142
148.050000 -0.842290
148.100000 -0.808031
148.150000 -0.715532
148.200000 -0.626458
148.250000 -0.602477
148.300000 -0.612755
148.350000 -0.623032
148.400000 -0.643588
148.450000 -0.705254
148.500000 -0.818308
148.550000 -0.931362
148.600000 -1.027288
148.650000 -1.109509
148.700000 -1.188304
148.750000 -1.219137
148.800000 -1.160897
148.850000 -1.064972
148.900000 -0.986177
148.950000 -0.883400
149.000000 -0.725809
149.050000 -0.557940
149.100000 -0.438034
149.150000 -0.352387
149.200000 -0.294147
149.250000 -0.273592
149.300000 -0.287295
149.350000 -0.328406
149.400000 -0.400349
149.450000 -0.482571
149.500000 -0.578496
149.550000 -0.684698
149.600000 -0.790901
149.650000 -0.886826
149.700000 -0.969047
149.750000 -1.040991
149.800000 -1.109509
149.850000 -1.154045
149.900000 -1.160898
149.950000 -1.143768
150.000000 -1.116360
150.050000 -1.075250
150.100000 -1.027287
150.150000 -0.982751
150.200000 -0.934789
150.250000 -0.876548
150.300000 -0.828585
150.350000 -0.814882
150.400000 -0.828586
150.450000 -0.845716
150.500000 -0.873122
150.550000 -0.927937
150.600000 -0.975899
150.650000 -0.999881
150.700000 -1.044417
150.750000 -1.102657
150.800000 -1.126638
150.850000 -1.099231
150.900000 -1.054695
150.950000 -1.010158
151.000000 -0.965622
151.050000 -0.931362
151.100000 -0.903955
151.150000 -0.890252
151.200000 -0.910808
151.250000 -0.948492
151.300000 -0.993029
151.350000 -1.044417
151.400000 -1.099231
151.450000 -1.167749
151.500000 -1.253397
151.550000 -1.325340
151.600000 -1.363025
151.650000 -1.390432
151.700000 -1.431542
151.750000 -1.438394
151.800000 -1.410987
151.850000 -1.383580
151.900000 -1.349322
151.950000 -1.273952
152.000000 -1.181452
152.050000 -1.088954
152.100000 -0.999881
152.150000 -0.897104
152.200000 -0.797752
152.250000 -0.739513
152.300000 -0.729235
152.350000 -0.732661
152.400000 -0.736087
152.450000 -0.790901
152.500000 -0.914233
152.550000 -1.044417
152.600000 -1.160897
152.650000 -1.267100
152.700000 -1.390432
152.750000 -1.510338
152.800000 -1.599411
152.850000 -1.623393
152.900000 -1.575430
152.950000 -1.506912
153.000000 -1.438394
153.050000 -1.342469
153.100000 -1.202008
153.150000 -1.061546
153.200000 -0.962195
153.250000 -0.866270
153.300000 -0.770346
153.350000 -0.736087
153.400000 -0.766920
153.450000 -0.797753
153.500000 -0.835437
153.550000 -0.910808
153.600000 -0.982751
153.650000 -1.040991
153.700000 -1.102657
153.750000 -1.147194
153.800000 -1.154046
153.850000 -1.160897
153.900000 -1.178027
153.950000 -1.160897
154.000000 -1.116360
154.050000 -1.064972
154.100000 -1.020436
154.150000 -0.962195
154.200000 -0.886826
154.250000 -0.814882
154.300000 -0.760069
154.350000 -0.712106
154.400000 -0.660717
154.450000 -0.636736
154.500000 -0.674421
154.550000 -0.753216
154.600000 -0.859419
154.650000 -0.982751
154.700000 -1.088953
154.750000 -1.184879
154.800000 -1.311636
154.850000 -1.438395
154.900000 -1.517190
154.950000 -1.554874
155.000000 -1.575430
155.050000 -1.548023
155.100000 -1.465802
155.150000 -1.387006
155.200000 -1.315062
155.250000 -1.236267
155.300000 -1.181453
155.350000 -1.150619
155.400000 -1.106083
155.450000 -1.064972
155.500000 -1.044417
155.550000 -1.017010
155.600000 -0.969048
155.650000 -0.931362
155.700000 -0.903955
155.750000 -0.876548
155.800000 -0.883400
155.850000 -0.924511
155.900000 -0.969048
155.950000 -1.023861
156.000000 -1.102657
156.050000 -1.147194
156.100000 -1.167749
156.150000 -1.202007
156.200000 -1.222563
156.250000 -1.157472
156.300000 -1.040991
156.350000 -0.941640
156.400000 -0.842290
156.450000 -0.746365
156.500000 -0.694976
156.550000 -0.664143
156.600000 -0.650440
156.650000 -0.722383
156.700000 -0.869696
156.750000 -1.006732
156.800000 -1.123212
156.850000 -1.263674
156.900000 -1.387006
156.950000 -1.458949
157.000000 -1.489782
157.050000 -1.503486
157.100000 -1.493208
157.150000 -1.462375
157.200000 -1.393857
157.250000 -1.321914
157.300000 -1.280803
157.350000 -1.253396
157.400000 -1.225989
157.450000 -1.191730
157.500000 -1.174601
157.550000 -1.184879
157.600000 -1.219138
157.650000 -1.243119
157.700000 -1.232841
157.750000 -1.219138
157.800000 -1.219137
157.850000 -1.222563
157.900000 -1.215711
157.950000 -1.205434
158.000000 -1.215712
158.050000 -1.229415
158.100000 -1.239693
158.150000 -1.253396
158.200000 -1.253396
158.250000 -1.222564
158.300000 -1.184879
158.350000 -1.157472
158.400000 -1.106083
158.450000 -1.023861
158.500000 -0.945066
158.550000 -0.907381
158.600000 -0.873122
158.650000 -0.828586
158.700000 -0.794327
158.750000 -0.811457
158.800000 -0.859419
158.850000 -0.893678
158.900000 -0.907382
158.950000 -0.931362
159.000000 -0.934789
159.050000 -0.900529
159.100000 -0.869696
159.150000 -0.835437
159.200000 -0.732661
159.250000 -0.585348
159.300000 -0.458590
159.350000 -0.352387
159.400000 -0.239333
159.450000 -0.153685
159.500000 -0.129705
159.550000 -0.150260
159.600000 -0.222203
159.650000 -0.338684
159.700000 -0.482571
159.750000 -0.643588
159.800000 -0.808031
159.850000 -0.979325
159.900000 -1.174600
159.950000 -1.335618
160.000000 -1.421265
160.050000 -1.476079
160.100000 -1.527467
160.150000 -1.530893
160.200000 -1.479505
160.250000 -1.417839
160.300000 -1.356173
160.350000 -1.270526
160.400000 -1.167749
160.450000 -1.071824
160.500000 -0.982751
160.550000 -0.931363
160.600000 -0.921085
160.650000 -0.924510
160.700000 -0.955343
160.750000 -1.013584
160.800000 -1.085527
160.850000 -1.167749
160.900000 -1.249971
160.950000 -1.318488
161.000000 -1.366451
161.050000 -1.393858
161.100000 -1.376728
161.150000 -1.332191
161.200000 -1.284230
161.250000 -1.215712
161.300000 -1.116360
161.350000 -1.017010
161.400000 -0.955344
161.450000 -0.927936
161.500000 -0.931363
161.550000 -0.948492
161.600000 -0.986177
161.650000 -1.061547
161.700000 -1.150620
161.750000 -1.215711
161.800000 -1.239693
161.850000 -1.249970
161.900000 -1.243119
161.950000 -1.222563
162.000000 -1.202008
162.050000 -1.178026
162.100000 -1.154045
162.150000 -1.130065
162.200000 -1.109509
162.250000 -1.099231
162.300000 -1.116361
162.350000 -1.147194
162.400000 -1.157471
162.450000 -1.164323
162.500000 -1.202008
162.550000 -1.222563
162.600000 -1.191730
162.650000 -1.143768
162.700000 -1.123212
162.750000 -1.082101
162.800000 -1.013584
162.850000 -0.982751
162.900000 -0.979325
162.950000 -0.962196
163.000000 -0.958770
163.050000 -0.996455
163.100000 -1.030714
163.150000 -1.044417
163.200000 -1.064972
163.250000 -1.088953
163.300000 -1.112935
163.350000 -1.147194
163.400000 -1.181452
163.450000 -1.202008
163.500000 -1.215711
163.550000 -1.225989
163.600000 -1.236267
163.650000 -1.267100
163.700000 -1.291081
163.750000 -1.291081
163.800000 -1.297933
163.850000 -1.318488
163.900000 -1.335617
163.950000 -1.352747
164.000000 -1.366451
164.050000 -1.363024
164.100000 -1.369877
164.150000 -1.407561
164.200000 -1.458949
164.250000 -1.520616
164.300000 -1.613115
164.350000 -1.712465
164.400000 -1.787835
164.450000 -1.866631
164.500000 -1.945426
164.550000 -1.986536
164.600000 -1.993388
164.650000 -1.972833
164.700000 -1.887186
164.750000 -1.743299
164.800000 -1.602837
164.850000 -1.472653
164.900000 -1.332191
164.950000 -1.198582
165.000000 -1.088954
165.050000 -1.003306
165.100000 -0.938215
165.150000 -0.883400
165.200000 -0.821735
165.250000 -0.763494
165.300000 -0.718957
165.350000 -0.664143
165.400000 -0.612755
165.450000 -0.585348
165.500000 -0.554514
165.550000 -0.492849
165.600000 -0.431183
165.650000 -0.417479
165.700000 -0.444886
165.750000 -0.489423
165.800000 -0.557940
165.850000 -0.670995
165.900000 -0.808031
165.950000 -0.931363
166.000000 -1.034139
166.050000 -1.140342
166.100000 -1.232841
166.150000 -1.280803
166.200000 -1.294507
166.250000 -1.308210
166.300000 -1.291081
166.350000 -1.243119
166.400000 -1.181453
166.450000 -1.102657
166.500000 -0.999881
166.550000 -0.903955
166.600000 -0.838863
166.650000 -0.787475
166.700000 -0.729235
166.750000 -0.670995
166.800000 -0.633310
166.850000 -0.612754
166.900000 -0.592199
166.950000 -0.588774
167.000000 -0.616181
167.050000 -0.664144
167.100000 -0.705254
167.150000 -0.756642
167.200000 -0.832011
167.250000 -0.897104
167.300000 -0.921085
167.350000 -0.938214
167.400000 -0.938214
167.450000 -0.890252
167.500000 -0.852567
167.550000 -0.849141
167.600000 -0.845715
167.650000 -0.828586
167.700000 -0.862845
167.750000 -0.917659
167.800000 -0.958770
167.850000 -1.017010
167.900000 -1.109509
167.950000 -1.181452
168.000000 -1.219137
168.050000 -1.267100
168.100000 -1.294507
168.150000 -1.277378
168.200000 -1.249970
168.250000 -1.246544
168.300000 -1.236267
168.350000 -1.205434
168.400000 -1.191731
168.450000 -1.219138
168.500000 -1.291081
168.550000 -1.373303
168.600000 -1.441820
168.650000 -1.510338
168.700000 -1.592559
168.750000 -1.664503
168.800000 -1.698762
168.850000 -1.709040
168.900000 -1.702188
168.950000 -1.640522
169.000000 -1.537745
169.050000 -1.428117
169.100000 -1.321914
169.150000 -1.229415
169.200000 -1.167749
169.250000 -1.136916
169.300000 -1.126639
169.350000 -1.147193
169.400000 -1.195156
169.450000 -1.270525
169.500000 -1.369876
169.550000 -1.465801
169.600000 -1.506912
169.650000 -1.496635
169.700000 -1.458950
169.750000 -1.380155
169.800000 -1.260248
169.850000 -1.119786
169.900000 -0.996454
169.950000 -0.890251
170.000000 -0.808030
170.050000 -0.766920
170.100000 -0.777198
170.150000 -0.821735
170.200000 -0.879974
170.250000 -0.958770
170.300000 -1.068398
170.350000 -1.188305
170.400000 -1.291081
170.450000 -1.393858
170.500000 -1.482931
170.550000 -1.520616
170.600000 -1.548023
170.650000 -1.595985
170.700000 -1.637096
170.750000 -1.650799
170.800000 -1.671355
170.850000 -1.698762
170.900000 -1.681632
170.950000 -1.630244
171.000000 -1.565152
171.050000 -1.482931
171.100000 -1.393858
171.150000 -1.297932
171.200000 -1.167749
171.250000 -1.030713
171.300000 -0.924511
171.350000 -0.845716
171.400000 -0.766919
171.450000 -0.739513
171.500000 -0.777197
171.550000 -0.832012
171.600000 -0.900530
171.650000 -0.996454
171.700000 -1.092379
171.750000 -1.143768
171.800000 -1.188305
171.850000 -1.215712
171.900000 -1.181453
171.950000 -1.102657
172.000000 -1.044417
172.050000 -0.972474
172.100000 -0.890252
172.150000 -0.828586
172.200000 -0.784049
172.250000 -0.725809
172.300000 -0.681273
172.350000 -0.698402
172.400000 -0.729235
172.450000 -0.760068
172.500000 -0.835438
172.550000 -0.921085
172.600000 -0.986177
172.650000 -1.058121
172.700000 -1.140342
172.750000 -1.202008
172.800000 -1.236266
172.850000 -1.277378
172.900000 -1.325340
172.950000 -1.356172
173.000000 -1.366451
173.050000 -1.359599
173.100000 -1.345895
173.150000 -1.339044
173.200000 -1.321914
173.250000 -1.291081
173.300000 -1.253396
173.350000 -1.198582
173.400000 -1.123212
173.450000 -1.044417
173.500000 -0.965622
173.550000 -0.855993
173.600000 -0.708680
173.650000 -0.571644
173.700000 -0.462015
173.750000 -0.352387
173.800000 -0.256462
173.850000 -0.194796
173.900000 -0.181093
173.950000 -0.215351
174.000000 -0.287295
174.050000 -0.390072
174.100000 -0.520256
174.150000 -0.667569
174.200000 -0.828586
174.250000 -0.986177
174.300000 -1.112935
174.350000 -1.198582
174.400000 -1.253396
174.450000 -1.291081
174.500000 -1.291081
174.550000 -1.249970
174.600000 -1.205434
174.650000 -1.171175
174.700000 -1.133491
174.750000 -1.116360
174.800000 -1.140342
174.850000 -1.184878
174.900000 -1.236267
174.950000 -1.294507
175.000000 -1.366450
175.050000 -1.421265
175.100000 -1.428117
175.150000 -1.387006
175.200000 -1.308211
175.250000 -1.215711
175.300000 -1.106083
175.350000 -0.958769
175.400000 -0.818308
175.450000 -0.725809
175.500000 -0.664143
175.550000 -0.623033
175.600000 -0.636736
175.650000 -0.739513
175.700000 -0.876548
175.750000 -1.010158
175.800000 -1.140342
175.850000 -1.263674
175.900000 -1.339043
175.950000 -1.359599
176.000000 -1.335617
176.050000 -1.287655
176.100000 -1.222563
176.150000 -1.136916
176.200000 -1.058121
176.250000 -0.996454
176.300000 -0.965622
176.350000 -0.965621
176.400000 -0.972473
176.450000 -0.986177
176.500000 -1.030714
176.550000 -1.109509
176.600000 -1.160898
176.650000 -1.167749
176.700000 -1.167749
176.750000 -1.164323
176.800000 -1.123213
176.850000 -1.040991
176.900000 -0.962196
176.950000 -0.900529
177.000000 -0.845716
177.050000 -0.797753
177.100000 -0.763494
177.150000 -0.756643
177.200000 -0.787475
177.250000 -0.855993
177.300000 -0.927936
177.350000 -0.975899
177.400000 -1.013584
177.450000 -1.051269
177.500000 -1.082101
177.550000 -1.099232
177.600000 -1.088954
177.650000 -1.064972
177.700000 -1.044417
177.750000 -1.030714
177.800000 -1.003307
177.850000 -0.941640
177.900000 -0.886826
177.950000 -0.866271
178.000000 -0.873122
178.050000 -0.883400
178.100000 -0.897104
178.150000 -0.924511
178.200000 -0.975899
178.250000 -1.051268
178.300000 -1.136916
178.350000 -1.212286
178.400000 -1.263674
178.450000 -1.304785
178.500000 -1.335618
178.550000 -1.342469
178.600000 -1.318488
178.650000 -1.267100
178.700000 -1.212285
178.750000 -1.147194
178.800000 -1.051269
178.850000 -0.948492
178.900000 -0.879975
178.950000 -0.852567
179.000000 -0.842290
179.050000 -0.828585
179.100000 -0.849141
179.150000 -0.910807
179.200000 -0.986177
179.250000 -1.027288
179.300000 -1.027288
179.350000 -1.037565
179.400000 -1.051268
179.450000 -1.023861
179.500000 -0.969047
179.550000 -0.931363
179.600000 -0.900529
179.650000 -0.876549
179.700000 -0.900529
179.750000 -0.938215
179.800000 -0.975899
179.850000 -1.051269
179.900000 -1.167749
179.950000 -1.243118
180.000000 -1.270526
180.050000 -1.301359
180.100000 -1.335617
180.150000 -1.325340
180.200000 -1.304784
180.250000 -1.284229
180.300000 -1.239693
180.350000 -1.212286
180.400000 -1.239692
180.450000 -1.270525
180.500000 -1.284229
180.550000 -1.345895
180.600000 -1.452098
180.650000 -1.513764
180.700000 -1.527467
180.750000 -1.530894
180.800000 -1.520615
180.850000 -1.486357
180.900000 -1.448672
180.950000 -1.404136
181.000000 -1.363025
181.050000 -1.335618
181.100000 -1.304785
181.150000 -1.256822
181.200000 -1.215711
181.250000 -1.181452
181.300000 -1.136916
181.350000 -1.082102
181.400000 -1.020436
181.450000 -0.938214
181.500000 -0.845715
181.550000 -0.787475
181.600000 -0.770346
181.650000 -0.784049
181.700000 -0.842290
181.750000 -0.927937
181.800000 -1.006732
181.850000 -1.109509
181.900000 -1.246544
181.950000 -1.356173
182.000000 -1.417839
182.050000 -1.462375
182.100000 -1.472654
182.150000 -1.438394
182.200000 -1.400710
182.250000 -1.387006
182.300000 -1.366450
182.350000 -1.339043
182.400000 -1.315062
182.450000 -1.308210
182.500000 -1.301359
182.550000 -1.263674
182.600000 -1.181452
182.650000 -1.068398
182.700000 -0.951918
182.750000 -0.828586
182.800000 -0.681273
182.850000 -0.523681
182.900000 -0.390072
182.950000 -0.307851
183.000000 -0.273591
183.050000 -0.273592
183.100000 -0.311277
183.150000 -0.396924
183.200000 -0.547663
183.250000 -0.732661
183.300000 -0.914234
183.350000 -1.071824
183.400000 -1.208860
183.450000 -1.335617
183.500000 -1.414414
183.550000 -1.414413
183.600000 -1.373303
183.650000 -1.311636
183.700000 -1.212286
183.750000 -1.064972
183.800000 -0.927936
183.850000 -0.821734
183.900000 -0.739513
183.950000 -0.688125
184.000000 -0.677846
184.050000 -0.725809
184.100000 -0.835438
184.150000 -1.010158
184.200000 -1.202008
184.250000 -1.380155
184.300000 -1.541171
184.350000 -1.647374
184.400000 -1.678207
184.450000 -1.664503
184.500000 -1.616541
184.550000 -1.510338
184.600000 -1.363025
184.650000 -1.222564
184.700000 -1.078676
184.750000 -0.924511
184.800000 -0.804605
184.850000 -0.729235
184.900000 -0.670994
184.950000 -0.643588
185.000000 -0.657292
185.050000 -0.708680
185.100000 -0.773771
185.150000 -0.859419
185.200000 -0.972473
185.250000 -1.095805
185.300000 -1.215711
185.350000 -1.332191
185.400000 -1.455524
185.450000 -1.568578
185.500000 -1.650799
185.550000 -1.698762
185.600000 -1.695336
185.650000 -1.630244
185.700000 -1.527468
185.750000 -1.410987
185.800000 -1.277377
185.850000 -1.147193
185.900000 -1.071824
185.950000 -1.023862
186.000000 -0.972473
186.050000 -0.951918
186.100000 -0.999880
186.150000 -1.071824
186.200000 -1.116360
186.250000 -1.140342
186.300000 -1.174601
186.350000 -1.212285
186.400000 -1.219137
186.450000 -1.184878
186.500000 -1.112935
186.550000 -1.044417
186.600000 -0.972473
186.650000 -0.893678
186.700000 -0.814882
186.750000 -0.777198
186.800000 -0.773772
186.850000 -0.780624
186.900000 -0.780624
186.950000 -0.808030
187.000000 -0.869697
187.050000 -0.941640
187.100000 -0.993029
187.150000 -1.030714
187.200000 -1.078676
187.250000 -1.140342
187.300000 -1.181452
187.350000 -1.178026
187.400000 -1.150619
187.450000 -1.133490
187.500000 -1.092380
187.550000 -1.003306
187.600000 -0.921085
187.650000 -0.859418
187.700000 -0.770345
187.750000 -0.643588
187.800000 -0.537386
187.850000 -0.458590
187.900000 -0.383220
187.950000 -0.318128
188.000000 -0.256463
188.050000 -0.187945
188.100000 -0.116001
188.150000 -0.054335
188.200000 -0.009798
188.250000 0.010757
188.300000 -0.006372
188.350000 -0.050909
188.400000 -0.119426
188.450000 -0.225630
188.500000 -0.390072
188.550000 -0.578496
188.600000 -0.773772
188.650000 -0.955344
188.700000 -1.102657
188.750000 -1.205434
188.800000 -1.284229
