time[ns] Raw_signal[mV]
-11.250000 -0.425085
-11.200000 -0.308604
-11.150000 -0.188698
-11.100000 -0.058515
-11.050000 0.023707
-11.000000 0.040837
-10.950000 0.057966
-10.900000 0.078521
-10.850000 0.081946
-10.800000 0.081947
-10.750000 0.102502
-10.700000 0.150464
-10.650000 0.222408
-10.600000 0.308056
-10.550000 0.369722
-10.500000 0.414258
-10.450000 0.458795
-10.400000 0.475924
-10.350000 0.448517
-10.300000 0.366296
-10.250000 0.249815
-10.200000 0.129910
-10.150000 -0.003700
-10.100000 -0.174995
-10.050000 -0.346290
-10.000000 -0.476473
-9.950000 -0.575824
-9.900000 -0.651193
-9.850000 -0.692305
-9.800000 -0.685452
-9.750000 -0.640916
-9.700000 -0.568972
-9.650000 -0.483325
-9.600000 -0.401103
-9.550000 -0.329160
-9.500000 -0.250364
-9.450000 -0.157865
-9.400000 -0.079070
-9.350000 -0.024256
-9.300000 0.030558
-9.250000 0.095650
-9.200000 0.177872
-9.150000 0.253241
-9.100000 0.311482
-9.050000 0.369721
-9.000000 0.434814
-8.950000 0.482776
-8.900000 0.479350
-8.850000 0.445092
-8.800000 0.380000
-8.750000 0.266945
-8.700000 0.153891
-8.650000 0.037411
-8.600000 -0.106477
-8.550000 -0.222957
-8.500000 -0.270920
-8.450000 -0.301753
-8.400000 -0.322309
-8.350000 -0.270920
-8.300000 -0.181847
-8.250000 -0.116755
-8.200000 -0.037960
-8.150000 0.085373
-8.100000 0.181297
-8.050000 0.239538
-8.000000 0.308056
-7.950000 0.362869
-7.900000 0.369722
-7.850000 0.345741
-7.800000 0.311482
-7.750000 0.280649
-7.700000 0.273797
-7.650000 0.287500
-7.600000 0.297778
-7.550000 0.311481
-7.500000 0.335463
-7.450000 0.345740
-7.400000 0.342315
-7.350000 0.342315
-7.300000 0.318333
-7.250000 0.270371
-7.200000 0.236112
-7.150000 0.195001
-7.100000 0.126483
-7.050000 0.044262
-7.000000 -0.020830
-6.950000 -0.068793
-6.900000 -0.106477
-6.850000 -0.151013
-6.800000 -0.192125
-6.750000 -0.198976
-6.700000 -0.192124
-6.650000 -0.209253
-6.600000 -0.229809
-6.550000 -0.226384
-6.500000 -0.216105
-6.450000 -0.216105
-6.400000 -0.222958
-6.350000 -0.205828
-6.300000 -0.147588
-6.250000 -0.065367
-6.200000 0.013429
-6.150000 0.085373
-6.100000 0.164169
-6.050000 0.242964
-6.000000 0.328611
-5.950000 0.421110
-5.900000 0.486202
-5.850000 0.506757
-5.800000 0.523886
-5.750000 0.527313
-5.700000 0.499906
-5.650000 0.462220
-5.600000 0.431388
-5.550000 0.397128
-5.500000 0.332037
-5.450000 0.270371
-5.400000 0.232686
-5.350000 0.174446
-5.300000 0.105928
-5.250000 0.071669
-5.200000 0.037410
-5.150000 -0.007126
-5.100000 -0.013978
-5.050000 0.044262
-5.000000 0.119631
-4.950000 0.198427
-4.900000 0.287500
-4.850000 0.362870
-4.800000 0.451943
-4.750000 0.537590
-4.700000 0.568424
-4.650000 0.534164
-4.600000 0.486202
-4.550000 0.414258
-4.500000 0.297778
-4.450000 0.184724
-4.400000 0.078521
-4.350000 -0.044811
-4.300000 -0.161291
-4.250000 -0.226383
-4.200000 -0.250364
-4.150000 -0.246939
-4.100000 -0.205828
-4.050000 -0.147587
-4.000000 -0.055089
-3.950000 0.068243
-3.900000 0.174446
-3.850000 0.263519
-3.800000 0.390277
-3.750000 0.534164
-3.700000 0.630089
-3.650000 0.702033
-3.600000 0.784255
-3.550000 0.818513
-3.500000 0.808235
-3.450000 0.797958
-3.400000 0.712311
-3.350000 0.513609
-3.300000 0.386851
-3.250000 0.379999
-3.200000 0.284074
-3.150000 0.081947
-3.100000 0.003152
-3.050000 0.013429
-3.000000 -0.075644
-2.950000 -0.174995
-2.900000 -0.205828
-2.850000 -0.298327
-2.800000 -0.373696
-2.750000 -0.246939
-2.700000 -0.178421
-2.650000 -0.373696
-2.600000 -0.486751
-2.550000 -0.397678
-2.500000 -0.486751
-2.450000 -0.692305
-2.400000 -0.620361
-2.350000 -0.476474
-2.300000 -0.558695
-2.250000 -0.521010
-2.200000 -0.205827
-2.150000 -0.037959
-2.100000 -0.127033
-2.050000 -0.120180
-2.000000 0.013429
-1.950000 0.129909
-1.900000 0.222408
-1.850000 0.195001
-1.800000 0.003151
-1.750000 -0.109902
-1.700000 -0.113329
-1.650000 -0.281198
-1.600000 -0.493603
-1.550000 -0.431937
-1.500000 -0.281197
-1.450000 -0.298327
-1.400000 -0.288049
-1.350000 -0.174995
-1.300000 -0.127033
-1.250000 0.003151
-1.200000 0.297778
-1.150000 0.362870
-1.100000 0.143613
-1.050000 0.119632
-1.000000 0.284074
-0.950000 0.246389
-0.900000 0.116205
-0.850000 0.143613
-0.800000 0.116206
-0.750000 -0.068792
-0.700000 -0.178421
-0.650000 -0.185272
-0.600000 -0.260642
-0.550000 -0.353141
-0.500000 -0.329160
-0.450000 -0.246938
-0.400000 -0.212679
-0.350000 -0.192124
-0.300000 -0.147588
-0.250000 -0.082496
-0.200000 -0.048236
-0.150000 -0.044811
-0.100000 -0.007126
-0.050000 0.061391
0.000000 0.023707
0.050000 -0.085921
0.100000 -0.065366
0.150000 0.037410
0.200000 -0.024256
0.250000 -0.188698
0.300000 -0.171569
0.350000 -0.000274
0.400000 0.081947
0.450000 0.099076
0.500000 0.184724
0.550000 0.273797
0.600000 0.273797
0.650000 0.290926
0.700000 0.427962
0.750000 0.636941
0.800000 0.887031
0.850000 1.257027
0.900000 1.815448
0.950000 2.569143
1.000000 3.600336
1.050000 5.015228
1.100000 6.769285
1.150000 8.824817
1.200000 11.250347
1.250000 14.042446
1.300000 16.992143
1.350000 20.010345
1.400000 23.169023
1.450000 26.440741
1.500000 29.637106
1.550000 32.686144
1.600000 35.632411
1.650000 38.417665
1.700000 40.894575
1.750000 43.070015
1.800000 45.033045
1.850000 46.742575
1.900000 48.078665
1.950000 49.031065
2.000000 49.675125
2.050000 50.017725
2.100000 49.980035
2.150000 49.514115
2.200000 48.664495
2.250000 47.530525
2.300000 46.139615
2.350000 44.464355
2.400000 42.532145
2.450000 40.421795
2.500000 38.147015
2.550000 35.697505
2.600000 33.169195
2.650000 30.658015
2.700000 28.119435
2.750000 25.556863
2.800000 23.182721
2.850000 21.079224
2.900000 19.153877
2.950000 17.458062
3.000000 16.149371
3.050000 15.183271
3.100000 14.480963
3.150000 14.152076
3.200000 14.203463
3.250000 14.443275
3.300000 14.816702
3.350000 15.395677
3.400000 16.125394
3.450000 16.844825
3.500000 17.512873
3.550000 18.156946
3.600000 18.749623
3.650000 19.246376
3.700000 19.647204
3.750000 19.955538
3.800000 20.137105
3.850000 20.195348
3.900000 20.154237
3.950000 19.986368
4.000000 19.681469
4.050000 19.253226
4.100000 18.718789
4.150000 18.071292
4.200000 17.290192
4.250000 16.375480
4.300000 15.388824
4.350000 14.395316
4.400000 13.364122
4.450000 12.284967
4.500000 11.240071
4.550000 10.270544
4.600000 9.355832
4.650000 8.523340
4.700000 7.821032
4.750000 7.235206
4.800000 6.776137
4.850000 6.440399
4.900000 6.169754
4.950000 5.974478
5.000000 5.905960
5.050000 5.929941
5.100000 6.008737
5.150000 6.149198
5.200000 6.347900
5.250000 6.574009
5.300000 6.803543
5.350000 7.067336
5.400000 7.365389
5.450000 7.683997
5.500000 8.006031
5.550000 8.314361
5.600000 8.574729
5.650000 8.766578
5.700000 8.872781
5.750000 8.896763
5.800000 8.848800
5.850000 8.708339
5.900000 8.447970
5.950000 8.088253
6.000000 7.660016
6.050000 7.187243
6.100000 6.669934
6.150000 6.118366
6.200000 5.577075
6.250000 5.094025
6.300000 4.686343
6.350000 4.323199
6.400000 4.011443
6.450000 3.754501
6.500000 3.531818
6.550000 3.336542
6.600000 3.172100
6.650000 3.024786
6.700000 2.894603
6.750000 2.757567
6.800000 2.599976
6.850000 2.438960
6.900000 2.305350
6.950000 2.199147
7.000000 2.147759
7.050000 2.202573
7.100000 2.339609
7.150000 2.490348
7.200000 2.685623
7.250000 2.956269
7.300000 3.237191
7.350000 3.490708
7.400000 3.720242
7.450000 3.901814
7.500000 3.997739
7.550000 4.004591
7.600000 3.936073
7.650000 3.785334
7.700000 3.542096
7.750000 3.254321
7.800000 2.973398
7.850000 2.702753
7.900000 2.428682
7.950000 2.151185
8.000000 1.921650
8.050000 1.753781
8.100000 1.616746
8.150000 1.507117
8.200000 1.421470
8.250000 1.356378
8.300000 1.298138
8.350000 1.236472
8.400000 1.178231
8.450000 1.113140
8.500000 1.030919
8.550000 0.952123
8.600000 0.890457
8.650000 0.842494
8.700000 0.791106
8.750000 0.756848
8.800000 0.739718
8.850000 0.732866
8.900000 0.722589
8.950000 0.746570
9.000000 0.794532
9.050000 0.852773
9.100000 0.907587
9.150000 0.979530
9.200000 1.075455
9.250000 1.167954
9.300000 1.226195
9.350000 1.287860
9.400000 1.390637
9.450000 1.493413
9.500000 1.544802
9.550000 1.575635
9.600000 1.609894
9.650000 1.603042
9.700000 1.555080
9.750000 1.493414
9.800000 1.404340
9.850000 1.263879
9.900000 1.119992
9.950000 0.993234
10.000000 0.849346
10.050000 0.719162
10.100000 0.619811
10.150000 0.551294
10.200000 0.506757
10.250000 0.486202
10.300000 0.472498
10.350000 0.458794
10.400000 0.462221
10.450000 0.465647
10.500000 0.427962
10.550000 0.345740
10.600000 0.249815
10.650000 0.153890
10.700000 0.057966
10.750000 -0.031108
10.800000 -0.106477
10.850000 -0.174995
10.900000 -0.229809
10.950000 -0.229810
11.000000 -0.178420
11.050000 -0.106477
11.100000 -0.007127
11.150000 0.119631
11.200000 0.246390
11.250000 0.345740
11.300000 0.441665
11.350000 0.530739
11.400000 0.578701
11.450000 0.575275
11.500000 0.554720
11.550000 0.561572
11.600000 0.564998
11.650000 0.564997
11.700000 0.602682
11.750000 0.657496
11.800000 0.688329
11.850000 0.722588
11.900000 0.784255
11.950000 0.811661
12.000000 0.760273
12.050000 0.698607
12.100000 0.606108
12.150000 0.448517
12.200000 0.260093
12.250000 0.071669
12.300000 -0.133884
12.350000 -0.339438
12.400000 -0.500455
12.450000 -0.623787
12.500000 -0.723138
12.550000 -0.784804
12.600000 -0.819062
12.650000 -0.832766
12.700000 -0.781378
12.750000 -0.716285
12.800000 -0.702582
12.850000 -0.688878
12.900000 -0.599805
12.950000 -0.497029
13.000000 -0.425084
13.050000 -0.342864
13.100000 -0.274345
13.150000 -0.246939
13.200000 -0.202402
13.250000 -0.137310
13.300000 -0.113329
13.350000 -0.099626
13.400000 -0.079070
13.450000 -0.130458
13.500000 -0.212680
13.550000 -0.233235
13.600000 -0.229809
13.650000 -0.267494
13.700000 -0.274345
13.750000 -0.246939
13.800000 -0.250364
13.850000 -0.274346
13.900000 -0.288049
13.950000 -0.332586
14.000000 -0.418233
14.050000 -0.503881
14.100000 -0.572398
14.150000 -0.640916
14.200000 -0.695730
14.250000 -0.747119
14.300000 -0.808785
14.350000 -0.839617
14.400000 -0.815636
14.450000 -0.781378
14.500000 -0.760822
14.550000 -0.740267
14.600000 -0.723138
14.650000 -0.712860
14.700000 -0.723137
14.750000 -0.743693
14.800000 -0.753971
14.850000 -0.736841
14.900000 -0.712860
14.950000 -0.671749
15.000000 -0.558695
15.050000 -0.421659
15.100000 -0.315456
15.150000 -0.192124
15.200000 -0.024256
15.250000 0.119631
15.300000 0.184723
15.350000 0.208705
15.400000 0.184724
15.450000 0.099076
15.500000 -0.034534
15.550000 -0.185273
15.600000 -0.349715
15.650000 -0.531287
15.700000 -0.719711
15.750000 -0.873877
15.800000 -0.962950
15.850000 -1.021190
15.900000 -1.089708
15.950000 -1.130819
16.000000 -1.089708
16.050000 -1.010912
16.100000 -0.966376
16.150000 -0.942395
16.200000 -0.914987
16.250000 -0.921839
16.300000 -0.959524
16.350000 -0.980079
16.400000 -0.990357
16.450000 -1.010912
16.500000 -1.024616
16.550000 -1.004060
16.600000 -0.959524
16.650000 -0.880728
16.700000 -0.784803
16.750000 -0.695730
16.800000 -0.579250
16.850000 -0.449066
16.900000 -0.349715
16.950000 -0.301752
17.000000 -0.270919
17.050000 -0.267494
17.100000 -0.322309
17.150000 -0.425085
17.200000 -0.541565
17.250000 -0.671749
17.300000 -0.815636
17.350000 -0.952672
17.400000 -1.065726
17.450000 -1.151374
17.500000 -1.206188
17.550000 -1.219891
17.600000 -1.209613
17.650000 -1.209613
17.700000 -1.202762
17.750000 -1.171929
17.800000 -1.137670
17.850000 -1.099985
17.900000 -1.045171
17.950000 -0.983505
18.000000 -0.935543
18.050000 -0.897858
18.100000 -0.860173
18.150000 -0.825914
18.200000 -0.774525
18.250000 -0.695730
18.300000 -0.603231
18.350000 -0.534714
18.400000 -0.476473
18.450000 -0.394251
18.500000 -0.301753
18.550000 -0.222957
18.600000 -0.133884
18.650000 -0.037959
18.700000 0.030558
18.750000 0.057966
18.800000 0.061392
18.850000 0.030558
18.900000 -0.024256
18.950000 -0.099625
19.000000 -0.216106
19.050000 -0.370270
19.100000 -0.521010
19.150000 -0.668323
19.200000 -0.812211
19.250000 -0.901284
19.300000 -0.949246
19.350000 -0.976654
19.400000 -0.973228
19.450000 -0.911561
19.500000 -0.822489
19.550000 -0.716286
19.600000 -0.599805
19.650000 -0.503881
19.700000 -0.455918
19.750000 -0.442214
19.800000 -0.438788
19.850000 -0.452492
19.900000 -0.490177
19.950000 -0.534713
20.000000 -0.592953
20.050000 -0.613509
20.100000 -0.599805
20.150000 -0.586102
20.200000 -0.572398
20.250000 -0.507306
20.300000 -0.435362
20.350000 -0.397678
20.400000 -0.349716
20.450000 -0.294901
20.500000 -0.284624
20.550000 -0.291475
20.600000 -0.267494
20.650000 -0.236661
20.700000 -0.229809
20.750000 -0.205827
20.800000 -0.140736
20.850000 -0.068792
20.900000 -0.010552
20.950000 0.027133
21.000000 0.030559
21.050000 0.006577
21.100000 -0.034534
21.150000 -0.109903
21.200000 -0.243513
21.250000 -0.414807
21.300000 -0.596380
21.350000 -0.795081
21.400000 -0.980079
21.450000 -1.123966
21.500000 -1.226743
21.550000 -1.288409
21.600000 -1.284983
21.650000 -1.243873
21.700000 -1.171929
21.750000 -1.041745
21.800000 -0.884154
21.850000 -0.723137
21.900000 -0.562120
21.950000 -0.414807
22.000000 -0.288049
22.050000 -0.181846
22.100000 -0.123606
22.150000 -0.123606
22.200000 -0.154439
22.250000 -0.226383
22.300000 -0.356567
22.350000 -0.490177
22.400000 -0.582676
22.450000 -0.678601
22.500000 -0.784803
22.550000 -0.822488
22.600000 -0.825914
22.650000 -0.829340
22.700000 -0.795080
22.750000 -0.716286
22.800000 -0.668323
22.850000 -0.647768
22.900000 -0.627212
22.950000 -0.647767
23.000000 -0.740267
23.050000 -0.853321
23.100000 -0.993783
23.150000 -1.151373
23.200000 -1.267853
23.250000 -1.336371
23.300000 -1.422019
23.350000 -1.483685
23.400000 -1.469981
23.450000 -1.425445
23.500000 -1.367204
23.550000 -1.278132
23.600000 -1.185632
23.650000 -1.096559
23.700000 -1.010912
23.750000 -0.928691
23.800000 -0.877302
23.850000 -0.849895
23.900000 -0.846469
23.950000 -0.863598
24.000000 -0.849896
24.050000 -0.819062
24.100000 -0.815636
24.150000 -0.843043
24.200000 -0.849895
24.250000 -0.836192
24.300000 -0.822488
24.350000 -0.808785
24.400000 -0.771100
24.450000 -0.712860
24.500000 -0.664897
24.550000 -0.634065
24.600000 -0.613509
24.650000 -0.589527
24.700000 -0.572398
24.750000 -0.572398
24.800000 -0.575824
24.850000 -0.592954
24.900000 -0.658045
24.950000 -0.767674
25.000000 -0.867025
25.050000 -0.956098
25.100000 -1.052023
25.150000 -1.141096
25.200000 -1.202762
25.250000 -1.261002
25.300000 -1.319242
25.350000 -1.363779
25.400000 -1.398038
25.450000 -1.428871
25.500000 -1.435722
25.550000 -1.425445
25.600000 -1.422018
25.650000 -1.404890
25.700000 -1.370630
25.750000 -1.350075
25.800000 -1.326094
25.850000 -1.261002
25.900000 -1.195910
25.950000 -1.168503
26.000000 -1.137670
26.050000 -1.062301
26.100000 -0.990357
26.150000 -0.976653
26.200000 -0.980079
26.250000 -0.966376
26.300000 -0.962949
26.350000 -0.973228
26.400000 -0.956098
26.450000 -0.921839
26.500000 -0.918413
26.550000 -0.932117
26.600000 -0.908135
26.650000 -0.877303
26.700000 -0.856747
26.750000 -0.836192
26.800000 -0.801932
26.850000 -0.784803
26.900000 -0.801933
26.950000 -0.832765
27.000000 -0.880728
27.050000 -0.959524
27.100000 -1.034893
27.150000 -1.096559
27.200000 -1.154800
27.250000 -1.213040
27.300000 -1.233595
27.350000 -1.230169
27.400000 -1.206188
27.450000 -1.158225
27.500000 -1.103411
27.550000 -1.072578
27.600000 -1.017764
27.650000 -0.904710
27.700000 -0.825914
27.750000 -0.825914
27.800000 -0.849895
27.850000 -0.860173
27.900000 -0.877303
27.950000 -0.911561
28.000000 -0.925265
28.050000 -0.921839
28.100000 -0.932117
28.150000 -0.959523
28.200000 -0.990357
28.250000 -1.028042
28.300000 -1.093134
28.350000 -1.192484
28.400000 -1.298687
28.450000 -1.415167
28.500000 -1.562481
28.550000 -1.702942
28.600000 -1.798866
28.650000 -1.894792
28.700000 -2.004420
28.750000 -2.059235
28.800000 -2.024976
28.850000 -1.949606
28.900000 -1.853681
28.950000 -1.723497
29.000000 -1.576184
29.050000 -1.428871
29.100000 -1.267854
29.150000 -1.110263
29.200000 -0.980079
29.250000 -0.863599
29.300000 -0.750544
29.350000 -0.664897
29.400000 -0.610083
29.450000 -0.592953
29.500000 -0.620361
29.550000 -0.671749
29.600000 -0.729989
29.650000 -0.808784
29.700000 -0.914987
29.750000 -1.045171
29.800000 -1.175355
29.850000 -1.274706
29.900000 -1.367205
29.950000 -1.469981
30.000000 -1.548776
30.050000 -1.576184
30.100000 -1.572758
30.150000 -1.552203
30.200000 -1.500814
30.250000 -1.415168
30.300000 -1.308965
30.350000 -1.192485
30.400000 -1.082856
30.450000 -0.986931
30.500000 -0.904710
30.550000 -0.846469
30.600000 -0.808785
30.650000 -0.774526
30.700000 -0.753970
30.750000 -0.757396
30.800000 -0.788229
30.850000 -0.812210
30.900000 -0.839618
30.950000 -0.904710
31.000000 -0.993782
31.050000 -1.045171
31.100000 -1.076004
31.150000 -1.130818
31.200000 -1.182206
31.250000 -1.209614
31.300000 -1.223317
31.350000 -1.182207
31.400000 -1.099985
31.450000 -1.052023
31.500000 -1.014338
31.550000 -0.914987
31.600000 -0.822488
31.650000 -0.781377
31.700000 -0.740266
31.750000 -0.688878
31.800000 -0.702582
31.850000 -0.740266
31.900000 -0.774526
31.950000 -0.839618
32.000000 -0.932116
32.050000 -0.997209
32.100000 -1.034893
32.150000 -1.065726
32.200000 -1.072578
32.250000 -1.072578
32.300000 -1.099985
32.350000 -1.134244
32.400000 -1.154799
32.450000 -1.178781
32.500000 -1.213040
32.550000 -1.267854
32.600000 -1.332946
32.650000 -1.374056
32.700000 -1.384334
32.750000 -1.418592
32.800000 -1.449426
32.850000 -1.425445
32.900000 -1.387760
32.950000 -1.367204
33.000000 -1.305539
33.050000 -1.199336
33.100000 -1.141096
33.150000 -1.117115
33.200000 -1.079430
33.250000 -1.041745
33.300000 -1.038319
33.350000 -1.041745
33.400000 -1.038319
33.450000 -1.031468
33.500000 -1.034894
33.550000 -1.052022
33.600000 -1.065726
33.650000 -1.048597
33.700000 -1.017764
33.750000 -1.017764
33.800000 -1.034893
33.850000 -1.052023
33.900000 -1.093134
33.950000 -1.158225
34.000000 -1.213039
34.050000 -1.226743
34.100000 -1.226743
34.150000 -1.216466
34.200000 -1.168503
34.250000 -1.113689
34.300000 -1.058874
34.350000 -0.986931
34.400000 -0.891006
34.450000 -0.819062
34.500000 -0.764248
34.550000 -0.726563
34.600000 -0.706008
34.650000 -0.729989
34.700000 -0.812211
34.750000 -0.911561
34.800000 -0.990357
34.850000 -1.065727
34.900000 -1.141096
34.950000 -1.158226
35.000000 -1.147948
35.050000 -1.147947
35.100000 -1.130818
35.150000 -1.086282
35.200000 -1.045170
35.250000 -1.010912
35.300000 -0.966375
35.350000 -0.935542
35.400000 -0.932117
35.450000 -0.956098
35.500000 -1.024616
35.550000 -1.127392
35.600000 -1.230169
35.650000 -1.332945
35.700000 -1.435723
35.750000 -1.521370
35.800000 -1.576184
35.850000 -1.624147
35.900000 -1.644701
35.950000 -1.610442
36.000000 -1.559055
36.050000 -1.500814
36.100000 -1.432296
36.150000 -1.363779
36.200000 -1.329520
36.250000 -1.322668
36.300000 -1.329520
36.350000 -1.356927
36.400000 -1.394612
36.450000 -1.456278
36.500000 -1.548777
36.550000 -1.641276
36.600000 -1.702942
36.650000 -1.740627
36.700000 -1.757757
36.750000 -1.726923
36.800000 -1.648128
36.850000 -1.528221
36.900000 -1.391186
36.950000 -1.250724
37.000000 -1.120541
37.050000 -0.997208
37.100000 -0.904709
37.150000 -0.870450
37.200000 -0.867024
37.250000 -0.901283
37.300000 -0.986931
37.350000 -1.099985
37.400000 -1.185632
37.450000 -1.250725
37.500000 -1.322668
37.550000 -1.356927
37.600000 -1.346649
37.650000 -1.308965
37.700000 -1.291835
37.750000 -1.257576
37.800000 -1.192484
37.850000 -1.134244
37.900000 -1.123966
37.950000 -1.127392
38.000000 -1.099985
38.050000 -1.062300
38.100000 -1.055449
38.150000 -1.055449
38.200000 -1.010912
38.250000 -0.945820
38.300000 -0.911561
38.350000 -0.904710
38.400000 -0.884154
38.450000 -0.856747
38.500000 -0.849895
38.550000 -0.870451
38.600000 -0.911561
38.650000 -0.959524
38.700000 -1.014338
38.750000 -1.086282
38.800000 -1.171929
38.850000 -1.254150
38.900000 -1.346649
38.950000 -1.446000
39.000000 -1.500815
39.050000 -1.507666
39.100000 -1.524796
39.150000 -1.538499
39.200000 -1.493963
39.250000 -1.408315
39.300000 -1.329520
39.350000 -1.264427
39.400000 -1.213039
39.450000 -1.182207
39.500000 -1.175354
39.550000 -1.206188
39.600000 -1.271280
39.650000 -1.353501
39.700000 -1.449426
39.750000 -1.545351
39.800000 -1.613869
39.850000 -1.620721
39.900000 -1.589887
39.950000 -1.535073
40.000000 -1.408316
40.050000 -1.209614
40.100000 -1.000634
40.150000 -0.849895
40.200000 -0.729990
40.250000 -0.627213
40.300000 -0.568973
40.350000 -0.603231
40.400000 -0.699156
40.450000 -0.812210
40.500000 -0.952672
40.550000 -1.120540
40.600000 -1.274705
40.650000 -1.377482
40.700000 -1.439148
40.750000 -1.466556
40.800000 -1.446000
40.850000 -1.363779
40.900000 -1.261002
40.950000 -1.182207
41.000000 -1.099985
41.050000 -1.004060
41.100000 -0.956098
41.150000 -0.962950
41.200000 -0.980079
41.250000 -1.000634
41.300000 -1.072578
41.350000 -1.151374
41.400000 -1.189059
41.450000 -1.226743
41.500000 -1.264428
41.550000 -1.264428
41.600000 -1.237021
41.650000 -1.206188
41.700000 -1.175355
41.750000 -1.151374
41.800000 -1.117115
41.850000 -1.072578
41.900000 -1.062301
41.950000 -1.123967
42.000000 -1.195910
42.050000 -1.247298
42.100000 -1.312391
42.150000 -1.374056
42.200000 -1.404890
42.250000 -1.425445
42.300000 -1.446000
42.350000 -1.456278
42.400000 -1.442574
42.450000 -1.408315
42.500000 -1.367205
42.550000 -1.326094
42.600000 -1.264428
42.650000 -1.195910
42.700000 -1.154800
42.750000 -1.154799
42.800000 -1.151374
42.850000 -1.151373
42.900000 -1.195910
42.950000 -1.267854
43.000000 -1.336371
43.050000 -1.404889
43.100000 -1.480259
43.150000 -1.562481
43.200000 -1.672109
43.250000 -1.761182
43.300000 -1.785163
43.350000 -1.761182
43.400000 -1.747478
43.450000 -1.709793
43.500000 -1.613868
43.550000 -1.500814
43.600000 -1.411741
43.650000 -1.336371
43.700000 -1.267854
43.750000 -1.237020
43.800000 -1.209614
43.850000 -1.199336
43.900000 -1.230169
43.950000 -1.274706
44.000000 -1.278132
44.050000 -1.257576
44.100000 -1.247298
44.150000 -1.209614
44.200000 -1.134245
44.250000 -1.052023
44.300000 -0.986931
44.350000 -0.918413
44.400000 -0.863599
44.450000 -0.819063
44.500000 -0.791655
44.550000 -0.825914
44.600000 -0.911561
44.650000 -0.986930
44.700000 -1.062301
44.750000 -1.168503
44.800000 -1.261002
44.850000 -1.308965
44.900000 -1.350076
44.950000 -1.401463
45.000000 -1.432297
45.050000 -1.418593
45.100000 -1.387760
45.150000 -1.350075
45.200000 -1.339797
45.250000 -1.343223
45.300000 -1.312391
45.350000 -1.271280
45.400000 -1.267854
45.450000 -1.267854
45.500000 -1.247299
45.550000 -1.230169
45.600000 -1.226744
45.650000 -1.202762
45.700000 -1.168503
45.750000 -1.158226
45.800000 -1.175355
45.850000 -1.185633
45.900000 -1.195910
45.950000 -1.230169
46.000000 -1.254150
46.050000 -1.243872
46.100000 -1.240447
46.150000 -1.261002
46.200000 -1.257576
46.250000 -1.230169
46.300000 -1.216466
46.350000 -1.206188
46.400000 -1.154800
46.450000 -1.086281
46.500000 -1.038319
46.550000 -0.980079
46.600000 -0.877302
46.650000 -0.767673
46.700000 -0.699156
46.750000 -0.664897
46.800000 -0.647767
46.850000 -0.651193
46.900000 -0.699156
46.950000 -0.795081
47.000000 -0.925265
47.050000 -1.076004
47.100000 -1.219891
47.150000 -1.367205
47.200000 -1.504241
47.250000 -1.596740
47.300000 -1.641276
47.350000 -1.661831
47.400000 -1.668683
47.450000 -1.648128
47.500000 -1.607017
47.550000 -1.545351
47.600000 -1.483685
47.650000 -1.442574
47.700000 -1.432297
47.750000 -1.432297
47.800000 -1.446000
47.850000 -1.483684
47.900000 -1.528221
47.950000 -1.552203
48.000000 -1.572758
48.050000 -1.593314
48.100000 -1.634424
48.150000 -1.678961
48.200000 -1.702942
48.250000 -1.692664
48.300000 -1.713220
48.350000 -1.757756
48.400000 -1.774886
48.450000 -1.771459
48.500000 -1.812570
48.550000 -1.850255
48.600000 -1.829699
48.650000 -1.809145
48.700000 -1.822848
48.750000 -1.812571
48.800000 -1.778311
48.850000 -1.761181
48.900000 -1.713219
48.950000 -1.613868
49.000000 -1.514518
49.050000 -1.418593
49.100000 -1.322668
49.150000 -1.264428
49.200000 -1.206188
49.250000 -1.113689
49.300000 -1.045171
49.350000 -1.024616
49.400000 -0.993783
49.450000 -0.966376
49.500000 -0.969801
49.550000 -0.980079
49.600000 -0.949246
49.650000 -0.921839
49.700000 -0.908135
49.750000 -0.870451
49.800000 -0.808784
49.850000 -0.760822
49.900000 -0.729989
49.950000 -0.692305
50.000000 -0.647768
50.050000 -0.627213
50.100000 -0.658046
50.150000 -0.706008
50.200000 -0.733415
50.250000 -0.764248
50.300000 -0.829340
50.350000 -0.870450
50.400000 -0.856747
50.450000 -0.873876
50.500000 -0.925265
50.550000 -0.942394
50.600000 -0.928691
50.650000 -0.935543
50.700000 -0.980079
50.750000 -1.034893
50.800000 -1.086281
50.850000 -1.123966
50.900000 -1.165077
50.950000 -1.247298
51.000000 -1.326094
51.050000 -1.350075
51.100000 -1.356927
51.150000 -1.384334
51.200000 -1.387759
51.250000 -1.346649
51.300000 -1.295261
51.350000 -1.247299
51.400000 -1.192484
51.450000 -1.137670
51.500000 -1.093134
51.550000 -1.058874
51.600000 -1.028041
51.650000 -1.021190
51.700000 -1.024616
51.750000 -1.041745
51.800000 -1.076004
51.850000 -1.117115
51.900000 -1.141096
51.950000 -1.178781
52.000000 -1.257577
52.050000 -1.308964
52.100000 -1.308965
52.150000 -1.315816
52.200000 -1.329520
52.250000 -1.284984
52.300000 -1.209614
52.350000 -1.171929
52.400000 -1.158225
52.450000 -1.134244
52.500000 -1.127392
52.550000 -1.168503
52.600000 -1.213039
52.650000 -1.261002
52.700000 -1.353501
52.750000 -1.452852
52.800000 -1.521369
52.850000 -1.555629
52.900000 -1.579610
52.950000 -1.579610
53.000000 -1.528222
53.050000 -1.439148
53.100000 -1.339798
53.150000 -1.261002
53.200000 -1.199336
53.250000 -1.158225
53.300000 -1.175355
53.350000 -1.264428
53.400000 -1.380908
53.450000 -1.521369
53.500000 -1.689238
53.550000 -1.850256
53.600000 -1.959883
53.650000 -2.035254
53.700000 -2.069512
53.750000 -2.048957
53.800000 -1.973588
53.850000 -1.857107
53.900000 -1.709794
53.950000 -1.548777
54.000000 -1.384334
54.050000 -1.223317
54.100000 -1.106837
54.150000 -1.041745
54.200000 -1.000635
54.250000 -0.986931
54.300000 -1.010912
54.350000 -1.072578
54.400000 -1.134245
54.450000 -1.199336
54.500000 -1.278132
54.550000 -1.332946
54.600000 -1.346649
54.650000 -1.367204
54.700000 -1.401463
54.750000 -1.408315
54.800000 -1.404890
54.850000 -1.418593
54.900000 -1.432296
54.950000 -1.415168
55.000000 -1.374056
55.050000 -1.339798
55.100000 -1.329519
55.150000 -1.322668
55.200000 -1.315817
55.250000 -1.329520
55.300000 -1.370631
55.350000 -1.404889
55.400000 -1.435723
55.450000 -1.493962
55.500000 -1.555629
55.550000 -1.610443
55.600000 -1.682386
55.650000 -1.747479
55.700000 -1.778311
55.750000 -1.764608
55.800000 -1.713220
55.850000 -1.624146
55.900000 -1.507666
55.950000 -1.380909
56.000000 -1.247299
56.050000 -1.117115
56.100000 -1.007486
56.150000 -0.928691
56.200000 -0.884154
56.250000 -0.884154
56.300000 -0.908135
56.350000 -0.945820
56.400000 -0.993782
56.450000 -1.058874
56.500000 -1.120540
56.550000 -1.165078
56.600000 -1.189058
56.650000 -1.168503
56.700000 -1.127392
56.750000 -1.076004
56.800000 -1.021189
56.850000 -0.956098
56.900000 -0.911561
56.950000 -0.877303
57.000000 -0.853321
57.050000 -0.863599
57.100000 -0.904709
57.150000 -0.956098
57.200000 -1.017764
57.250000 -1.093133
57.300000 -1.192484
57.350000 -1.284983
57.400000 -1.350075
57.450000 -1.380909
57.500000 -1.404889
57.550000 -1.422019
57.600000 -1.404889
57.650000 -1.367205
57.700000 -1.339797
57.750000 -1.329520
57.800000 -1.319242
57.850000 -1.315817
57.900000 -1.339797
57.950000 -1.380908
58.000000 -1.435723
58.050000 -1.463130
58.100000 -1.473407
58.150000 -1.483685
58.200000 -1.469981
58.250000 -1.404889
58.300000 -1.319242
58.350000 -1.226743
58.400000 -1.086281
58.450000 -0.928691
58.500000 -0.822488
58.550000 -0.764248
58.600000 -0.726563
58.650000 -0.712859
58.700000 -0.740267
58.750000 -0.788230
58.800000 -0.839618
58.850000 -0.914987
58.900000 -1.014337
58.950000 -1.096559
59.000000 -1.151373
59.050000 -1.175354
59.100000 -1.165077
59.150000 -1.120541
59.200000 -1.028042
59.250000 -0.914987
59.300000 -0.849896
59.350000 -0.808785
59.400000 -0.750544
59.450000 -0.740267
59.500000 -0.798506
59.550000 -0.836192
59.600000 -0.843044
59.650000 -0.901283
59.700000 -1.004060
59.750000 -1.048597
59.800000 -1.052023
59.850000 -1.079430
59.900000 -1.113689
59.950000 -1.123966
60.000000 -1.130818
60.050000 -1.158225
60.100000 -1.209613
60.150000 -1.271279
60.200000 -1.332945
60.250000 -1.380908
60.300000 -1.428870
60.350000 -1.469981
60.400000 -1.473407
60.450000 -1.442574
60.500000 -1.408315
60.550000 -1.360353
60.600000 -1.278132
60.650000 -1.199336
60.700000 -1.130818
60.750000 -1.038319
60.800000 -0.932117
60.850000 -0.877302
60.900000 -0.849895
60.950000 -0.829340
61.000000 -0.839618
61.050000 -0.894431
61.100000 -0.945820
61.150000 -0.983505
61.200000 -1.031467
61.250000 -1.082855
61.300000 -1.137670
61.350000 -1.192484
61.400000 -1.216466
61.450000 -1.209614
61.500000 -1.199336
61.550000 -1.189058
61.600000 -1.137670
61.650000 -1.058875
61.700000 -0.986930
61.750000 -0.925265
61.800000 -0.873877
61.850000 -0.867024
61.900000 -0.891005
61.950000 -0.921839
62.000000 -0.983505
62.050000 -1.076004
62.100000 -1.151373
62.150000 -1.209614
62.200000 -1.267854
62.250000 -1.302113
62.300000 -1.315817
62.350000 -1.329520
62.400000 -1.305539
62.450000 -1.240447
62.500000 -1.199336
62.550000 -1.175355
62.600000 -1.137670
62.650000 -1.106837
62.700000 -1.134244
62.750000 -1.171928
62.800000 -1.199336
62.850000 -1.261002
62.900000 -1.343224
62.950000 -1.380908
63.000000 -1.384335
63.050000 -1.377482
63.100000 -1.353501
63.150000 -1.298687
63.200000 -1.219891
63.250000 -1.113688
63.300000 -1.010912
63.350000 -0.935542
63.400000 -0.870451
63.450000 -0.808784
63.500000 -0.788229
63.550000 -0.795081
63.600000 -0.771100
63.650000 -0.747118
63.700000 -0.760822
63.750000 -0.774526
63.800000 -0.781377
63.850000 -0.801933
63.900000 -0.812211
63.950000 -0.812211
64.000000 -0.853322
64.050000 -0.921839
64.100000 -0.980079
64.150000 -1.055449
64.200000 -1.161652
64.250000 -1.274706
64.300000 -1.391186
64.350000 -1.511092
64.400000 -1.617295
64.450000 -1.682387
64.500000 -1.692665
64.550000 -1.658405
64.600000 -1.583036
64.650000 -1.483685
64.700000 -1.360352
64.750000 -1.209614
64.800000 -1.038319
64.850000 -0.880728
64.900000 -0.750544
64.950000 -0.644342
65.000000 -0.575824
65.050000 -0.575824
65.100000 -0.647767
65.150000 -0.740267
65.200000 -0.846470
65.250000 -0.980079
65.300000 -1.120541
65.350000 -1.247299
65.400000 -1.350076
65.450000 -1.415167
65.500000 -1.428871
65.550000 -1.408316
65.600000 -1.367204
65.650000 -1.302113
65.700000 -1.223317
65.750000 -1.147948
65.800000 -1.082855
65.850000 -1.024615
65.900000 -0.983505
65.950000 -0.956098
66.000000 -0.928690
66.050000 -0.925265
66.100000 -0.966375
66.150000 -1.017764
66.200000 -1.069152
66.250000 -1.137670
66.300000 -1.209614
66.350000 -1.261002
66.400000 -1.302112
66.450000 -1.326094
66.500000 -1.319242
66.550000 -1.302112
66.600000 -1.271280
66.650000 -1.195910
66.700000 -1.099985
66.750000 -1.028042
66.800000 -0.962950
66.850000 -0.887580
66.900000 -0.843044
66.950000 -0.832766
67.000000 -0.815637
67.050000 -0.836191
67.100000 -0.928691
67.150000 -1.024616
67.200000 -1.086282
67.250000 -1.161652
67.300000 -1.267853
67.350000 -1.332946
67.400000 -1.384334
67.450000 -1.449426
67.500000 -1.487111
67.550000 -1.487111
67.600000 -1.497388
67.650000 -1.511092
67.700000 -1.514518
67.750000 -1.504240
67.800000 -1.473407
67.850000 -1.432296
67.900000 -1.404890
67.950000 -1.374056
68.000000 -1.326094
68.050000 -1.291835
68.100000 -1.281558
68.150000 -1.274705
68.200000 -1.261002
68.250000 -1.254150
68.300000 -1.254151
68.350000 -1.267854
68.400000 -1.291835
68.450000 -1.332945
68.500000 -1.394611
68.550000 -1.469982
68.600000 -1.517944
68.650000 -1.535073
68.700000 -1.538499
68.750000 -1.531647
68.800000 -1.507666
68.850000 -1.493963
68.900000 -1.490537
68.950000 -1.469982
69.000000 -1.439149
69.050000 -1.422019
69.100000 -1.415167
69.150000 -1.404890
69.200000 -1.384334
69.250000 -1.370631
69.300000 -1.367205
69.350000 -1.377482
69.400000 -1.398038
69.450000 -1.415167
69.500000 -1.446000
69.550000 -1.483685
69.600000 -1.517943
69.650000 -1.541925
69.700000 -1.579610
69.750000 -1.627572
69.800000 -1.651554
69.850000 -1.617294
69.900000 -1.548777
69.950000 -1.476833
70.000000 -1.394612
70.050000 -1.274706
70.100000 -1.161651
70.150000 -1.082856
70.200000 -1.007486
70.250000 -0.928691
70.300000 -0.891006
70.350000 -0.908136
70.400000 -0.952672
70.450000 -1.007486
70.500000 -1.069152
70.550000 -1.154800
70.600000 -1.247299
70.650000 -1.298687
70.700000 -1.305539
70.750000 -1.298687
70.800000 -1.284984
70.850000 -1.243872
70.900000 -1.182206
70.950000 -1.113689
71.000000 -1.065726
71.050000 -1.034894
71.100000 -1.014338
71.150000 -1.000634
71.200000 -0.997208
71.250000 -0.997208
71.300000 -0.993783
71.350000 -1.007486
71.400000 -1.021190
71.450000 -1.031467
71.500000 -1.048597
71.550000 -1.069152
71.600000 -1.082856
71.650000 -1.106837
71.700000 -1.144522
71.750000 -1.199336
71.800000 -1.254150
71.850000 -1.305538
71.900000 -1.339797
71.950000 -1.360353
72.000000 -1.353501
72.050000 -1.308964
72.100000 -1.237021
72.150000 -1.147948
72.200000 -1.045171
72.250000 -0.949246
72.300000 -0.849895
72.350000 -0.753970
72.400000 -0.695730
72.450000 -0.671749
72.500000 -0.682027
72.550000 -0.750545
72.600000 -0.887580
72.650000 -1.058875
72.700000 -1.247298
72.750000 -1.435722
72.800000 -1.576184
72.850000 -1.675535
72.900000 -1.768034
72.950000 -1.822848
73.000000 -1.778311
73.050000 -1.654979
73.100000 -1.504240
73.150000 -1.336372
73.200000 -1.147947
73.250000 -0.962949
73.300000 -0.795081
73.350000 -0.675175
73.400000 -0.647768
73.450000 -0.668324
73.500000 -0.682026
73.550000 -0.723137
73.600000 -0.822488
73.650000 -0.942394
73.700000 -1.038319
73.750000 -1.099985
73.800000 -1.151374
73.850000 -1.219891
73.900000 -1.291835
73.950000 -1.322668
74.000000 -1.346649
74.050000 -1.401463
74.100000 -1.463129
74.150000 -1.500814
74.200000 -1.524796
74.250000 -1.535073
74.300000 -1.517944
74.350000 -1.507666
74.400000 -1.473407
74.450000 -1.391185
74.500000 -1.278131
74.550000 -1.171929
74.600000 -1.062301
74.650000 -0.932117
74.700000 -0.808784
74.750000 -0.709433
74.800000 -0.623786
74.850000 -0.538140
74.900000 -0.483325
74.950000 -0.490177
75.000000 -0.527862
75.050000 -0.558695
75.100000 -0.596379
75.150000 -0.675175
75.200000 -0.777952
75.250000 -0.860173
75.300000 -0.935542
75.350000 -1.007486
75.400000 -1.072578
75.450000 -1.110263
75.500000 -1.137670
75.550000 -1.141096
75.600000 -1.096559
75.650000 -1.031468
75.700000 -0.962950
75.750000 -0.863599
75.800000 -0.740267
75.850000 -0.634065
75.900000 -0.572398
75.950000 -0.521009
76.000000 -0.473047
76.050000 -0.469621
76.100000 -0.517584
76.150000 -0.606657
76.200000 -0.709434
76.250000 -0.843043
76.300000 -1.010912
76.350000 -1.168503
76.400000 -1.312390
76.450000 -1.466556
76.500000 -1.603591
76.550000 -1.665257
76.600000 -1.685812
76.650000 -1.699516
76.700000 -1.696090
76.750000 -1.678961
76.800000 -1.665257
76.850000 -1.661831
76.900000 -1.654980
76.950000 -1.648128
77.000000 -1.661831
77.050000 -1.699516
77.100000 -1.764607
77.150000 -1.805719
77.200000 -1.802292
77.250000 -1.795441
77.300000 -1.792015
77.350000 -1.744053
77.400000 -1.637849
77.450000 -1.538499
77.500000 -1.452852
77.550000 -1.370630
77.600000 -1.312390
77.650000 -1.298687
77.700000 -1.298687
77.750000 -1.319242
77.800000 -1.391186
77.850000 -1.504240
77.900000 -1.596740
77.950000 -1.648127
78.000000 -1.665257
78.050000 -1.648127
78.100000 -1.586461
78.150000 -1.469981
78.200000 -1.305538
78.250000 -1.113689
78.300000 -0.911561
78.350000 -0.736841
78.400000 -0.589527
78.450000 -0.462769
78.500000 -0.383974
78.550000 -0.397678
78.600000 -0.466195
78.650000 -0.562121
78.700000 -0.685452
78.750000 -0.843043
78.800000 -1.000634
78.850000 -1.158225
78.900000 -1.295261
78.950000 -1.387760
79.000000 -1.442574
79.050000 -1.480259
79.100000 -1.476833
79.150000 -1.401463
79.200000 -1.288409
79.250000 -1.199336
79.300000 -1.120541
79.350000 -1.028042
79.400000 -0.942394
79.450000 -0.894431
79.500000 -0.856747
79.550000 -0.829339
79.600000 -0.822488
79.650000 -0.832766
79.700000 -0.873877
79.750000 -0.932117
79.800000 -0.983505
79.850000 -1.028042
79.900000 -1.110263
79.950000 -1.195911
80.000000 -1.264428
80.050000 -1.339797
80.100000 -1.425445
80.150000 -1.480259
80.200000 -1.500815
80.250000 -1.528221
80.300000 -1.538499
80.350000 -1.493962
80.400000 -1.422019
80.450000 -1.336372
80.500000 -1.230169
80.550000 -1.113688
80.600000 -0.993783
80.650000 -0.880728
80.700000 -0.805359
80.750000 -0.777952
80.800000 -0.764248
80.850000 -0.723138
80.900000 -0.688879
80.950000 -0.685452
81.000000 -0.688878
81.050000 -0.671749
81.100000 -0.654619
81.150000 -0.634065
81.200000 -0.627212
81.250000 -0.637490
81.300000 -0.634064
81.350000 -0.637490
81.400000 -0.695731
81.450000 -0.771099
81.500000 -0.832766
81.550000 -0.918413
81.600000 -1.062300
81.650000 -1.182206
81.700000 -1.257576
81.750000 -1.336372
81.800000 -1.425445
81.850000 -1.476833
81.900000 -1.483685
81.950000 -1.476833
82.000000 -1.469981
82.050000 -1.452852
82.100000 -1.411741
82.150000 -1.353501
82.200000 -1.274706
82.250000 -1.209613
82.300000 -1.171929
82.350000 -1.158226
82.400000 -1.151374
82.450000 -1.158226
82.500000 -1.189058
82.550000 -1.257576
82.600000 -1.315816
82.650000 -1.343223
82.700000 -1.370631
82.750000 -1.418593
82.800000 -1.428870
82.850000 -1.394612
82.900000 -1.363779
82.950000 -1.322669
83.000000 -1.233595
83.050000 -1.127392
83.100000 -1.045171
83.150000 -0.983505
83.200000 -0.901284
83.250000 -0.819062
83.300000 -0.781378
83.350000 -0.760822
83.400000 -0.719711
83.450000 -0.685453
83.500000 -0.675174
83.550000 -0.658045
83.600000 -0.647768
83.650000 -0.668323
83.700000 -0.712859
83.750000 -0.740267
83.800000 -0.764248
83.850000 -0.801933
83.900000 -0.839617
83.950000 -0.867024
84.000000 -0.884154
84.050000 -0.884154
84.100000 -0.856747
84.150000 -0.822488
84.200000 -0.815637
84.250000 -0.812210
84.300000 -0.805359
84.350000 -0.812210
84.400000 -0.846469
84.450000 -0.894431
84.500000 -0.973227
84.550000 -1.058875
84.600000 -1.110263
84.650000 -1.123967
84.700000 -1.154800
84.750000 -1.147947
84.800000 -1.079430
84.850000 -1.014338
84.900000 -0.976654
84.950000 -0.921839
85.000000 -0.853321
85.050000 -0.812210
85.100000 -0.805359
85.150000 -0.839617
85.200000 -0.897858
85.250000 -0.966375
85.300000 -1.017764
85.350000 -1.072578
85.400000 -1.103411
85.450000 -1.082855
85.500000 -1.031467
85.550000 -0.962949
85.600000 -0.863599
85.650000 -0.743693
85.700000 -0.647768
85.750000 -0.586102
85.800000 -0.534713
85.850000 -0.514158
85.900000 -0.555268
85.950000 -0.640916
86.000000 -0.747118
86.050000 -0.873877
86.100000 -1.004061
86.150000 -1.117115
86.200000 -1.185632
86.250000 -1.202762
86.300000 -1.199336
86.350000 -1.161651
86.400000 -1.062301
86.450000 -0.908136
86.500000 -0.736841
86.550000 -0.579250
86.600000 -0.428510
86.650000 -0.318883
86.700000 -0.257216
86.750000 -0.257216
86.800000 -0.308605
86.850000 -0.425085
86.900000 -0.592954
86.950000 -0.801933
87.000000 -1.028041
87.050000 -1.237021
87.100000 -1.408315
87.150000 -1.524796
87.200000 -1.596740
87.250000 -1.620720
87.300000 -1.583035
87.350000 -1.497388
87.400000 -1.398038
87.450000 -1.284984
87.500000 -1.165077
87.550000 -1.045171
87.600000 -0.959524
87.650000 -0.932117
87.700000 -0.932117
87.750000 -0.935543
87.800000 -0.973227
87.850000 -1.052022
87.900000 -1.110263
87.950000 -1.144522
88.000000 -1.175354
88.050000 -1.216465
88.100000 -1.264427
88.150000 -1.305538
88.200000 -1.315817
88.250000 -1.322668
88.300000 -1.346649
88.350000 -1.350075
88.400000 -1.312390
88.450000 -1.284984
88.500000 -1.264428
88.550000 -1.226743
88.600000 -1.161651
88.650000 -1.086281
88.700000 -1.010912
88.750000 -0.932116
88.800000 -0.853321
88.850000 -0.771099
88.900000 -0.685453
88.950000 -0.606657
89.000000 -0.544991
89.050000 -0.534713
89.100000 -0.544991
89.150000 -0.548417
89.200000 -0.558694
89.250000 -0.603231
89.300000 -0.685452
89.350000 -0.784803
89.400000 -0.873877
89.450000 -0.932117
89.500000 -0.973227
89.550000 -1.014338
89.600000 -1.041745
89.650000 -1.034894
89.700000 -1.000634
89.750000 -0.969801
89.800000 -0.973227
89.850000 -0.980079
89.900000 -0.969801
89.950000 -0.980079
90.000000 -1.034893
90.050000 -1.096559
90.100000 -1.137669
90.150000 -1.185632
90.200000 -1.223317
90.250000 -1.223317
90.300000 -1.216466
90.350000 -1.213039
90.400000 -1.185632
90.450000 -1.144522
90.500000 -1.127393
90.550000 -1.117114
90.600000 -1.093133
90.650000 -1.096560
90.700000 -1.151373
90.750000 -1.233595
90.800000 -1.332945
90.850000 -1.439149
90.900000 -1.531647
90.950000 -1.617294
91.000000 -1.699516
91.050000 -1.733775
91.100000 -1.730349
91.150000 -1.706368
91.200000 -1.648128
91.250000 -1.552202
91.300000 -1.442574
91.350000 -1.326094
91.400000 -1.182206
91.450000 -1.045170
91.500000 -0.949246
91.550000 -0.870451
91.600000 -0.819063
91.650000 -0.801933
91.700000 -0.836192
91.750000 -0.911562
91.800000 -0.993783
91.850000 -1.079429
91.900000 -1.147947
91.950000 -1.195910
92.000000 -1.195910
92.050000 -1.165078
92.100000 -1.127393
92.150000 -1.079430
92.200000 -1.007486
92.250000 -0.921839
92.300000 -0.860173
92.350000 -0.822488
92.400000 -0.795081
92.450000 -0.812211
92.500000 -0.897858
92.550000 -1.024616
92.600000 -1.185632
92.650000 -1.363778
92.700000 -1.511092
92.750000 -1.610443
92.800000 -1.672109
92.850000 -1.692665
92.900000 -1.668683
92.950000 -1.607017
93.000000 -1.497388
93.050000 -1.353501
93.100000 -1.199336
93.150000 -1.038319
93.200000 -0.894432
93.250000 -0.795081
93.300000 -0.719712
93.350000 -0.647768
93.400000 -0.627212
93.450000 -0.661472
93.500000 -0.685453
93.550000 -0.692304
93.600000 -0.723137
93.650000 -0.747119
93.700000 -0.743693
93.750000 -0.750545
93.800000 -0.788229
93.850000 -0.822488
93.900000 -0.867024
93.950000 -0.942394
94.000000 -1.031468
94.050000 -1.117114
94.100000 -1.206187
94.150000 -1.267854
94.200000 -1.267853
94.250000 -1.226743
94.300000 -1.168503
94.350000 -1.072578
94.400000 -0.949246
94.450000 -0.825914
94.500000 -0.682026
94.550000 -0.555268
94.600000 -0.479899
94.650000 -0.438789
94.700000 -0.418233
94.750000 -0.449066
94.800000 -0.517584
94.850000 -0.599806
94.900000 -0.706008
94.950000 -0.839618
95.000000 -0.938969
95.050000 -1.000635
95.100000 -1.079430
95.150000 -1.161651
95.200000 -1.223317
95.250000 -1.291835
95.300000 -1.363779
95.350000 -1.415167
95.400000 -1.435722
95.450000 -1.473407
95.500000 -1.535074
95.550000 -1.565906
95.600000 -1.538499
95.650000 -1.493963
95.700000 -1.456278
95.750000 -1.411741
95.800000 -1.343223
95.850000 -1.254150
95.900000 -1.182207
95.950000 -1.137670
96.000000 -1.082856
96.050000 -1.048597
96.100000 -1.062300
96.150000 -1.076004
96.200000 -1.062301
96.250000 -1.052023
96.300000 -1.034894
96.350000 -1.000634
96.400000 -0.962949
96.450000 -0.911561
96.500000 -0.829340
96.550000 -0.760823
96.600000 -0.736841
96.650000 -0.733414
96.700000 -0.733415
96.750000 -0.760822
96.800000 -0.822488
96.850000 -0.897858
96.900000 -0.969801
96.950000 -1.028041
97.000000 -1.079430
97.050000 -1.137670
97.100000 -1.182207
97.150000 -1.182207
97.200000 -1.154800
97.250000 -1.103411
97.300000 -1.024616
97.350000 -0.932117
97.400000 -0.853321
97.450000 -0.757396
97.500000 -0.640916
97.550000 -0.555269
97.600000 -0.483325
97.650000 -0.380548
97.700000 -0.315456
97.750000 -0.315457
97.800000 -0.301753
97.850000 -0.288049
97.900000 -0.353142
97.950000 -0.445641
98.000000 -0.507306
98.050000 -0.599805
98.100000 -0.736841
98.150000 -0.860172
98.200000 -0.959524
98.250000 -1.058874
98.300000 -1.113688
98.350000 -1.120540
98.400000 -1.106837
98.450000 -1.069152
98.500000 -1.017764
98.550000 -0.983504
98.600000 -0.942394
98.650000 -0.894432
98.700000 -0.856747
98.750000 -0.829340
98.800000 -0.795081
98.850000 -0.777952
98.900000 -0.808785
98.950000 -0.863599
99.000000 -0.921839
99.050000 -1.004060
99.100000 -1.089708
99.150000 -1.154800
99.200000 -1.213039
99.250000 -1.257577
99.300000 -1.254150
99.350000 -1.209614
99.400000 -1.141096
99.450000 -1.034894
99.500000 -0.911562
99.550000 -0.781377
99.600000 -0.644342
99.650000 -0.497029
99.700000 -0.380549
99.750000 -0.298326
99.800000 -0.246939
99.850000 -0.240087
99.900000 -0.294901
99.950000 -0.401104
100.000000 -0.555269
100.050000 -0.716286
100.100000 -0.839618
100.150000 -0.949246
100.200000 -1.038320
100.250000 -1.093134
100.300000 -1.120540
100.350000 -1.165077
100.400000 -1.192485
100.450000 -1.165077
100.500000 -1.165077
100.550000 -1.209614
100.600000 -1.230169
100.650000 -1.199336
100.700000 -1.178781
100.750000 -1.161651
100.800000 -1.127392
100.850000 -1.086282
100.900000 -1.028042
100.950000 -0.935542
101.000000 -0.819062
101.050000 -0.688878
101.100000 -0.548417
101.150000 -0.442214
101.200000 -0.383974
101.250000 -0.336012
101.300000 -0.308605
101.350000 -0.349716
101.400000 -0.411381
101.450000 -0.462770
101.500000 -0.548416
101.550000 -0.678601
101.600000 -0.815636
101.650000 -0.945820
101.700000 -1.058874
101.750000 -1.147948
101.800000 -1.199336
101.850000 -1.216465
101.900000 -1.202761
101.950000 -1.151373
102.000000 -1.065727
102.050000 -0.969802
102.100000 -0.884154
102.150000 -0.805358
102.200000 -0.716285
102.250000 -0.654620
102.300000 -0.623786
102.350000 -0.603231
102.400000 -0.603231
102.450000 -0.664898
102.500000 -0.764248
102.550000 -0.819062
102.600000 -0.856747
102.650000 -0.935543
102.700000 -0.997209
102.750000 -1.007486
102.800000 -1.028042
102.850000 -1.086281
102.900000 -1.127392
102.950000 -1.158225
103.000000 -1.213040
103.050000 -1.291835
103.100000 -1.377482
103.150000 -1.493963
103.200000 -1.603591
103.250000 -1.678961
103.300000 -1.764608
103.350000 -1.846829
103.400000 -1.870811
103.450000 -1.839977
103.500000 -1.764608
103.550000 -1.634424
103.600000 -1.459703
103.650000 -1.288409
103.700000 -1.134245
103.750000 -0.980079
103.800000 -0.825914
103.850000 -0.719711
103.900000 -0.682026
103.950000 -0.706008
104.000000 -0.750544
104.050000 -0.808785
104.100000 -0.901283
104.150000 -1.007486
104.200000 -1.099985
104.250000 -1.175355
104.300000 -1.243873
104.350000 -1.291835
104.400000 -1.305539
104.450000 -1.288410
104.500000 -1.237021
104.550000 -1.151374
104.600000 -1.062300
104.650000 -0.959523
104.700000 -0.843043
104.750000 -0.729989
104.800000 -0.637490
104.850000 -0.558694
104.900000 -0.503880
104.950000 -0.469621
105.000000 -0.452492
105.050000 -0.483325
105.100000 -0.568972
105.150000 -0.675175
105.200000 -0.753971
105.250000 -0.819062
105.300000 -0.891006
105.350000 -0.935543
105.400000 -0.911561
105.450000 -0.839618
105.500000 -0.781377
105.550000 -0.750544
105.600000 -0.695730
105.650000 -0.613509
105.700000 -0.565547
105.750000 -0.575824
105.800000 -0.582675
105.850000 -0.582676
105.900000 -0.610083
105.950000 -0.647768
106.000000 -0.664897
106.050000 -0.671749
106.100000 -0.699156
106.150000 -0.695730
106.200000 -0.630639
106.250000 -0.586101
106.300000 -0.589527
106.350000 -0.606657
106.400000 -0.616935
106.450000 -0.675175
106.500000 -0.777952
106.550000 -0.880728
106.600000 -0.973227
106.650000 -1.062301
106.700000 -1.130818
106.750000 -1.161652
106.800000 -1.171929
106.850000 -1.158225
106.900000 -1.120541
106.950000 -1.089708
107.000000 -1.072578
107.050000 -1.048597
107.100000 -1.017764
107.150000 -1.000634
107.200000 -1.007486
107.250000 -1.034893
107.300000 -1.089708
107.350000 -1.147947
107.400000 -1.185632
107.450000 -1.209613
107.500000 -1.216466
107.550000 -1.216466
107.600000 -1.195911
107.650000 -1.141096
107.700000 -1.062300
107.750000 -0.973228
107.800000 -0.880729
107.850000 -0.812211
107.900000 -0.805359
107.950000 -0.812210
108.000000 -0.798506
108.050000 -0.832765
108.100000 -0.942394
108.150000 -1.048597
108.200000 -1.151374
108.250000 -1.257576
108.300000 -1.336372
108.350000 -1.367204
108.400000 -1.391186
108.450000 -1.380908
108.500000 -1.291836
108.550000 -1.185633
108.600000 -1.106837
108.650000 -1.007486
108.700000 -0.880729
108.750000 -0.771100
108.800000 -0.699156
108.850000 -0.623787
108.900000 -0.558694
108.950000 -0.531287
109.000000 -0.507307
109.050000 -0.473047
109.100000 -0.469622
109.150000 -0.497028
109.200000 -0.524436
109.250000 -0.575824
109.300000 -0.668323
109.350000 -0.771100
109.400000 -0.867024
109.450000 -0.986931
109.500000 -1.103411
109.550000 -1.199336
109.600000 -1.295261
109.650000 -1.408315
109.700000 -1.493963
109.750000 -1.531648
109.800000 -1.524795
109.850000 -1.473407
109.900000 -1.404889
109.950000 -1.319243
110.000000 -1.192485
110.050000 -1.041745
110.100000 -0.918413
110.150000 -0.815636
110.200000 -0.723137
110.250000 -0.661471
110.300000 -0.668323
110.350000 -0.719712
110.400000 -0.801932
110.450000 -0.925264
110.500000 -1.076004
110.550000 -1.213040
110.600000 -1.329520
110.650000 -1.428871
110.700000 -1.480259
110.750000 -1.466555
110.800000 -1.418593
110.850000 -1.339798
110.900000 -1.240447
110.950000 -1.137670
111.000000 -1.048597
111.050000 -0.969801
111.100000 -0.921839
111.150000 -0.928691
111.200000 -0.976653
111.250000 -1.028041
111.300000 -1.082856
111.350000 -1.185633
111.400000 -1.312390
111.450000 -1.415167
111.500000 -1.483685
111.550000 -1.524796
111.600000 -1.545350
111.650000 -1.555628
111.700000 -1.555628
111.750000 -1.504240
111.800000 -1.425445
111.850000 -1.391186
111.900000 -1.384334
111.950000 -1.326094
112.000000 -1.233595
112.050000 -1.161651
112.100000 -1.096559
112.150000 -0.997208
112.200000 -0.904710
112.250000 -0.825914
112.300000 -0.736840
112.350000 -0.658045
112.400000 -0.592953
112.450000 -0.521010
112.500000 -0.425085
112.550000 -0.356567
112.600000 -0.322308
112.650000 -0.301753
112.700000 -0.312031
112.750000 -0.342864
112.800000 -0.377123
112.850000 -0.425085
112.900000 -0.527862
112.950000 -0.623787
113.000000 -0.688878
113.050000 -0.740267
113.100000 -0.808785
113.150000 -0.849895
113.200000 -0.870451
113.250000 -0.877302
113.300000 -0.863599
113.350000 -0.843043
113.400000 -0.819063
113.450000 -0.805358
113.500000 -0.815636
113.550000 -0.825914
113.600000 -0.829340
113.650000 -0.846469
113.700000 -0.887580
113.750000 -0.918413
113.800000 -0.925265
113.850000 -0.911561
113.900000 -0.908135
113.950000 -0.901284
114.000000 -0.887580
114.050000 -0.860172
114.100000 -0.849895
114.150000 -0.880728
114.200000 -0.938969
114.250000 -0.997208
114.300000 -1.052023
114.350000 -1.113688
114.400000 -1.171928
114.450000 -1.209613
114.500000 -1.226744
114.550000 -1.233595
114.600000 -1.209614
114.650000 -1.168503
114.700000 -1.130819
114.750000 -1.089708
114.800000 -1.052022
114.850000 -1.028042
114.900000 -1.031467
114.950000 -1.052023
115.000000 -1.069152
115.050000 -1.055449
115.100000 -1.048597
115.150000 -1.082855
115.200000 -1.106837
115.250000 -1.076004
115.300000 -1.041745
115.350000 -1.028042
115.400000 -0.976654
115.450000 -0.897858
115.500000 -0.853321
115.550000 -0.825914
115.600000 -0.791655
115.650000 -0.777952
115.700000 -0.795081
115.750000 -0.829340
115.800000 -0.867025
115.850000 -0.928691
115.900000 -0.983505
115.950000 -1.041745
116.000000 -1.130818
116.050000 -1.199336
116.100000 -1.206188
116.150000 -1.206188
116.200000 -1.199336
116.250000 -1.134244
116.300000 -1.045171
116.350000 -0.976654
116.400000 -0.894432
116.450000 -0.801933
116.500000 -0.757396
116.550000 -0.747119
116.600000 -0.747118
116.650000 -0.771100
116.700000 -0.839618
116.750000 -0.942394
116.800000 -1.062301
116.850000 -1.192484
116.900000 -1.291835
116.950000 -1.377483
117.000000 -1.439148
117.050000 -1.439148
117.100000 -1.391185
117.150000 -1.336372
117.200000 -1.254150
117.250000 -1.123966
117.300000 -0.997209
117.350000 -0.894432
117.400000 -0.774526
117.450000 -0.644342
117.500000 -0.579250
117.550000 -0.565546
117.600000 -0.551843
117.650000 -0.562120
117.700000 -0.630639
117.750000 -0.719711
117.800000 -0.795081
117.850000 -0.887580
117.900000 -0.980079
117.950000 -1.041745
118.000000 -1.076004
118.050000 -1.086282
118.100000 -1.076004
118.150000 -1.089708
118.200000 -1.123966
118.250000 -1.141096
118.300000 -1.141095
118.350000 -1.175355
118.400000 -1.226743
118.450000 -1.243873
118.500000 -1.254151
118.550000 -1.295261
118.600000 -1.326094
118.650000 -1.329520
118.700000 -1.339798
118.750000 -1.339797
118.800000 -1.284983
118.850000 -1.195910
118.900000 -1.103411
118.950000 -1.004060
119.000000 -0.894432
119.050000 -0.784803
119.100000 -0.695730
119.150000 -0.637490
119.200000 -0.603232
119.250000 -0.589527
119.300000 -0.623787
119.350000 -0.695730
119.400000 -0.771100
119.450000 -0.860173
119.500000 -0.993783
119.550000 -1.127393
119.600000 -1.233595
119.650000 -1.305538
119.700000 -1.346649
119.750000 -1.370630
119.800000 -1.370631
119.850000 -1.332945
119.900000 -1.267854
119.950000 -1.223317
120.000000 -1.175355
120.050000 -1.106837
120.100000 -1.069152
120.150000 -1.089707
120.200000 -1.127392
120.250000 -1.165077
120.300000 -1.209613
120.350000 -1.254150
120.400000 -1.291835
120.450000 -1.322668
120.500000 -1.332946
120.550000 -1.305538
120.600000 -1.243872
120.650000 -1.151373
120.700000 -1.041745
120.750000 -0.935543
120.800000 -0.836191
120.850000 -0.733415
120.900000 -0.661471
120.950000 -0.647768
121.000000 -0.654619
121.050000 -0.664897
121.100000 -0.723138
121.150000 -0.812211
121.200000 -0.880728
121.250000 -0.932116
121.300000 -0.976654
121.350000 -0.973228
121.400000 -0.935543
121.450000 -0.925264
121.500000 -0.911562
121.550000 -0.843043
121.600000 -0.767674
121.650000 -0.736840
121.700000 -0.733415
121.750000 -0.747118
121.800000 -0.791655
121.850000 -0.867025
121.900000 -0.942394
121.950000 -1.007486
122.000000 -1.065726
122.050000 -1.123966
122.100000 -1.178781
122.150000 -1.206188
122.200000 -1.206188
122.250000 -1.202761
122.300000 -1.195910
122.350000 -1.178781
122.400000 -1.165077
122.450000 -1.158226
122.500000 -1.158225
122.550000 -1.158225
122.600000 -1.165077
122.650000 -1.171929
122.700000 -1.195910
122.750000 -1.226743
122.800000 -1.216466
122.850000 -1.189058
122.900000 -1.202762
122.950000 -1.213039
123.000000 -1.161651
123.050000 -1.113688
123.100000 -1.096559
123.150000 -1.055449
123.200000 -0.990357
123.250000 -0.942394
123.300000 -0.911562
123.350000 -0.914987
123.400000 -0.969801
123.450000 -1.017764
123.500000 -1.065726
123.550000 -1.158225
123.600000 -1.271279
123.650000 -1.353501
123.700000 -1.439148
123.750000 -1.555629
123.800000 -1.654979
123.850000 -1.702942
123.900000 -1.723498
123.950000 -1.720071
124.000000 -1.685813
124.050000 -1.637850
124.100000 -1.579610
124.150000 -1.528222
124.200000 -1.469982
124.250000 -1.418593
124.300000 -1.391185
124.350000 -1.377482
124.400000 -1.329519
124.450000 -1.264428
124.500000 -1.213040
124.550000 -1.185633
124.600000 -1.137670
124.650000 -1.058875
124.700000 -1.021190
124.750000 -1.034894
124.800000 -1.052022
124.850000 -1.072578
124.900000 -1.113689
124.950000 -1.192485
125.000000 -1.291835
125.050000 -1.384334
125.100000 -1.452852
125.150000 -1.493962
125.200000 -1.511092
125.250000 -1.500815
125.300000 -1.456278
125.350000 -1.387760
125.400000 -1.288409
125.450000 -1.168503
125.500000 -1.062301
125.550000 -0.959524
125.600000 -0.853321
125.650000 -0.781377
125.700000 -0.767674
125.750000 -0.784803
125.800000 -0.808785
125.850000 -0.846470
125.900000 -0.880728
125.950000 -0.901283
126.000000 -0.908135
126.050000 -0.894432
126.100000 -0.829340
126.150000 -0.740267
126.200000 -0.661471
126.250000 -0.582676
126.300000 -0.507306
126.350000 -0.469621
126.400000 -0.483325
126.450000 -0.510732
126.500000 -0.586102
126.550000 -0.709433
126.600000 -0.822488
126.650000 -0.918413
126.700000 -1.031467
126.750000 -1.137670
126.800000 -1.206188
126.850000 -1.243873
126.900000 -1.250725
126.950000 -1.206187
127.000000 -1.151374
127.050000 -1.110262
127.100000 -1.089708
127.150000 -1.096560
127.200000 -1.127393
127.250000 -1.185632
127.300000 -1.261002
127.350000 -1.353501
127.400000 -1.422018
127.450000 -1.459704
127.500000 -1.469982
127.550000 -1.463130
127.600000 -1.408315
127.650000 -1.298687
127.700000 -1.171929
127.750000 -1.028042
127.800000 -0.873876
127.850000 -0.753970
127.900000 -0.658046
127.950000 -0.582675
128.000000 -0.551843
128.050000 -0.582676
128.100000 -0.651194
128.150000 -0.747118
128.200000 -0.849895
128.250000 -0.901284
128.300000 -0.925265
128.350000 -0.969802
128.400000 -0.976653
128.450000 -0.938969
128.500000 -0.911561
128.550000 -0.894432
128.600000 -0.832766
128.650000 -0.777951
128.700000 -0.767674
128.750000 -0.764248
128.800000 -0.760822
128.850000 -0.788229
128.900000 -0.825914
128.950000 -0.843044
129.000000 -0.873876
129.050000 -0.894432
129.100000 -0.887580
129.150000 -0.904710
129.200000 -0.942394
129.250000 -0.935543
129.300000 -0.904710
129.350000 -0.908135
129.400000 -0.914987
129.450000 -0.904709
129.500000 -0.914987
129.550000 -0.918413
129.600000 -0.891006
129.650000 -0.891006
129.700000 -0.932117
129.750000 -0.942394
129.800000 -0.949246
129.850000 -1.014338
129.900000 -1.110262
129.950000 -1.189058
130.000000 -1.281557
130.050000 -1.377483
130.100000 -1.435723
130.150000 -1.476833
130.200000 -1.507666
130.250000 -1.463129
130.300000 -1.380908
130.350000 -1.305539
130.400000 -1.195910
130.450000 -1.058874
130.500000 -0.973227
130.550000 -0.914987
130.600000 -0.832766
130.650000 -0.764248
130.700000 -0.743693
130.750000 -0.753970
130.800000 -0.757396
130.850000 -0.767673
130.900000 -0.760822
130.950000 -0.753971
131.000000 -0.750544
131.050000 -0.719712
131.100000 -0.671749
131.150000 -0.630638
131.200000 -0.596379
131.250000 -0.548417
131.300000 -0.524435
131.350000 -0.531287
131.400000 -0.527862
131.450000 -0.544991
131.500000 -0.586102
131.550000 -0.606657
131.600000 -0.606657
131.650000 -0.620361
131.700000 -0.627212
131.750000 -0.616935
131.800000 -0.613509
131.850000 -0.606657
131.900000 -0.575824
131.950000 -0.572398
132.000000 -0.596379
132.050000 -0.592954
132.100000 -0.582676
132.150000 -0.613509
132.200000 -0.682026
132.250000 -0.743693
132.300000 -0.839617
132.350000 -0.942394
132.400000 -1.014338
132.450000 -1.065727
132.500000 -1.127393
132.550000 -1.168503
132.600000 -1.171929
132.650000 -1.151374
132.700000 -1.123966
132.750000 -1.065726
132.800000 -0.976653
132.850000 -0.891006
132.900000 -0.829340
132.950000 -0.795081
133.000000 -0.777952
133.050000 -0.777952
133.100000 -0.805359
133.150000 -0.873876
133.200000 -0.966376
133.250000 -1.052023
133.300000 -1.103411
133.350000 -1.120540
133.400000 -1.130818
133.450000 -1.117115
133.500000 -1.062300
133.550000 -1.000634
133.600000 -0.966375
133.650000 -0.925265
133.700000 -0.884154
133.750000 -0.870450
133.800000 -0.873877
133.850000 -0.873876
133.900000 -0.901284
133.950000 -0.959523
134.000000 -0.993783
134.050000 -0.997208
134.100000 -0.986931
134.150000 -0.966375
134.200000 -0.928691
134.250000 -0.891006
134.300000 -0.863599
134.350000 -0.832766
134.400000 -0.825914
134.450000 -0.860173
134.500000 -0.901283
134.550000 -0.914988
134.600000 -0.925265
134.650000 -0.949246
134.700000 -0.949246
134.750000 -0.925265
134.800000 -0.908136
134.850000 -0.867025
134.900000 -0.815636
134.950000 -0.774526
135.000000 -0.740267
135.050000 -0.712859
135.100000 -0.709434
135.150000 -0.740267
135.200000 -0.795081
135.250000 -0.891006
135.300000 -0.993782
135.350000 -1.065726
135.400000 -1.113689
135.450000 -1.158225
135.500000 -1.168503
135.550000 -1.127392
135.600000 -1.072578
135.650000 -1.007486
135.700000 -0.921838
135.750000 -0.805359
135.800000 -0.688879
135.850000 -0.586101
135.900000 -0.497028
135.950000 -0.428511
136.000000 -0.373697
136.050000 -0.359993
136.100000 -0.397677
136.150000 -0.469622
136.200000 -0.544991
136.250000 -0.640916
136.300000 -0.757397
136.350000 -0.894432
136.400000 -1.041745
136.450000 -1.182207
136.500000 -1.284983
136.550000 -1.339797
136.600000 -1.360353
136.650000 -1.350075
136.700000 -1.305539
136.750000 -1.219891
136.800000 -1.072578
136.850000 -0.897857
136.900000 -0.747118
136.950000 -0.630638
137.000000 -0.548417
137.050000 -0.514158
137.100000 -0.534713
137.150000 -0.596379
137.200000 -0.685453
137.250000 -0.805358
137.300000 -0.956098
137.350000 -1.110263
137.400000 -1.213040
137.450000 -1.264428
137.500000 -1.305538
137.550000 -1.336371
137.600000 -1.326094
137.650000 -1.274706
137.700000 -1.219891
137.750000 -1.182207
137.800000 -1.151373
137.850000 -1.103411
137.900000 -1.052023
137.950000 -1.021190
138.000000 -0.997208
138.050000 -0.969802
138.100000 -0.942394
138.150000 -0.904709
138.200000 -0.843043
138.250000 -0.777951
138.300000 -0.733415
138.350000 -0.729989
138.400000 -0.743692
138.450000 -0.750545
138.500000 -0.781377
138.550000 -0.856747
138.600000 -0.935542
138.650000 -1.007486
138.700000 -1.110263
138.750000 -1.209614
138.800000 -1.250725
138.850000 -1.257576
138.900000 -1.274705
138.950000 -1.288409
139.000000 -1.281557
139.050000 -1.240446
139.100000 -1.185632
139.150000 -1.130818
139.200000 -1.086282
139.250000 -1.038319
139.300000 -0.990357
139.350000 -0.952672
139.400000 -0.897858
139.450000 -0.825914
139.500000 -0.781377
139.550000 -0.753970
139.600000 -0.688878
139.650000 -0.596379
139.700000 -0.541565
139.750000 -0.510732
139.800000 -0.438789
139.850000 -0.370271
139.900000 -0.353141
139.950000 -0.349715
140.000000 -0.336012
140.050000 -0.329160
140.100000 -0.359993
140.150000 -0.411381
140.200000 -0.473047
140.250000 -0.534714
140.300000 -0.599805
140.350000 -0.678600
140.400000 -0.747118
140.450000 -0.801932
140.500000 -0.829340
140.550000 -0.846469
140.600000 -0.867025
140.650000 -0.867025
140.700000 -0.849895
140.750000 -0.839617
140.800000 -0.843043
140.850000 -0.870451
140.900000 -0.928691
140.950000 -1.021190
141.000000 -1.110263
141.050000 -1.192484
141.100000 -1.302113
141.150000 -1.425445
141.200000 -1.517944
141.250000 -1.562481
141.300000 -1.593314
141.350000 -1.610442
141.400000 -1.583036
141.450000 -1.507666
141.500000 -1.408316
141.550000 -1.278131
141.600000 -1.106837
141.650000 -0.952672
141.700000 -0.836192
141.750000 -0.726563
141.800000 -0.606657
141.850000 -0.514158
141.900000 -0.466195
141.950000 -0.469621
142.000000 -0.524436
142.050000 -0.606657
142.100000 -0.688879
142.150000 -0.781377
142.200000 -0.877303
142.250000 -0.959523
142.300000 -1.038320
142.350000 -1.110263
142.400000 -1.144522
142.450000 -1.171928
142.500000 -1.206188
142.550000 -1.223317
142.600000 -1.199336
142.650000 -1.182206
142.700000 -1.189059
142.750000 -1.209613
142.800000 -1.243873
142.850000 -1.278132
142.900000 -1.315816
142.950000 -1.360353
143.000000 -1.418593
143.050000 -1.463130
143.100000 -1.469981
143.150000 -1.456277
143.200000 -1.435722
143.250000 -1.398038
143.300000 -1.339798
143.350000 -1.274705
143.400000 -1.195910
143.450000 -1.117115
143.500000 -1.058874
143.550000 -0.990356
143.600000 -0.901284
143.650000 -0.808784
143.700000 -0.743693
143.750000 -0.675175
143.800000 -0.586102
143.850000 -0.514158
143.900000 -0.493603
143.950000 -0.490177
144.000000 -0.479899
144.050000 -0.486751
144.100000 -0.514158
144.150000 -0.551842
144.200000 -0.579250
144.250000 -0.610083
144.300000 -0.640916
144.350000 -0.668323
144.400000 -0.688878
144.450000 -0.699156
144.500000 -0.716285
144.550000 -0.774526
144.600000 -0.843043
144.650000 -0.887580
144.700000 -0.935543
144.750000 -1.014338
144.800000 -1.113689
144.850000 -1.202762
144.900000 -1.295261
144.950000 -1.374057
145.000000 -1.415167
145.050000 -1.428870
145.100000 -1.432297
145.150000 -1.408316
145.200000 -1.360352
145.250000 -1.305539
145.300000 -1.261001
145.350000 -1.202762
145.400000 -1.141096
145.450000 -1.103411
145.500000 -1.089707
145.550000 -1.089708
145.600000 -1.096559
145.650000 -1.120541
145.700000 -1.165078
145.750000 -1.209614
145.800000 -1.226743
145.850000 -1.216466
145.900000 -1.226743
145.950000 -1.240447
146.000000 -1.230169
146.050000 -1.219892
146.100000 -1.226743
146.150000 -1.223318
146.200000 -1.195910
146.250000 -1.178781
146.300000 -1.195910
146.350000 -1.223318
146.400000 -1.237021
146.450000 -1.237021
146.500000 -1.240447
146.550000 -1.233594
146.600000 -1.209614
146.650000 -1.161651
146.700000 -1.089707
146.750000 -1.000634
146.800000 -0.894432
146.850000 -0.791655
146.900000 -0.709433
146.950000 -0.644342
147.000000 -0.599805
147.050000 -0.620361
147.100000 -0.685453
147.150000 -0.760822
147.200000 -0.877302
147.250000 -1.058875
147.300000 -1.230169
147.350000 -1.363778
147.400000 -1.497388
147.450000 -1.617295
147.500000 -1.699516
147.550000 -1.750904
147.600000 -1.744053
147.650000 -1.658405
147.700000 -1.552203
147.750000 -1.439149
147.800000 -1.288409
147.850000 -1.141096
147.900000 -1.007486
147.950000 -0.884154
148.000000 -0.801933
148.050000 -0.801933
148.100000 -0.839618
148.150000 -0.884154
148.200000 -0.966376
148.250000 -1.089708
148.300000 -1.206188
148.350000 -1.332945
148.400000 -1.463130
148.450000 -1.562481
148.500000 -1.634424
148.550000 -1.682386
148.600000 -1.682386
148.650000 -1.624146
148.700000 -1.517943
148.750000 -1.374057
148.800000 -1.216466
148.850000 -1.072578
148.900000 -0.938968
148.950000 -0.801932
149.000000 -0.695730
149.050000 -0.627213
149.100000 -0.586102
149.150000 -0.575824
149.200000 -0.613509
149.250000 -0.671749
149.300000 -0.777952
149.350000 -0.925265
149.400000 -1.048597
149.450000 -1.144522
149.500000 -1.250724
149.550000 -1.353501
149.600000 -1.422019
149.650000 -1.480259
149.700000 -1.538499
149.750000 -1.572758
149.800000 -1.589887
149.850000 -1.610443
149.900000 -1.620721
149.950000 -1.593313
150.000000 -1.548777
150.050000 -1.500814
150.100000 -1.428870
150.150000 -1.343223
150.200000 -1.261002
150.250000 -1.175355
150.300000 -1.055448
150.350000 -0.959524
150.400000 -0.918413
150.450000 -0.911561
150.500000 -0.945820
150.550000 -1.024616
150.600000 -1.123966
150.650000 -1.243873
150.700000 -1.398038
150.750000 -1.572758
150.800000 -1.730349
150.850000 -1.836552
150.900000 -1.887940
150.950000 -1.891366
151.000000 -1.850255
151.050000 -1.726923
151.100000 -1.562480
151.150000 -1.408316
151.200000 -1.237021
151.250000 -1.041745
151.300000 -0.897858
151.350000 -0.812211
151.400000 -0.733415
151.450000 -0.695730
151.500000 -0.740266
151.550000 -0.812210
151.600000 -0.887580
151.650000 -0.986931
151.700000 -1.096560
151.750000 -1.185632
151.800000 -1.243872
151.850000 -1.264428
151.900000 -1.230169
151.950000 -1.171929
152.000000 -1.103411
152.050000 -1.014338
152.100000 -0.935543
152.150000 -0.911561
152.200000 -0.897857
152.250000 -0.880728
152.300000 -0.891005
152.350000 -0.938969
152.400000 -0.997209
152.450000 -1.065726
152.500000 -1.141096
152.550000 -1.199336
152.600000 -1.230169
152.650000 -1.250724
152.700000 -1.254150
152.750000 -1.226743
152.800000 -1.171928
152.850000 -1.089708
152.900000 -0.990357
152.950000 -0.894432
153.000000 -0.825914
153.050000 -0.767674
153.100000 -0.716286
153.150000 -0.671749
153.200000 -0.658046
153.250000 -0.658046
153.300000 -0.661471
153.350000 -0.695730
153.400000 -0.743692
153.450000 -0.777952
153.500000 -0.822489
153.550000 -0.887580
153.600000 -0.935542
153.650000 -0.952672
153.700000 -0.956098
153.750000 -0.962949
153.800000 -0.966375
153.850000 -0.976653
153.900000 -1.017764
153.950000 -1.079430
154.000000 -1.137670
154.050000 -1.209613
154.100000 -1.322668
154.150000 -1.459704
154.200000 -1.531647
154.250000 -1.565907
154.300000 -1.624147
154.350000 -1.672109
154.400000 -1.644702
154.450000 -1.576184
154.500000 -1.507666
154.550000 -1.404889
154.600000 -1.271279
154.650000 -1.141096
154.700000 -1.031467
154.750000 -0.952672
154.800000 -0.911561
154.850000 -0.901284
154.900000 -0.918413
154.950000 -0.969801
155.000000 -1.021190
155.050000 -1.038319
155.100000 -1.034894
155.150000 -1.017763
155.200000 -0.962950
155.250000 -0.887580
155.300000 -0.812211
155.350000 -0.736841
155.400000 -0.654620
155.450000 -0.610083
155.500000 -0.630639
155.550000 -0.688879
155.600000 -0.784803
155.650000 -0.942394
155.700000 -1.141096
155.750000 -1.339798
155.800000 -1.545351
155.850000 -1.709793
155.900000 -1.798867
155.950000 -1.822848
156.000000 -1.809145
156.050000 -1.720071
156.100000 -1.579610
156.150000 -1.442574
156.200000 -1.315816
156.250000 -1.165077
156.300000 -1.007486
156.350000 -0.897858
156.400000 -0.819062
156.450000 -0.733415
156.500000 -0.678600
156.550000 -0.685452
156.600000 -0.726563
156.650000 -0.760822
156.700000 -0.801933
156.750000 -0.877303
156.800000 -0.962950
156.850000 -1.034893
156.900000 -1.123967
156.950000 -1.226743
157.000000 -1.281558
157.050000 -1.298687
157.100000 -1.332946
157.150000 -1.360353
157.200000 -1.315817
157.250000 -1.254150
157.300000 -1.219891
157.350000 -1.161651
157.400000 -1.069152
157.450000 -1.021190
157.500000 -1.021189
157.550000 -0.997208
157.600000 -0.942394
157.650000 -0.897858
157.700000 -0.884154
157.750000 -0.901284
157.800000 -0.908136
157.850000 -0.880728
157.900000 -0.856747
157.950000 -0.860173
158.000000 -0.860173
158.050000 -0.856747
158.100000 -0.863599
158.150000 -0.891006
158.200000 -0.925265
158.250000 -0.973227
158.300000 -1.028042
158.350000 -1.082855
158.400000 -1.137670
158.450000 -1.182207
158.500000 -1.213039
158.550000 -1.267854
158.600000 -1.343223
158.650000 -1.404890
158.700000 -1.449426
158.750000 -1.507666
158.800000 -1.562481
158.850000 -1.579610
158.900000 -1.603591
158.950000 -1.637850
159.000000 -1.630998
159.050000 -1.596739
159.100000 -1.589887
159.150000 -1.576183
159.200000 -1.500815
159.250000 -1.411741
159.300000 -1.353501
159.350000 -1.288410
159.400000 -1.202762
159.450000 -1.134244
159.500000 -1.093133
159.550000 -1.045171
159.600000 -1.004060
159.650000 -0.993783
159.700000 -1.021190
159.750000 -1.048597
159.800000 -1.076004
159.850000 -1.093134
159.900000 -1.082856
159.950000 -1.055448
160.000000 -1.007486
160.050000 -0.925265
160.100000 -0.863599
160.150000 -0.836192
160.200000 -0.788229
160.250000 -0.729989
160.300000 -0.712859
160.350000 -0.733415
160.400000 -0.771099
160.450000 -0.853321
160.500000 -0.959523
160.550000 -1.055448
160.600000 -1.120540
160.650000 -1.171929
160.700000 -1.213040
160.750000 -1.237020
160.800000 -1.226743
160.850000 -1.185632
160.900000 -1.158226
160.950000 -1.151374
161.000000 -1.144522
161.050000 -1.137670
161.100000 -1.141096
161.150000 -1.189058
161.200000 -1.281557
161.250000 -1.380908
161.300000 -1.452852
161.350000 -1.535073
161.400000 -1.648128
161.450000 -1.737200
161.500000 -1.771460
161.550000 -1.785164
161.600000 -1.781737
161.650000 -1.733775
161.700000 -1.678960
161.750000 -1.617295
161.800000 -1.524796
161.850000 -1.404889
161.900000 -1.315816
161.950000 -1.271280
162.000000 -1.230169
162.050000 -1.209613
162.100000 -1.223318
162.150000 -1.250724
162.200000 -1.271279
162.250000 -1.302113
162.300000 -1.326094
162.350000 -1.329520
162.400000 -1.302113
162.450000 -1.243872
162.500000 -1.165077
162.550000 -1.096559
162.600000 -1.034893
162.650000 -0.969802
162.700000 -0.921838
162.750000 -0.932116
162.800000 -0.983505
162.850000 -1.052023
162.900000 -1.141096
162.950000 -1.243872
163.000000 -1.329520
163.050000 -1.391186
163.100000 -1.466555
163.150000 -1.521369
163.200000 -1.504240
163.250000 -1.439148
163.300000 -1.370630
163.350000 -1.288409
163.400000 -1.202762
163.450000 -1.141096
163.500000 -1.082855
163.550000 -1.028042
163.600000 -0.983505
163.650000 -0.952672
163.700000 -0.932117
163.750000 -0.932117
163.800000 -0.914988
163.850000 -0.873877
163.900000 -0.839618
163.950000 -0.777951
164.000000 -0.651193
164.050000 -0.521010
164.100000 -0.445641
164.150000 -0.390826
164.200000 -0.318882
164.250000 -0.264068
164.300000 -0.267494
164.350000 -0.312030
164.400000 -0.363419
164.450000 -0.418233
164.500000 -0.507306
164.550000 -0.610083
164.600000 -0.706008
164.650000 -0.784804
164.700000 -0.829340
164.750000 -0.849895
164.800000 -0.849895
164.850000 -0.843043
164.900000 -0.836191
164.950000 -0.867024
165.000000 -0.938968
165.050000 -1.031468
165.100000 -1.134244
165.150000 -1.226743
165.200000 -1.298687
165.250000 -1.367205
165.300000 -1.428870
165.350000 -1.425445
165.400000 -1.332946
165.450000 -1.206188
165.500000 -1.103411
165.550000 -1.010912
165.600000 -0.891006
165.650000 -0.795081
165.700000 -0.771100
165.750000 -0.795081
165.800000 -0.825914
165.850000 -0.884154
165.900000 -0.969802
165.950000 -1.055448
166.000000 -1.106837
166.050000 -1.113689
166.100000 -1.072578
166.150000 -1.010912
166.200000 -0.956098
166.250000 -0.897857
166.300000 -0.795081
166.350000 -0.682027
166.400000 -0.603232
166.450000 -0.555269
166.500000 -0.514158
166.550000 -0.493602
166.600000 -0.483325
166.650000 -0.469621
166.700000 -0.493603
166.750000 -0.548417
166.800000 -0.575824
166.850000 -0.606657
166.900000 -0.671749
166.950000 -0.747118
167.000000 -0.808785
167.050000 -0.891006
167.100000 -0.980079
167.150000 -1.045171
167.200000 -1.099986
167.250000 -1.147948
167.300000 -1.168503
167.350000 -1.161651
167.400000 -1.130818
167.450000 -1.055449
167.500000 -0.952672
167.550000 -0.867025
167.600000 -0.795081
167.650000 -0.695730
167.700000 -0.575824
167.750000 -0.483325
167.800000 -0.431936
167.850000 -0.425084
167.900000 -0.473048
167.950000 -0.568973
168.000000 -0.668323
168.050000 -0.764248
168.100000 -0.887580
168.150000 -1.004060
168.200000 -1.086281
168.250000 -1.117114
168.300000 -1.123966
168.350000 -1.117115
168.400000 -1.106837
168.450000 -1.082856
168.500000 -1.010912
168.550000 -0.894431
168.600000 -0.774526
168.650000 -0.702582
168.700000 -0.668323
168.750000 -0.668323
168.800000 -0.702582
168.850000 -0.767674
168.900000 -0.860173
168.950000 -0.959523
169.000000 -1.069152
169.050000 -1.189058
169.100000 -1.312391
169.150000 -1.415167
169.200000 -1.473407
169.250000 -1.500815
169.300000 -1.521370
169.350000 -1.535074
169.400000 -1.517944
169.450000 -1.452852
169.500000 -1.391186
169.550000 -1.350076
169.600000 -1.312391
169.650000 -1.254150
169.700000 -1.213039
169.750000 -1.206188
169.800000 -1.216465
169.850000 -1.230169
169.900000 -1.254150
169.950000 -1.288409
170.000000 -1.308964
170.050000 -1.319242
170.100000 -1.346649
170.150000 -1.394611
170.200000 -1.408315
170.250000 -1.374056
170.300000 -1.343223
170.350000 -1.315816
170.400000 -1.267854
170.450000 -1.216466
170.500000 -1.185632
170.550000 -1.141096
170.600000 -1.099986
170.650000 -1.072578
170.700000 -1.065726
170.750000 -1.062300
170.800000 -1.072578
170.850000 -1.076004
170.900000 -1.093134
170.950000 -1.158225
171.000000 -1.216466
171.050000 -1.219891
171.100000 -1.213039
171.150000 -1.209614
171.200000 -1.182207
171.250000 -1.130819
171.300000 -1.052023
171.350000 -0.921839
171.400000 -0.774526
171.450000 -0.678601
171.500000 -0.603232
171.550000 -0.510733
171.600000 -0.445640
171.650000 -0.428511
171.700000 -0.428511
171.750000 -0.438789
171.800000 -0.486751
171.850000 -0.558695
171.900000 -0.620361
171.950000 -0.682027
172.000000 -0.743693
172.050000 -0.771099
172.100000 -0.757397
172.150000 -0.723137
172.200000 -0.678600
172.250000 -0.634064
172.300000 -0.610083
172.350000 -0.596380
172.400000 -0.610083
172.450000 -0.668324
172.500000 -0.774526
172.550000 -0.914988
172.600000 -1.052023
172.650000 -1.182206
172.700000 -1.329520
172.750000 -1.452851
172.800000 -1.507666
172.850000 -1.528221
172.900000 -1.517944
172.950000 -1.445999
173.000000 -1.326094
173.050000 -1.192484
173.100000 -1.048597
173.150000 -0.880728
173.200000 -0.753970
173.250000 -0.685453
173.300000 -0.651194
173.350000 -0.661471
173.400000 -0.729989
173.450000 -0.815636
173.500000 -0.911561
173.550000 -1.041745
173.600000 -1.161652
173.650000 -1.237021
173.700000 -1.284983
173.750000 -1.326094
173.800000 -1.326094
173.850000 -1.278131
173.900000 -1.216466
173.950000 -1.154799
174.000000 -1.086282
174.050000 -1.024616
174.100000 -0.962949
174.150000 -0.901284
174.200000 -0.863599
174.250000 -0.843044
174.300000 -0.832766
174.350000 -0.846470
174.400000 -0.849895
174.450000 -0.815637
174.500000 -0.805358
174.550000 -0.832765
174.600000 -0.822488
174.650000 -0.764248
174.700000 -0.729989
174.750000 -0.706008
174.800000 -0.647768
174.850000 -0.565546
174.900000 -0.490177
174.950000 -0.414808
175.000000 -0.336011
175.050000 -0.270920
175.100000 -0.236661
175.150000 -0.246939
175.200000 -0.298327
175.250000 -0.363419
175.300000 -0.431937
175.350000 -0.524436
175.400000 -0.644341
175.450000 -0.726563
175.500000 -0.777951
175.550000 -0.829340
175.600000 -0.860173
175.650000 -0.829340
175.700000 -0.760822
175.750000 -0.716286
175.800000 -0.682026
175.850000 -0.630638
175.900000 -0.589527
175.950000 -0.579250
176.000000 -0.599805
176.050000 -0.630638
176.100000 -0.630638
176.150000 -0.634064
176.200000 -0.654620
176.250000 -0.675175
176.300000 -0.685452
176.350000 -0.682027
176.400000 -0.678601
176.450000 -0.692304
176.500000 -0.726563
176.550000 -0.788230
176.600000 -0.846469
176.650000 -0.911562
176.700000 -0.993783
176.750000 -1.089707
176.800000 -1.178780
176.850000 -1.243873
176.900000 -1.274706
176.950000 -1.281557
177.000000 -1.250724
177.050000 -1.199336
177.100000 -1.168503
177.150000 -1.141096
177.200000 -1.106837
177.250000 -1.076004
177.300000 -1.065726
177.350000 -1.076004
177.400000 -1.113688
177.450000 -1.151373
177.500000 -1.171928
177.550000 -1.189059
177.600000 -1.209614
177.650000 -1.226743
177.700000 -1.209614
177.750000 -1.178781
177.800000 -1.151374
177.850000 -1.110263
177.900000 -1.058875
177.950000 -1.007486
178.000000 -0.973227
178.050000 -0.949246
178.100000 -0.942394
178.150000 -0.949246
178.200000 -0.949246
178.250000 -0.925265
178.300000 -0.870451
178.350000 -0.798507
178.400000 -0.719711
178.450000 -0.630638
178.500000 -0.548417
178.550000 -0.493602
178.600000 -0.466195
178.650000 -0.449066
178.700000 -0.459344
178.750000 -0.500455
178.800000 -0.544991
178.850000 -0.610083
178.900000 -0.699156
178.950000 -0.767674
179.000000 -0.795081
179.050000 -0.815636
179.100000 -0.839618
179.150000 -0.832766
179.200000 -0.819062
179.250000 -0.832766
179.300000 -0.863598
179.350000 -0.911561
179.400000 -0.976653
179.450000 -1.062300
179.500000 -1.147948
179.550000 -1.237020
179.600000 -1.319242
179.650000 -1.391186
179.700000 -1.439149
179.750000 -1.459704
179.800000 -1.442574
179.850000 -1.411741
179.900000 -1.387760
179.950000 -1.336372
180.000000 -1.250724
180.050000 -1.189058
180.100000 -1.165077
180.150000 -1.141096
180.200000 -1.110263
180.250000 -1.117115
180.300000 -1.141096
180.350000 -1.151374
180.400000 -1.141096
180.450000 -1.113689
180.500000 -1.079430
180.550000 -1.052022
180.600000 -1.048597
180.650000 -1.052023
180.700000 -1.065726
180.750000 -1.086282
180.800000 -1.120540
180.850000 -1.171929
180.900000 -1.226743
180.950000 -1.267854
181.000000 -1.288409
181.050000 -1.284983
181.100000 -1.271280
181.150000 -1.243872
181.200000 -1.209613
181.250000 -1.168503
181.300000 -1.120540
181.350000 -1.086281
181.400000 -1.082856
181.450000 -1.089708
181.500000 -1.082856
181.550000 -1.089708
181.600000 -1.120541
181.650000 -1.165077
181.700000 -1.195910
181.750000 -1.206188
181.800000 -1.185632
181.850000 -1.165077
181.900000 -1.168503
181.950000 -1.178780
182.000000 -1.161651
182.050000 -1.141096
182.100000 -1.147948
182.150000 -1.182206
182.200000 -1.216466
182.250000 -1.257576
182.300000 -1.302113
182.350000 -1.346649
182.400000 -1.384334
182.450000 -1.398038
182.500000 -1.377483
182.550000 -1.329520
182.600000 -1.274706
182.650000 -1.189058
182.700000 -1.089707
182.750000 -1.007486
182.800000 -0.925264
182.850000 -0.819063
182.900000 -0.736840
182.950000 -0.699156
183.000000 -0.651194
183.050000 -0.613509
183.100000 -0.616935
183.150000 -0.644341
183.200000 -0.651194
183.250000 -0.664897
183.300000 -0.706008
183.350000 -0.757396
183.400000 -0.801933
183.450000 -0.843043
183.500000 -0.884154
183.550000 -0.942395
183.600000 -1.017764
183.650000 -1.072578
183.700000 -1.120541
183.750000 -1.175355
183.800000 -1.202762
183.850000 -1.199336
183.900000 -1.182206
183.950000 -1.154799
184.000000 -1.093133
184.050000 -1.028041
184.100000 -0.969801
184.150000 -0.891006
184.200000 -0.805358
184.250000 -0.740267
184.300000 -0.688878
184.350000 -0.630638
184.400000 -0.599805
184.450000 -0.606657
184.500000 -0.616934
184.550000 -0.647768
184.600000 -0.743693
184.650000 -0.856747
184.700000 -0.962950
184.750000 -1.096559
184.800000 -1.240446
184.850000 -1.367205
184.900000 -1.456277
184.950000 -1.497389
185.000000 -1.507666
185.050000 -1.480259
185.100000 -1.408316
185.150000 -1.261002
185.200000 -1.062300
185.250000 -0.870450
185.300000 -0.702582
185.350000 -0.527861
185.400000 -0.359993
185.450000 -0.267493
185.500000 -0.253791
185.550000 -0.277771
185.600000 -0.363419
185.650000 -0.524436
185.700000 -0.699156
185.750000 -0.860173
185.800000 -1.058875
185.850000 -1.247299
185.900000 -1.356927
185.950000 -1.394612
186.000000 -1.380908
186.050000 -1.288409
186.100000 -1.130818
186.150000 -0.938968
186.200000 -0.729989
186.250000 -0.541565
186.300000 -0.411382
186.350000 -0.329160
186.400000 -0.277772
186.450000 -0.298327
186.500000 -0.421659
186.550000 -0.610083
186.600000 -0.819062
186.650000 -1.052023
186.700000 -1.271280
186.750000 -1.439148
186.800000 -1.548777
186.850000 -1.583035
186.900000 -1.545351
186.950000 -1.439148
187.000000 -1.288409
187.050000 -1.103411
187.100000 -0.928690
187.150000 -0.795081
187.200000 -0.671749
187.250000 -0.592953
187.300000 -0.596379
187.350000 -0.661472
187.400000 -0.750544
187.450000 -0.887580
187.500000 -1.038320
187.550000 -1.154799
187.600000 -1.267854
187.650000 -1.363779
187.700000 -1.391185
187.750000 -1.398038
187.800000 -1.428871
187.850000 -1.408316
187.900000 -1.315816
187.950000 -1.254151
188.000000 -1.240447
188.050000 -1.185633
188.100000 -1.120541
188.150000 -1.099985
188.200000 -1.065727
188.250000 -0.993782
188.300000 -0.935543
188.350000 -0.884154
188.400000 -0.791655
188.450000 -0.706008
188.500000 -0.647768
188.550000 -0.592953
188.600000 -0.548416
188.650000 -0.551843
188.700000 -0.558695
188.750000 -0.575824
