time[ns] Raw_signal[mV]
-11.150000 -0.404460
-11.100000 -0.401034
-11.050000 -0.383905
-11.000000 -0.342794
-10.950000 -0.274276
-10.900000 -0.195481
-10.850000 -0.130389
-10.800000 -0.085853
-10.750000 -0.044742
-10.700000 -0.000205
-10.650000 0.006647
-10.600000 -0.017335
-10.550000 -0.041316
-10.500000 -0.065297
-10.450000 -0.116685
-10.400000 -0.174926
-10.350000 -0.212610
-10.300000 -0.250296
-10.250000 -0.294832
-10.200000 -0.301684
-10.150000 -0.257147
-10.100000 -0.171500
-10.050000 -0.065297
-10.000000 0.044332
-9.950000 0.177941
-9.900000 0.342383
-9.850000 0.496549
-9.800000 0.589048
-9.750000 0.660991
-9.700000 0.688399
-9.650000 0.660992
-9.600000 0.589048
-9.550000 0.486272
-9.500000 0.328680
-9.450000 0.126553
-9.400000 -0.068723
-9.350000 -0.240017
-9.300000 -0.359924
-9.250000 -0.435293
-9.200000 -0.466127
-9.150000 -0.425016
-9.100000 -0.322239
-9.050000 -0.195480
-9.000000 -0.061871
-8.950000 0.085442
-8.900000 0.215626
-8.850000 0.287570
-8.800000 0.328680
-8.750000 0.359514
-8.700000 0.332106
-8.650000 0.236181
-8.600000 0.136831
-8.550000 0.064887
-8.500000 -0.003631
-8.450000 -0.055019
-8.400000 -0.068723
-8.350000 -0.055020
-8.300000 -0.020761
-8.250000 0.027202
-8.200000 0.061461
-8.150000 0.085442
-8.100000 0.133405
-8.050000 0.147108
-8.000000 0.099146
-7.950000 0.040905
-7.900000 0.003221
-7.850000 -0.072149
-7.800000 -0.164648
-7.750000 -0.216036
-7.700000 -0.253721
-7.650000 -0.287980
-7.600000 -0.263999
-7.550000 -0.219462
-7.500000 -0.205759
-7.450000 -0.205758
-7.400000 -0.192055
-7.350000 -0.216036
-7.300000 -0.267425
-7.250000 -0.315387
-7.200000 -0.401034
-7.150000 -0.524366
-7.100000 -0.633995
-7.050000 -0.712790
-7.000000 -0.784735
-6.950000 -0.801863
-6.900000 -0.743623
-6.850000 -0.654551
-6.800000 -0.538070
-6.750000 -0.356497
-6.700000 -0.147518
-6.650000 0.040906
-6.600000 0.212200
-6.550000 0.373217
-6.500000 0.499975
-6.450000 0.554789
-6.400000 0.537660
-6.350000 0.479419
-6.300000 0.390346
-6.250000 0.287570
-6.200000 0.171089
-6.150000 0.082016
-6.100000 0.037480
-6.050000 0.010073
-6.000000 -0.013909
-5.950000 -0.000205
-5.900000 0.068313
-5.850000 0.147108
-5.800000 0.195071
-5.750000 0.215625
-5.700000 0.246459
-5.650000 0.256736
-5.600000 0.236181
-5.550000 0.201923
-5.500000 0.181367
-5.450000 0.171090
-5.400000 0.157386
-5.350000 0.164237
-5.300000 0.195071
-5.250000 0.225904
-5.200000 0.232755
-5.150000 0.239608
-5.100000 0.263589
-5.050000 0.263588
-5.000000 0.239607
-4.950000 0.215626
-4.900000 0.198496
-4.850000 0.150534
-4.800000 0.078591
-4.750000 0.013499
-4.700000 -0.055019
-4.650000 -0.147518
-4.600000 -0.233165
-4.550000 -0.277703
-4.500000 -0.311961
-4.450000 -0.356498
-4.400000 -0.373627
-4.350000 -0.346220
-4.300000 -0.329090
-4.250000 -0.318813
-4.200000 -0.277702
-4.150000 -0.212610
-4.100000 -0.164648
-4.050000 -0.113260
-4.000000 -0.072149
-3.950000 -0.079000
-3.900000 -0.120111
-3.850000 -0.171499
-3.800000 -0.250295
-3.750000 -0.363349
-3.700000 -0.479830
-3.650000 -0.606587
-3.600000 -0.729920
-3.550000 -0.808715
-3.500000 -0.808715
-3.450000 -0.764178
-3.400000 -0.657977
-3.350000 -0.476404
-3.300000 -0.322239
-3.250000 -0.250295
-3.200000 -0.113260
-3.150000 0.119701
-3.100000 0.225904
-3.050000 0.174515
-3.000000 0.191645
-2.950000 0.232755
-2.900000 0.068313
-2.850000 -0.174926
-2.800000 -0.325665
-2.750000 -0.517514
-2.700000 -0.671679
-2.650000 -0.565477
-2.600000 -0.425016
-2.550000 -0.486681
-2.500000 -0.428442
-2.450000 -0.137241
-2.400000 -0.020760
-2.350000 -0.055019
-2.300000 0.116275
-2.250000 0.280718
-2.200000 0.150534
-2.150000 0.047757
-2.100000 0.150534
-2.050000 0.075164
-2.000000 -0.270850
-1.950000 -0.507236
-1.900000 -0.503811
-1.850000 -0.414738
-1.800000 -0.291406
-1.750000 -0.188629
-1.700000 -0.150945
-1.650000 -0.017334
-1.600000 0.236181
-1.550000 0.397198
-1.500000 0.510253
-1.450000 0.794602
-1.400000 1.082376
-1.350000 1.168024
-1.300000 1.212560
-1.250000 1.260522
-1.200000 1.161172
-1.150000 1.099505
-1.100000 1.215986
-1.050000 1.126913
-1.000000 0.722658
-0.950000 0.520530
-0.900000 0.582196
-0.850000 0.462290
-0.800000 0.239607
-0.750000 0.243033
-0.700000 0.253311
-0.650000 0.105998
-0.600000 0.088868
-0.550000 0.229329
-0.500000 0.263588
-0.450000 0.260162
-0.400000 0.390346
-0.350000 0.503400
-0.300000 0.472568
-0.250000 0.417754
-0.200000 0.376642
-0.150000 0.304699
-0.100000 0.215626
-0.050000 0.150534
0.000000 0.123127
0.050000 0.133405
0.100000 0.109423
0.150000 0.044331
0.200000 0.092294
0.250000 0.246459
0.300000 0.277292
0.350000 0.188219
0.400000 0.249885
0.450000 0.448586
0.500000 0.520530
0.550000 0.499975
0.600000 0.554789
0.650000 0.643862
0.700000 0.688398
0.750000 0.804879
0.800000 1.116635
0.850000 1.603111
0.900000 2.308845
0.950000 3.377723
1.000000 4.902243
1.050000 6.974903
1.100000 9.732750
1.150000 13.257992
1.200000 17.547199
1.250000 22.552425
1.300000 28.232559
1.350000 34.495084
1.400000 41.151584
1.450000 48.013641
1.500000 55.033296
1.550000 62.138587
1.600000 69.113706
1.650000 75.783906
1.700000 82.135506
1.750000 88.106836
1.800000 93.485486
1.850000 98.161826
1.900000 102.183826
1.950000 105.513786
2.000000 108.024956
2.050000 109.641986
2.100000 110.419656
2.150000 110.443636
2.200000 109.662536
2.250000 108.007836
2.300000 105.541196
2.350000 102.457886
2.400000 98.819596
2.450000 94.677696
2.500000 90.237736
2.550000 85.609356
2.600000 80.761726
2.650000 75.715386
2.700000 70.631366
2.750000 65.540496
2.800000 60.401656
2.850000 55.334776
2.900000 50.541956
2.950000 46.091726
3.000000 42.038886
3.050000 38.547906
3.100000 35.738686
3.150000 33.607776
3.200000 32.168906
3.250000 31.494006
3.300000 31.552246
3.350000 32.179181
3.400000 33.248062
3.450000 34.700636
3.500000 36.451266
3.550000 38.304676
3.600000 40.096406
3.650000 41.771676
3.700000 43.258506
3.750000 44.447296
3.800000 45.303766
3.850000 45.879316
3.900000 46.136256
3.950000 46.012926
4.000000 45.577836
4.050000 44.858396
4.100000 43.823786
4.150000 42.477406
4.200000 40.863816
4.250000 38.996696
4.300000 36.886356
4.350000 34.549896
4.400000 32.045566
4.450000 29.455596
4.500000 26.807386
4.550000 24.128336
4.600000 21.534936
4.650000 19.177925
4.700000 17.074431
4.750000 15.224449
4.800000 13.734188
4.850000 12.675584
4.900000 12.004118
4.950000 11.688935
5.000000 11.730041
5.050000 12.065781
5.100000 12.655030
5.150000 13.456693
5.200000 14.391964
5.250000 15.406027
5.300000 16.468051
5.350000 17.509519
5.400000 18.455062
5.450000 19.297832
5.500000 20.044680
5.550000 20.657912
5.600000 21.106702
5.650000 21.404756
5.700000 21.541796
5.750000 21.459572
5.800000 21.158093
5.850000 20.681895
5.900000 20.054951
5.950000 19.260150
6.000000 18.307747
6.050000 17.256002
6.100000 16.142588
6.150000 14.984643
6.200000 13.806132
6.250000 12.651607
6.300000 11.548470
6.350000 10.510426
6.400000 9.554602
6.450000 8.681000
6.500000 7.879342
6.550000 7.156478
6.600000 6.536393
6.650000 6.022509
6.700000 5.614829
6.750000 5.316776
6.800000 5.142056
6.850000 5.100945
6.900000 5.196870
6.950000 5.412701
7.000000 5.697050
7.050000 6.025936
7.100000 6.440469
7.150000 6.920096
7.200000 7.379161
7.250000 7.790265
7.300000 8.187672
7.350000 8.516558
7.400000 8.698126
7.450000 8.780349
7.500000 8.818032
7.550000 8.783778
7.600000 8.636468
7.650000 8.424060
7.700000 8.194524
7.750000 7.961563
7.800000 7.725177
7.850000 7.457957
7.900000 7.159904
7.950000 6.878982
8.000000 6.615189
8.050000 6.310284
8.100000 5.943714
8.150000 5.553162
8.200000 5.128352
8.250000 4.652153
8.300000 4.134844
8.350000 3.624387
8.400000 3.134484
8.450000 2.654860
8.500000 2.202642
8.550000 1.801813
8.600000 1.466076
8.650000 1.215986
8.700000 1.068672
8.750000 1.010432
8.800000 1.013858
8.850000 1.061821
8.900000 1.171449
8.950000 1.325614
9.000000 1.507186
9.050000 1.688758
9.100000 1.877183
9.150000 2.075884
9.200000 2.274586
9.250000 2.459584
9.300000 2.648008
9.350000 2.839858
9.400000 3.004300
9.450000 3.151614
9.500000 3.312630
9.550000 3.473647
9.600000 3.607257
9.650000 3.720311
9.700000 3.805959
9.750000 3.836792
9.800000 3.795681
9.850000 3.682626
9.900000 3.487351
9.950000 3.196151
10.000000 2.791895
10.050000 2.319122
10.100000 1.832646
10.150000 1.335892
10.200000 0.828860
10.250000 0.342384
10.300000 -0.085852
10.350000 -0.462700
10.400000 -0.781308
10.450000 -1.021120
10.500000 -1.182137
10.550000 -1.284914
10.600000 -1.322599
10.650000 -1.298617
10.700000 -1.219822
10.750000 -1.106768
10.800000 -0.969732
10.850000 -0.801864
10.900000 -0.589459
10.950000 -0.353072
11.000000 -0.123537
11.050000 0.112849
11.100000 0.356087
11.150000 0.571918
11.200000 0.743213
11.250000 0.904230
11.300000 1.037839
11.350000 1.116635
11.400000 1.137190
11.450000 1.116635
11.500000 1.068672
11.550000 0.986451
11.600000 0.856268
11.650000 0.688399
11.700000 0.503400
11.750000 0.287569
11.800000 0.034054
11.850000 -0.212610
11.900000 -0.462700
11.950000 -0.750475
12.000000 -1.024547
12.050000 -1.230100
12.100000 -1.411672
12.150000 -1.586392
12.200000 -1.699447
12.250000 -1.757686
12.300000 -1.822779
12.350000 -1.887871
12.400000 -1.918704
12.450000 -1.963240
12.500000 -2.048887
12.550000 -2.113980
12.600000 -2.113979
12.650000 -2.120832
12.700000 -2.110554
12.750000 -2.014629
12.800000 -1.867316
12.850000 -1.709724
12.900000 -1.507597
12.950000 -1.223248
13.000000 -0.914918
13.050000 -0.592884
13.100000 -0.260573
13.150000 0.034053
13.200000 0.225903
13.250000 0.328680
13.300000 0.342384
13.350000 0.267014
13.400000 0.105998
13.450000 -0.089279
13.500000 -0.281128
13.550000 -0.496959
13.600000 -0.753901
13.650000 -0.959454
13.700000 -1.051953
13.750000 -1.127323
13.800000 -1.226673
13.850000 -1.257507
13.900000 -1.267784
13.950000 -1.350006
14.000000 -1.456208
14.050000 -1.535004
14.100000 -1.654910
14.150000 -1.802223
14.200000 -1.898148
14.250000 -1.970092
14.300000 -2.045462
14.350000 -2.042036
14.400000 -1.970092
14.450000 -1.915278
14.500000 -1.822779
14.550000 -1.661762
14.600000 -1.545281
14.650000 -1.500745
14.700000 -1.425375
14.750000 -1.332877
14.800000 -1.305469
14.850000 -1.284914
14.900000 -1.219822
14.950000 -1.130749
15.000000 -1.014269
15.050000 -0.856678
15.100000 -0.675106
15.150000 -0.483255
15.200000 -0.291406
15.250000 -0.144092
15.300000 -0.048168
15.350000 0.020350
15.400000 0.023776
15.450000 -0.068723
15.500000 -0.192055
15.550000 -0.342794
15.600000 -0.586032
15.650000 -0.870381
15.700000 -1.120472
15.750000 -1.387690
15.800000 -1.692595
15.850000 -1.932407
15.900000 -2.069443
15.950000 -2.199627
16.000000 -2.333236
16.050000 -2.367495
16.100000 -2.312681
16.150000 -2.244163
16.200000 -2.165368
16.250000 -2.052313
16.300000 -1.911852
16.350000 -1.781668
16.400000 -1.678891
16.450000 -1.582967
16.500000 -1.493893
16.550000 -1.432227
16.600000 -1.415098
16.650000 -1.408246
16.700000 -1.394543
16.750000 -1.394542
16.800000 -1.380839
16.850000 -1.312321
16.900000 -1.209544
16.950000 -1.096490
17.000000 -0.952602
17.050000 -0.812141
17.100000 -0.705938
17.150000 -0.620291
17.200000 -0.579181
17.250000 -0.630569
17.300000 -0.757327
17.350000 -0.914918
17.400000 -1.123898
17.450000 -1.377413
17.500000 -1.606948
17.550000 -1.822779
17.600000 -2.052314
17.650000 -2.251015
17.700000 -2.381199
17.750000 -2.480549
17.800000 -2.549068
17.850000 -2.566197
17.900000 -2.559346
17.950000 -2.545642
18.000000 -2.514808
18.050000 -2.442864
18.100000 -2.343514
18.150000 -2.230460
18.200000 -2.120832
18.250000 -1.997499
18.300000 -1.829630
18.350000 -1.658335
18.400000 -1.500745
18.450000 -1.332876
18.500000 -1.178711
18.550000 -1.082787
18.600000 -1.038250
18.650000 -1.027972
18.700000 -1.069083
18.750000 -1.154731
18.800000 -1.260933
18.850000 -1.415098
18.900000 -1.586392
18.950000 -1.685743
19.000000 -1.743983
19.050000 -1.829631
19.100000 -1.894723
19.150000 -1.898149
19.200000 -1.894723
19.250000 -1.911852
19.300000 -1.901574
19.350000 -1.887870
19.400000 -1.881019
19.450000 -1.867315
19.500000 -1.836483
19.550000 -1.833057
19.600000 -1.867315
19.650000 -1.918703
19.700000 -1.963240
19.750000 -2.021480
19.800000 -2.107127
19.850000 -2.213330
19.900000 -2.309255
19.950000 -2.394903
20.000000 -2.494253
20.050000 -2.545641
20.100000 -2.507956
20.150000 -2.432587
20.200000 -2.333236
20.250000 -2.165368
20.300000 -1.905000
20.350000 -1.627503
20.400000 -1.367135
20.450000 -1.123897
20.500000 -0.908066
20.550000 -0.760753
20.600000 -0.692235
20.650000 -0.664828
20.700000 -0.678531
20.750000 -0.743623
20.800000 -0.863530
20.850000 -0.983436
20.900000 -1.072509
20.950000 -1.144453
21.000000 -1.216396
21.050000 -1.260933
21.100000 -1.284914
21.150000 -1.363710
21.200000 -1.500745
21.250000 -1.620651
21.300000 -1.709724
21.350000 -1.853612
21.400000 -2.062591
21.450000 -2.251015
21.500000 -2.391477
21.550000 -2.535364
21.600000 -2.644993
21.650000 -2.655270
21.700000 -2.590178
21.750000 -2.483975
21.800000 -2.343514
21.850000 -2.141386
21.900000 -1.874167
21.950000 -1.606947
22.000000 -1.397968
22.050000 -1.230100
22.100000 -1.051953
22.150000 -0.890937
22.200000 -0.822418
22.250000 -0.805289
22.300000 -0.812141
22.350000 -0.866955
22.400000 -0.938900
22.450000 -0.980010
22.500000 -1.021121
22.550000 -1.069083
22.600000 -1.086213
22.650000 -1.075934
22.700000 -1.062231
22.750000 -1.065657
22.800000 -1.099916
22.850000 -1.151305
22.900000 -1.199267
22.950000 -1.271211
23.000000 -1.408246
23.050000 -1.576115
23.100000 -1.702873
23.150000 -1.822779
23.200000 -1.980369
23.250000 -2.124257
23.300000 -2.185923
23.350000 -2.196201
23.400000 -2.199626
23.450000 -2.168794
23.500000 -2.110553
23.550000 -2.086573
23.600000 -2.072869
23.650000 -2.000925
23.700000 -1.898149
23.750000 -1.822778
23.800000 -1.761113
23.850000 -1.668613
23.900000 -1.565837
23.950000 -1.487042
24.000000 -1.418524
24.050000 -1.350006
24.100000 -1.305469
24.150000 -1.312321
24.200000 -1.346580
24.250000 -1.387691
24.300000 -1.432227
24.350000 -1.493893
24.400000 -1.558986
24.450000 -1.593244
24.500000 -1.634355
24.550000 -1.696021
24.600000 -1.743984
24.650000 -1.785094
24.700000 -1.850186
24.750000 -1.928982
24.800000 -2.018055
24.850000 -2.144812
24.900000 -2.274996
24.950000 -2.350366
25.000000 -2.415458
25.050000 -2.490828
25.100000 -2.531938
25.150000 -2.542215
25.200000 -2.552493
25.250000 -2.525087
25.300000 -2.453143
25.350000 -2.384625
25.400000 -2.298977
25.450000 -2.148239
25.500000 -1.966667
25.550000 -1.829631
25.600000 -1.713150
25.650000 -1.586393
25.700000 -1.459634
25.750000 -1.377413
25.800000 -1.339728
25.850000 -1.326024
25.900000 -1.315747
25.950000 -1.319173
26.000000 -1.360284
26.050000 -1.449357
26.100000 -1.541855
26.150000 -1.620651
26.200000 -1.716576
26.250000 -1.833056
26.300000 -1.908426
26.350000 -1.949537
26.400000 -1.997499
26.450000 -2.059165
26.500000 -2.134534
26.550000 -2.223608
26.600000 -2.309255
26.650000 -2.394902
26.700000 -2.483975
26.750000 -2.573049
26.800000 -2.648418
26.850000 -2.720362
26.900000 -2.782027
26.950000 -2.799158
27.000000 -2.792306
27.050000 -2.768324
27.100000 -2.696381
27.150000 -2.569623
27.200000 -2.429161
27.250000 -2.278422
27.300000 -2.079720
27.350000 -1.870742
27.400000 -1.702873
27.450000 -1.555559
27.500000 -1.401394
27.550000 -1.274636
27.600000 -1.192415
27.650000 -1.154730
27.700000 -1.165008
27.750000 -1.216396
27.800000 -1.305470
27.850000 -1.415098
27.900000 -1.507596
27.950000 -1.582966
28.000000 -1.634355
28.050000 -1.654910
28.100000 -1.665188
28.150000 -1.685743
28.200000 -1.706298
28.250000 -1.737132
28.300000 -1.815927
28.350000 -1.928982
28.400000 -2.066017
28.450000 -2.209904
28.500000 -2.357217
28.550000 -2.497679
28.600000 -2.634714
28.650000 -2.723788
28.700000 -2.720362
28.750000 -2.662122
28.800000 -2.583327
28.850000 -2.470272
28.900000 -2.319533
28.950000 -2.182497
29.000000 -2.048887
29.050000 -1.887871
29.100000 -1.733705
29.150000 -1.624077
29.200000 -1.545281
29.250000 -1.483615
29.300000 -1.452783
29.350000 -1.442505
29.400000 -1.476764
29.450000 -1.545281
29.500000 -1.603522
29.550000 -1.651484
29.600000 -1.747409
29.650000 -1.877593
29.700000 -1.970092
29.750000 -2.031758
29.800000 -2.089998
29.850000 -2.110553
29.900000 -2.083147
29.950000 -2.045461
30.000000 -1.970092
30.050000 -1.850186
30.100000 -1.754260
30.150000 -1.696020
30.200000 -1.641206
30.250000 -1.610374
30.300000 -1.630929
30.350000 -1.699447
30.400000 -1.809075
30.450000 -1.939259
30.500000 -2.035183
30.550000 -2.107127
30.600000 -2.196201
30.650000 -2.278422
30.700000 -2.295551
30.750000 -2.257867
30.800000 -2.192775
30.850000 -2.079720
30.900000 -1.956388
30.950000 -1.857038
31.000000 -1.757687
31.050000 -1.641207
31.100000 -1.565837
31.150000 -1.531578
31.200000 -1.521301
31.250000 -1.545281
31.300000 -1.620651
31.350000 -1.720002
31.400000 -1.850185
31.450000 -1.994073
31.500000 -2.141386
31.550000 -2.295551
31.600000 -2.456568
31.650000 -2.552493
31.700000 -2.597030
31.750000 -2.662122
31.800000 -2.716936
31.850000 -2.713510
31.900000 -2.692955
31.950000 -2.641566
32.000000 -2.552493
32.050000 -2.473698
32.100000 -2.405180
32.150000 -2.288700
32.200000 -2.182497
32.250000 -2.137961
32.300000 -2.089998
32.350000 -2.011203
32.400000 -2.000925
32.450000 -2.055739
32.500000 -2.079720
32.550000 -2.103702
32.600000 -2.182497
32.650000 -2.240737
32.700000 -2.247589
32.750000 -2.264719
32.800000 -2.298978
32.850000 -2.302404
32.900000 -2.295552
32.950000 -2.288699
33.000000 -2.268145
33.050000 -2.230459
33.100000 -2.182498
33.150000 -2.120832
33.200000 -2.076294
33.250000 -2.059165
33.300000 -2.035184
33.350000 -1.990647
33.400000 -1.966667
33.450000 -1.970092
33.500000 -1.963240
33.550000 -1.939259
33.600000 -1.918704
33.650000 -1.925555
33.700000 -1.956388
33.750000 -2.007777
33.800000 -2.062591
33.850000 -2.137961
33.900000 -2.237311
33.950000 -2.319533
34.000000 -2.374347
34.050000 -2.415458
34.100000 -2.453143
34.150000 -2.436013
34.200000 -2.353791
34.250000 -2.251015
34.300000 -2.144812
34.350000 -2.021480
34.400000 -1.915278
34.450000 -1.863889
34.500000 -1.857037
34.550000 -1.860463
34.600000 -1.925555
34.650000 -2.055740
34.700000 -2.209904
34.750000 -2.336662
34.800000 -2.456568
34.850000 -2.579901
34.900000 -2.665548
34.950000 -2.692954
35.000000 -2.692955
35.050000 -2.679251
35.100000 -2.641567
35.150000 -2.603882
35.200000 -2.579900
35.250000 -2.545642
35.300000 -2.518234
35.350000 -2.538790
35.400000 -2.576474
35.450000 -2.576475
35.500000 -2.552493
35.550000 -2.514808
35.600000 -2.439439
35.650000 -2.333237
35.700000 -2.223608
35.750000 -2.120831
35.800000 -2.028332
35.850000 -1.983795
35.900000 -1.973517
35.950000 -2.011203
36.000000 -2.110553
36.050000 -2.251015
36.100000 -2.367495
36.150000 -2.483976
36.200000 -2.651844
36.250000 -2.836842
36.300000 -2.960174
36.350000 -3.035544
36.400000 -3.093783
36.450000 -3.104061
36.500000 -3.042396
36.550000 -2.953323
36.600000 -2.853971
36.650000 -2.730639
36.700000 -2.590178
36.750000 -2.477124
36.800000 -2.391476
36.850000 -2.298977
36.900000 -2.192774
36.950000 -2.120832
37.000000 -2.079720
37.050000 -2.042035
37.100000 -2.014629
37.150000 -2.018054
37.200000 -2.038610
37.250000 -2.076295
37.300000 -2.124257
37.350000 -2.179071
37.400000 -2.244163
37.450000 -2.346940
37.500000 -2.456568
37.550000 -2.538790
37.600000 -2.631289
37.650000 -2.734065
37.700000 -2.809435
37.750000 -2.847120
37.800000 -2.877953
37.850000 -2.895082
37.900000 -2.871101
37.950000 -2.857398
38.000000 -2.860824
38.050000 -2.816287
38.100000 -2.723787
38.150000 -2.624437
38.200000 -2.525087
38.250000 -2.425735
38.300000 -2.350365
38.350000 -2.302403
38.400000 -2.254441
38.450000 -2.244163
38.500000 -2.298978
38.550000 -2.388051
38.600000 -2.497679
38.650000 -2.658696
38.700000 -2.833417
38.750000 -2.987581
38.800000 -3.148599
38.850000 -3.292486
38.900000 -3.330170
38.950000 -3.265078
39.000000 -3.141746
39.050000 -2.960174
39.100000 -2.692954
39.150000 -2.391476
39.200000 -2.117405
39.250000 -1.884445
39.300000 -1.682317
39.350000 -1.528152
39.400000 -1.452783
39.450000 -1.463060
39.500000 -1.535004
39.550000 -1.654910
39.600000 -1.826204
39.650000 -2.035184
39.700000 -2.209905
39.750000 -2.336663
39.800000 -2.470272
39.850000 -2.600456
39.900000 -2.672399
39.950000 -2.686103
40.000000 -2.713510
40.050000 -2.788880
40.100000 -2.871101
40.150000 -2.943045
40.200000 -3.032118
40.250000 -3.148598
40.300000 -3.261653
40.350000 -3.323318
40.400000 -3.354152
40.450000 -3.340449
40.500000 -3.237671
40.550000 -3.045822
40.600000 -2.812860
40.650000 -2.525086
40.700000 -2.213330
40.750000 -1.939259
40.800000 -1.743984
40.850000 -1.610374
40.900000 -1.579540
40.950000 -1.675465
41.000000 -1.877593
41.050000 -2.144812
41.100000 -2.439439
41.150000 -2.747769
41.200000 -3.059525
41.250000 -3.337022
41.300000 -3.525446
41.350000 -3.611094
41.400000 -3.617946
41.450000 -3.549427
41.500000 -3.391836
41.550000 -3.206838
41.600000 -3.042396
41.650000 -2.901935
41.700000 -2.778602
41.750000 -2.696381
41.800000 -2.682678
41.850000 -2.713510
41.900000 -2.768325
41.950000 -2.860824
42.000000 -2.956748
42.050000 -3.025266
42.100000 -3.059525
42.150000 -3.076655
42.200000 -3.052673
42.250000 -3.001285
42.300000 -2.922490
42.350000 -2.802583
42.400000 -2.638141
42.450000 -2.470272
42.500000 -2.309255
42.550000 -2.151664
42.600000 -2.004351
42.650000 -1.894723
42.700000 -1.798798
42.750000 -1.740557
42.800000 -1.764539
42.850000 -1.863890
42.900000 -1.966666
42.950000 -2.083147
43.000000 -2.251015
43.050000 -2.432587
43.100000 -2.603882
43.150000 -2.764899
43.200000 -2.895082
43.250000 -3.001285
43.300000 -3.080080
43.350000 -3.100636
43.400000 -3.069802
43.450000 -3.014989
43.500000 -2.936193
43.550000 -2.836842
43.600000 -2.747769
43.650000 -2.696381
43.700000 -2.658696
43.750000 -2.638141
43.800000 -2.655270
43.850000 -2.720362
43.900000 -2.799158
43.950000 -2.877953
44.000000 -2.956748
44.050000 -3.004711
44.100000 -3.011563
44.150000 -2.977304
44.200000 -2.912211
44.250000 -2.806009
44.300000 -2.668974
44.350000 -2.535364
44.400000 -2.418883
44.450000 -2.309255
44.500000 -2.213330
44.550000 -2.158516
44.600000 -2.179071
44.650000 -2.240737
44.700000 -2.309255
44.750000 -2.401754
44.800000 -2.538789
44.850000 -2.631289
44.900000 -2.651844
44.950000 -2.655270
45.000000 -2.644992
45.050000 -2.569623
45.100000 -2.459994
45.150000 -2.364069
45.200000 -2.274996
45.250000 -2.175646
45.300000 -2.096850
45.350000 -2.069442
45.400000 -2.086572
45.450000 -2.134535
45.500000 -2.196201
45.550000 -2.274997
45.600000 -2.364070
45.650000 -2.408606
45.700000 -2.405180
45.750000 -2.394902
45.800000 -2.388050
45.850000 -2.319533
45.900000 -2.196201
45.950000 -2.100276
46.000000 -2.014629
46.050000 -1.911851
46.100000 -1.843334
46.150000 -1.836482
46.200000 -1.836482
46.250000 -1.819352
46.300000 -1.819353
46.350000 -1.863890
46.400000 -1.932408
46.450000 -1.980370
46.500000 -2.021480
46.550000 -2.093424
46.600000 -2.172219
46.650000 -2.209904
46.700000 -2.257867
46.750000 -2.357218
46.800000 -2.425736
46.850000 -2.432587
46.900000 -2.449717
46.950000 -2.504531
47.000000 -2.521661
47.050000 -2.514808
47.100000 -2.535364
47.150000 -2.573049
47.200000 -2.590179
47.250000 -2.617585
47.300000 -2.658696
47.350000 -2.692955
47.400000 -2.740917
47.450000 -2.778602
47.500000 -2.782028
47.550000 -2.768324
47.600000 -2.758047
47.650000 -2.710084
47.700000 -2.638141
47.750000 -2.555919
47.800000 -2.446290
47.850000 -2.322958
47.900000 -2.233885
47.950000 -2.158516
48.000000 -2.072869
48.050000 -2.007777
48.100000 -1.959814
48.150000 -1.905000
48.200000 -1.867315
48.250000 -1.860464
48.300000 -1.815927
48.350000 -1.757686
48.400000 -1.743983
48.450000 -1.740558
48.500000 -1.685743
48.550000 -1.627503
48.600000 -1.620651
48.650000 -1.600096
48.700000 -1.548708
48.750000 -1.517874
48.800000 -1.497319
48.850000 -1.487041
48.900000 -1.500745
48.950000 -1.531578
49.000000 -1.576115
49.050000 -1.654910
49.100000 -1.761113
49.150000 -1.857037
49.200000 -1.973517
49.250000 -2.107128
49.300000 -2.220182
49.350000 -2.309255
49.400000 -2.418883
49.450000 -2.518234
49.500000 -2.566197
49.550000 -2.607308
49.600000 -2.638141
49.650000 -2.607308
49.700000 -2.542216
49.750000 -2.514809
49.800000 -2.477124
49.850000 -2.364069
49.900000 -2.230459
49.950000 -2.137960
50.000000 -2.072869
50.050000 -2.011203
50.100000 -1.949537
50.150000 -1.915278
50.200000 -1.942685
50.250000 -2.018055
50.300000 -2.076295
50.350000 -2.107127
50.400000 -2.141386
50.450000 -2.155090
50.500000 -2.117405
50.550000 -2.028333
50.600000 -1.915278
50.650000 -1.778243
50.700000 -1.651484
50.750000 -1.569262
50.800000 -1.507597
50.850000 -1.469912
50.900000 -1.480190
50.950000 -1.541855
51.000000 -1.648058
51.050000 -1.785094
51.100000 -1.918703
51.150000 -2.042036
51.200000 -2.179071
51.250000 -2.298977
51.300000 -2.364069
51.350000 -2.429162
51.400000 -2.497679
51.450000 -2.501105
51.500000 -2.446291
51.550000 -2.401754
51.600000 -2.343514
51.650000 -2.247589
51.700000 -2.141387
51.750000 -2.021481
51.800000 -1.867315
51.850000 -1.709724
51.900000 -1.572689
51.950000 -1.452783
52.000000 -1.370562
52.050000 -1.343155
52.100000 -1.336302
52.150000 -1.339729
52.200000 -1.384265
52.250000 -1.456209
52.300000 -1.517874
52.350000 -1.582966
52.400000 -1.644632
52.450000 -1.702872
52.500000 -1.750835
52.550000 -1.785094
52.600000 -1.761112
52.650000 -1.716576
52.700000 -1.699446
52.750000 -1.689169
52.800000 -1.665188
52.850000 -1.651484
52.900000 -1.675466
52.950000 -1.720002
53.000000 -1.795371
53.050000 -1.881018
53.100000 -1.959814
53.150000 -2.028332
53.200000 -2.103702
53.250000 -2.189349
53.300000 -2.264718
53.350000 -2.322958
53.400000 -2.343514
53.450000 -2.336663
53.500000 -2.305829
53.550000 -2.285274
53.600000 -2.278422
53.650000 -2.264719
53.700000 -2.223608
53.750000 -2.206479
53.800000 -2.233886
53.850000 -2.274996
53.900000 -2.295552
53.950000 -2.322958
54.000000 -2.370921
54.050000 -2.394902
54.100000 -2.381198
54.150000 -2.374347
54.200000 -2.391476
54.250000 -2.377773
54.300000 -2.322958
54.350000 -2.264719
54.400000 -2.230459
54.450000 -2.199627
54.500000 -2.185923
54.550000 -2.203053
54.600000 -2.244164
54.650000 -2.278422
54.700000 -2.285274
54.750000 -2.274996
54.800000 -2.261293
54.850000 -2.240738
54.900000 -2.192775
54.950000 -2.144812
55.000000 -2.131108
55.050000 -2.110554
55.100000 -2.072869
55.150000 -2.079720
55.200000 -2.151664
55.250000 -2.223608
55.300000 -2.281848
55.350000 -2.367495
55.400000 -2.463421
55.450000 -2.521660
55.500000 -2.559345
55.550000 -2.603882
55.600000 -2.644992
55.650000 -2.665548
55.700000 -2.675825
55.750000 -2.675825
55.800000 -2.658696
55.850000 -2.634715
55.900000 -2.624437
55.950000 -2.641567
56.000000 -2.651844
56.050000 -2.641567
56.100000 -2.600456
56.150000 -2.528512
56.200000 -2.439439
56.250000 -2.333236
56.300000 -2.192775
56.350000 -2.042036
56.400000 -1.915277
56.450000 -1.815927
56.500000 -1.733705
56.550000 -1.685743
56.600000 -1.675465
56.650000 -1.699447
56.700000 -1.743983
56.750000 -1.785094
56.800000 -1.812501
56.850000 -1.833056
56.900000 -1.857038
56.950000 -1.860464
57.000000 -1.836482
57.050000 -1.778242
57.100000 -1.723428
57.150000 -1.723428
57.200000 -1.754261
57.250000 -1.771391
57.300000 -1.795371
57.350000 -1.853612
57.400000 -1.928982
57.450000 -2.014628
57.500000 -2.113980
57.550000 -2.189349
57.600000 -2.247589
57.650000 -2.340088
57.700000 -2.429161
57.750000 -2.456569
57.800000 -2.480550
57.850000 -2.552494
57.900000 -2.621012
57.950000 -2.662122
58.000000 -2.699807
58.050000 -2.740917
58.100000 -2.771751
58.150000 -2.778602
58.200000 -2.751194
58.250000 -2.703233
58.300000 -2.682678
58.350000 -2.665548
58.400000 -2.614160
58.450000 -2.590178
58.500000 -2.603881
58.550000 -2.614160
58.600000 -2.617586
58.650000 -2.675825
58.700000 -2.754620
58.750000 -2.816287
58.800000 -2.881379
58.850000 -2.949897
58.900000 -2.967026
58.950000 -2.949896
59.000000 -2.936193
59.050000 -2.908786
59.100000 -2.840268
59.150000 -2.771750
59.200000 -2.734065
59.250000 -2.699807
59.300000 -2.651844
59.350000 -2.621011
59.400000 -2.617585
59.450000 -2.665548
59.500000 -2.737492
59.550000 -2.812861
59.600000 -2.905360
59.650000 -3.014989
59.700000 -3.114339
59.750000 -3.169154
59.800000 -3.206838
59.850000 -3.210264
59.900000 -3.158876
59.950000 -3.062951
60.000000 -2.960174
60.050000 -2.829990
60.100000 -2.682677
60.150000 -2.569622
60.200000 -2.470272
60.250000 -2.364069
60.300000 -2.288700
60.350000 -2.281848
60.400000 -2.298978
60.450000 -2.319533
60.500000 -2.343514
60.550000 -2.381199
60.600000 -2.415457
60.650000 -2.456568
60.700000 -2.514808
60.750000 -2.552493
60.800000 -2.576475
60.850000 -2.621011
60.900000 -2.689528
60.950000 -2.751195
61.000000 -2.819712
61.050000 -2.915638
61.100000 -3.004711
61.150000 -3.042396
61.200000 -3.083507
61.250000 -3.145172
61.300000 -3.186283
61.350000 -3.186283
61.400000 -3.172579
61.450000 -3.145172
61.500000 -3.076654
61.550000 -2.973877
61.600000 -2.860823
61.650000 -2.754621
61.700000 -2.665547
61.750000 -2.569623
61.800000 -2.446291
61.850000 -2.319533
61.900000 -2.244163
61.950000 -2.203052
62.000000 -2.168794
62.050000 -2.158516
62.100000 -2.172219
62.150000 -2.182497
62.200000 -2.206479
62.250000 -2.261293
62.300000 -2.312681
62.350000 -2.336662
62.400000 -2.370921
62.450000 -2.432587
62.500000 -2.477123
62.550000 -2.511382
62.600000 -2.583326
62.650000 -2.686103
62.700000 -2.768324
62.750000 -2.853972
62.800000 -2.967026
62.850000 -3.069803
62.900000 -3.145172
62.950000 -3.217116
63.000000 -3.247949
63.050000 -3.210264
63.100000 -3.138321
63.150000 -3.052674
63.200000 -2.943044
63.250000 -2.833416
63.300000 -2.737492
63.350000 -2.651844
63.400000 -2.586752
63.450000 -2.573049
63.500000 -2.590178
63.550000 -2.610733
63.600000 -2.655270
63.650000 -2.737491
63.700000 -2.829990
63.750000 -2.908786
63.800000 -2.963600
63.850000 -2.997859
63.900000 -3.014989
63.950000 -3.014989
64.000000 -2.987581
64.050000 -2.908786
64.100000 -2.792305
64.150000 -2.679251
64.200000 -2.562771
64.250000 -2.418884
64.300000 -2.257867
64.350000 -2.093424
64.400000 -1.942685
64.450000 -1.791945
64.500000 -1.651484
64.550000 -1.558986
64.600000 -1.558986
64.650000 -1.606948
64.700000 -1.668614
64.750000 -1.774816
64.800000 -1.905000
64.850000 -2.014629
64.900000 -2.089998
64.950000 -2.144812
65.000000 -2.192775
65.050000 -2.213330
65.100000 -2.182497
65.150000 -2.127683
65.200000 -2.076295
65.250000 -2.007777
65.300000 -1.894722
65.350000 -1.805649
65.400000 -1.771391
65.450000 -1.737131
65.500000 -1.696021
65.550000 -1.699447
65.600000 -1.740557
65.650000 -1.774816
65.700000 -1.819353
65.750000 -1.905000
65.800000 -2.021481
65.850000 -2.151664
65.900000 -2.281848
65.950000 -2.415457
66.000000 -2.559345
66.050000 -2.716936
66.100000 -2.843694
66.150000 -2.946471
66.200000 -3.035544
66.250000 -3.080080
66.300000 -3.052673
66.350000 -2.970451
66.400000 -2.867675
66.450000 -2.768324
66.500000 -2.675826
66.550000 -2.593604
66.600000 -2.525086
66.650000 -2.477124
66.700000 -2.422309
66.750000 -2.350365
66.800000 -2.281848
66.850000 -2.233886
66.900000 -2.137961
66.950000 -2.007777
67.000000 -1.894722
67.050000 -1.788520
67.100000 -1.668614
67.150000 -1.548707
67.200000 -1.473338
67.250000 -1.456209
67.300000 -1.514449
67.350000 -1.627503
67.400000 -1.774816
67.450000 -1.959814
67.500000 -2.179072
67.550000 -2.384625
67.600000 -2.562771
67.650000 -2.727214
67.700000 -2.836842
67.750000 -2.860823
67.800000 -2.850546
67.850000 -2.829990
67.900000 -2.734065
67.950000 -2.562771
68.000000 -2.401754
68.050000 -2.257866
68.100000 -2.076294
68.150000 -1.901574
68.200000 -1.781668
68.250000 -1.658336
68.300000 -1.531578
68.350000 -1.469912
68.400000 -1.500745
68.450000 -1.565837
68.500000 -1.665187
68.550000 -1.819353
68.600000 -2.011203
68.650000 -2.206478
68.700000 -2.391477
68.750000 -2.562771
68.800000 -2.706658
68.850000 -2.816287
68.900000 -2.874527
68.950000 -2.857398
69.000000 -2.785454
69.050000 -2.689529
69.100000 -2.555919
69.150000 -2.384625
69.200000 -2.196201
69.250000 -2.018054
69.300000 -1.843334
69.350000 -1.696021
69.400000 -1.603522
69.450000 -1.548708
69.500000 -1.504171
69.550000 -1.511023
69.600000 -1.582966
69.650000 -1.661762
69.700000 -1.733706
69.750000 -1.829630
69.800000 -1.932407
69.850000 -2.021480
69.900000 -2.093424
69.950000 -2.151664
70.000000 -2.168793
70.050000 -2.165368
70.100000 -2.182498
70.150000 -2.223608
70.200000 -2.240738
70.250000 -2.227034
70.300000 -2.220181
70.350000 -2.237311
70.400000 -2.251015
70.450000 -2.254441
70.500000 -2.233885
70.550000 -2.216756
70.600000 -2.206478
70.650000 -2.192774
70.700000 -2.148238
70.750000 -2.117405
70.800000 -2.124257
70.850000 -2.141386
70.900000 -2.124257
70.950000 -2.113980
71.000000 -2.110553
71.050000 -2.086572
71.100000 -2.038610
71.150000 -1.997499
71.200000 -1.952963
71.250000 -1.901574
71.300000 -1.870741
71.350000 -1.874167
71.400000 -1.887871
71.450000 -1.925556
71.500000 -2.024906
71.550000 -2.165368
71.600000 -2.312681
71.650000 -2.466846
71.700000 -2.641567
71.750000 -2.802584
71.800000 -2.895082
71.850000 -2.919064
71.900000 -2.901934
71.950000 -2.857398
72.000000 -2.754620
72.050000 -2.600456
72.100000 -2.425735
72.150000 -2.278422
72.200000 -2.161942
72.250000 -2.059165
72.300000 -1.970092
72.350000 -1.928981
72.400000 -1.942685
72.450000 -1.976943
72.500000 -2.014628
72.550000 -2.059165
72.600000 -2.120831
72.650000 -2.175645
72.700000 -2.172219
72.750000 -2.127683
72.800000 -2.107128
72.850000 -2.072869
72.900000 -1.983795
72.950000 -1.867316
73.000000 -1.791946
73.050000 -1.716576
73.100000 -1.630928
73.150000 -1.565837
73.200000 -1.535004
73.250000 -1.521300
73.300000 -1.524727
73.350000 -1.545282
73.400000 -1.569263
73.450000 -1.617226
73.500000 -1.654910
73.550000 -1.668613
73.600000 -1.678891
73.650000 -1.720003
73.700000 -1.764539
73.750000 -1.788519
73.800000 -1.843334
73.850000 -1.942685
73.900000 -2.045462
73.950000 -2.141386
74.000000 -2.257867
74.050000 -2.374347
74.100000 -2.459995
74.150000 -2.555920
74.200000 -2.675825
74.250000 -2.761472
74.300000 -2.788880
74.350000 -2.799157
74.400000 -2.788880
74.450000 -2.713511
74.500000 -2.576475
74.550000 -2.436013
74.600000 -2.288699
74.650000 -2.141386
74.700000 -1.990648
74.750000 -1.829631
74.800000 -1.716576
74.850000 -1.668614
74.900000 -1.668614
74.950000 -1.672039
75.000000 -1.713151
75.050000 -1.791946
75.100000 -1.877593
75.150000 -1.963240
75.200000 -2.059165
75.250000 -2.148238
75.300000 -2.206478
75.350000 -2.254441
75.400000 -2.295552
75.450000 -2.298978
75.500000 -2.268144
75.550000 -2.237312
75.600000 -2.233885
75.650000 -2.254441
75.700000 -2.292125
75.750000 -2.329810
75.800000 -2.353792
75.850000 -2.384625
75.900000 -2.449717
75.950000 -2.525086
76.000000 -2.566197
76.050000 -2.573049
76.100000 -2.576475
76.150000 -2.569623
76.200000 -2.542215
76.250000 -2.480550
76.300000 -2.394903
76.350000 -2.305829
76.400000 -2.230459
76.450000 -2.141387
76.500000 -2.038610
76.550000 -1.949537
76.600000 -1.884444
76.650000 -1.829631
76.700000 -1.798797
76.750000 -1.791946
76.800000 -1.795372
76.850000 -1.826205
76.900000 -1.898149
76.950000 -2.007777
77.000000 -2.148239
77.050000 -2.281848
77.100000 -2.394902
77.150000 -2.518235
77.200000 -2.627862
77.250000 -2.672399
77.300000 -2.672399
77.350000 -2.662122
77.400000 -2.634714
77.450000 -2.583327
77.500000 -2.518234
77.550000 -2.432587
77.600000 -2.340088
77.650000 -2.257867
77.700000 -2.179071
77.750000 -2.124257
77.800000 -2.124257
77.850000 -2.120831
77.900000 -2.100276
77.950000 -2.110553
78.000000 -2.155090
78.050000 -2.172220
78.100000 -2.168794
78.150000 -2.196201
78.200000 -2.227033
78.250000 -2.237311
78.300000 -2.261293
78.350000 -2.295551
78.400000 -2.316106
78.450000 -2.316107
78.500000 -2.322959
78.550000 -2.333237
78.600000 -2.319533
78.650000 -2.302403
78.700000 -2.292126
78.750000 -2.302403
78.800000 -2.326385
78.850000 -2.346939
78.900000 -2.353791
78.950000 -2.377773
79.000000 -2.415458
79.050000 -2.446291
79.100000 -2.453142
79.150000 -2.425735
79.200000 -2.353791
79.250000 -2.237312
79.300000 -2.089998
79.350000 -1.901574
79.400000 -1.682318
79.450000 -1.480190
79.500000 -1.315747
79.550000 -1.185563
79.600000 -1.117045
79.650000 -1.137601
79.700000 -1.219822
79.750000 -1.363709
79.800000 -1.582967
79.850000 -1.833057
79.900000 -2.069443
79.950000 -2.295552
80.000000 -2.501105
80.050000 -2.634715
80.100000 -2.703232
80.150000 -2.720362
80.200000 -2.682677
80.250000 -2.593604
80.300000 -2.490827
80.350000 -2.377773
80.400000 -2.298978
80.450000 -2.271570
80.500000 -2.271571
80.550000 -2.285274
80.600000 -2.329811
80.650000 -2.370921
80.700000 -2.353792
80.750000 -2.322959
80.800000 -2.302403
80.850000 -2.240738
80.900000 -2.103701
80.950000 -1.918704
81.000000 -1.726854
81.050000 -1.555559
81.100000 -1.411672
81.150000 -1.295192
81.200000 -1.219822
81.250000 -1.199266
81.300000 -1.212970
81.350000 -1.264359
81.400000 -1.363709
81.450000 -1.466486
81.500000 -1.528152
81.550000 -1.606948
81.600000 -1.720002
81.650000 -1.809075
81.700000 -1.887870
81.750000 -1.980370
81.800000 -2.059165
81.850000 -2.096850
81.900000 -2.127683
81.950000 -2.144812
82.000000 -2.134535
82.050000 -2.076295
82.100000 -1.956389
82.150000 -1.798797
82.200000 -1.658336
82.250000 -1.541856
82.300000 -1.387691
82.350000 -1.230100
82.400000 -1.154730
82.450000 -1.134174
82.500000 -1.130749
82.550000 -1.195841
82.600000 -1.343154
82.650000 -1.507597
82.700000 -1.678892
82.750000 -1.860464
82.800000 -2.011202
82.850000 -2.113979
82.900000 -2.213330
82.950000 -2.281848
83.000000 -2.285274
83.050000 -2.251015
83.100000 -2.196201
83.150000 -2.124257
83.200000 -2.086573
83.250000 -2.089998
83.300000 -2.069443
83.350000 -2.031758
83.400000 -2.021480
83.450000 -2.021481
83.500000 -2.018054
83.550000 -2.045462
83.600000 -2.076294
83.650000 -2.069443
83.700000 -2.083147
83.750000 -2.134534
83.800000 -2.144813
83.850000 -2.093424
83.900000 -2.035184
83.950000 -1.966666
84.000000 -1.877593
84.050000 -1.774816
84.100000 -1.637781
84.150000 -1.490468
84.200000 -1.391117
84.250000 -1.356857
84.300000 -1.360284
84.350000 -1.435653
84.400000 -1.593244
84.450000 -1.750835
84.500000 -1.874167
84.550000 -2.014629
84.600000 -2.168793
84.650000 -2.278422
84.700000 -2.322959
84.750000 -2.312681
84.800000 -2.244163
84.850000 -2.151665
84.900000 -2.052314
84.950000 -1.946111
85.000000 -1.860463
85.050000 -1.819353
85.100000 -1.805650
85.150000 -1.822778
85.200000 -1.911852
85.250000 -2.028332
85.300000 -2.113980
85.350000 -2.192775
85.400000 -2.292126
85.450000 -2.367495
85.500000 -2.374347
85.550000 -2.353792
85.600000 -2.336663
85.650000 -2.309255
85.700000 -2.274996
85.750000 -2.244163
85.800000 -2.203052
85.850000 -2.158516
85.900000 -2.134535
85.950000 -2.137961
86.000000 -2.165368
86.050000 -2.220182
86.100000 -2.254441
86.150000 -2.285274
86.200000 -2.340088
86.250000 -2.384625
86.300000 -2.370921
86.350000 -2.340088
86.400000 -2.305830
86.450000 -2.251015
86.500000 -2.172220
86.550000 -2.069443
86.600000 -1.939259
86.650000 -1.815927
86.700000 -1.737132
86.750000 -1.654910
86.800000 -1.579540
86.850000 -1.555559
86.900000 -1.562411
86.950000 -1.579541
87.000000 -1.630929
87.050000 -1.696021
87.100000 -1.726853
87.150000 -1.747409
87.200000 -1.798798
87.250000 -1.805649
87.300000 -1.733705
87.350000 -1.641207
87.400000 -1.555560
87.450000 -1.421949
87.500000 -1.250655
87.550000 -1.099916
87.600000 -0.997139
87.650000 -0.942325
87.700000 -0.945751
87.750000 -0.990287
87.800000 -1.086213
87.850000 -1.247229
87.900000 -1.463061
87.950000 -1.706298
88.000000 -1.935833
88.050000 -2.124257
88.100000 -2.278423
88.150000 -2.394903
88.200000 -2.480550
88.250000 -2.528512
88.300000 -2.525086
88.350000 -2.504531
88.400000 -2.487401
88.450000 -2.453143
88.500000 -2.391476
88.550000 -2.316107
88.600000 -2.240737
88.650000 -2.148238
88.700000 -2.021480
88.750000 -1.853612
88.800000 -1.658336
88.850000 -1.442505
88.900000 -1.230100
88.950000 -1.051954
89.000000 -0.925196
89.050000 -0.853252
89.100000 -0.825845
89.150000 -0.870381
89.200000 -0.990288
89.250000 -1.161581
89.300000 -1.346580
89.350000 -1.565837
89.400000 -1.819353
89.450000 -2.035183
89.500000 -2.165368
89.550000 -2.227034
89.600000 -2.254441
89.650000 -2.223608
89.700000 -2.117405
89.750000 -1.990648
89.800000 -1.877593
89.850000 -1.767964
89.900000 -1.675465
89.950000 -1.624078
90.000000 -1.630929
90.050000 -1.689169
90.100000 -1.826204
90.150000 -2.014628
90.200000 -2.237312
90.250000 -2.501105
90.300000 -2.764899
90.350000 -2.973878
90.400000 -3.128043
90.450000 -3.237671
90.500000 -3.251375
90.550000 -3.172579
90.600000 -3.052674
90.650000 -2.898508
90.700000 -2.672400
90.750000 -2.425735
90.800000 -2.223607
90.850000 -2.031758
90.900000 -1.860463
90.950000 -1.771391
91.000000 -1.737131
91.050000 -1.699446
91.100000 -1.692595
91.150000 -1.771390
91.200000 -1.898148
91.250000 -2.024906
91.300000 -2.144813
91.350000 -2.274996
91.400000 -2.412032
91.450000 -2.511383
91.500000 -2.559345
91.550000 -2.597030
91.600000 -2.648419
91.650000 -2.672399
91.700000 -2.644992
91.750000 -2.593604
91.800000 -2.559345
91.850000 -2.507956
91.900000 -2.408606
91.950000 -2.309255
92.000000 -2.230459
92.050000 -2.148239
92.100000 -2.059166
92.150000 -1.997499
92.200000 -1.956388
92.250000 -1.901574
92.300000 -1.853612
92.350000 -1.843334
92.400000 -1.843334
92.450000 -1.826204
92.500000 -1.826205
92.550000 -1.853612
92.600000 -1.877593
92.650000 -1.891296
92.700000 -1.894722
92.750000 -1.891296
92.800000 -1.874167
92.850000 -1.877593
92.900000 -1.881019
92.950000 -1.894722
93.000000 -1.915278
93.050000 -1.932407
93.100000 -1.956388
93.150000 -1.966666
93.200000 -1.949537
93.250000 -1.915277
93.300000 -1.870741
93.350000 -1.788519
93.400000 -1.689169
93.450000 -1.630929
93.500000 -1.586392
93.550000 -1.528153
93.600000 -1.476764
93.650000 -1.480189
93.700000 -1.507597
93.750000 -1.569263
93.800000 -1.689169
93.850000 -1.826205
93.900000 -1.970091
93.950000 -2.151664
94.000000 -2.340089
94.050000 -2.473698
94.100000 -2.555919
94.150000 -2.610734
94.200000 -2.590178
94.250000 -2.483976
94.300000 -2.326385
94.350000 -2.144812
94.400000 -1.932407
94.450000 -1.685743
94.500000 -1.469912
94.550000 -1.312321
94.600000 -1.212970
94.650000 -1.182138
94.700000 -1.240377
94.750000 -1.380839
94.800000 -1.572689
94.850000 -1.798798
94.900000 -2.035184
94.950000 -2.271570
95.000000 -2.504531
95.050000 -2.696381
95.100000 -2.795731
95.150000 -2.840268
95.200000 -2.836842
95.250000 -2.754621
95.300000 -2.590178
95.350000 -2.432587
95.400000 -2.298977
95.450000 -2.155090
95.500000 -2.035184
95.550000 -1.980369
95.600000 -1.956389
95.650000 -1.935833
95.700000 -1.949537
95.750000 -2.021480
95.800000 -2.120831
95.850000 -2.213331
95.900000 -2.285274
95.950000 -2.346939
96.000000 -2.418883
96.050000 -2.463420
96.100000 -2.466846
96.150000 -2.463420
96.200000 -2.487401
96.250000 -2.490827
96.300000 -2.453143
96.350000 -2.408606
96.400000 -2.357218
96.450000 -2.298977
96.500000 -2.227034
96.550000 -2.120831
96.600000 -2.011203
96.650000 -1.946111
96.700000 -1.867315
96.750000 -1.740557
96.800000 -1.672039
96.850000 -1.726854
96.900000 -1.805649
96.950000 -1.894722
97.000000 -2.059166
97.050000 -2.278422
97.100000 -2.456568
97.150000 -2.610734
97.200000 -2.768324
97.250000 -2.874527
97.300000 -2.874527
97.350000 -2.799157
97.400000 -2.665548
97.450000 -2.477124
97.500000 -2.257866
97.550000 -2.014628
97.600000 -1.764538
97.650000 -1.562411
97.700000 -1.435654
97.750000 -1.363709
97.800000 -1.353432
97.850000 -1.439079
97.900000 -1.589818
97.950000 -1.791946
98.000000 -2.048887
98.050000 -2.295552
98.100000 -2.494254
98.150000 -2.672399
98.200000 -2.840268
98.250000 -2.946470
98.300000 -2.991007
98.350000 -3.008137
98.400000 -3.011562
98.450000 -3.021840
98.500000 -3.014988
98.550000 -2.973878
98.600000 -2.929341
98.650000 -2.915637
98.700000 -2.919064
98.750000 -2.925915
98.800000 -2.939619
98.850000 -2.939619
98.900000 -2.912212
98.950000 -2.877953
99.000000 -2.840268
99.050000 -2.778602
99.100000 -2.710085
99.150000 -2.655270
99.200000 -2.603882
99.250000 -2.545642
99.300000 -2.483976
99.350000 -2.439439
99.400000 -2.418884
99.450000 -2.394902
99.500000 -2.350366
99.550000 -2.316107
99.600000 -2.316107
99.650000 -2.302404
99.700000 -2.261292
99.750000 -2.251015
99.800000 -2.264719
99.850000 -2.268145
99.900000 -2.261292
99.950000 -2.268145
100.000000 -2.274996
100.050000 -2.264719
100.100000 -2.257867
100.150000 -2.268144
100.200000 -2.295552
100.250000 -2.316107
100.300000 -2.302403
100.350000 -2.254441
100.400000 -2.216756
100.450000 -2.179072
100.500000 -2.086572
100.550000 -1.963240
100.600000 -1.881019
100.650000 -1.791945
100.700000 -1.651484
100.750000 -1.521300
100.800000 -1.449357
100.850000 -1.373987
100.900000 -1.305469
100.950000 -1.329451
101.000000 -1.411672
101.050000 -1.469912
101.100000 -1.535004
101.150000 -1.641207
101.200000 -1.723428
101.250000 -1.754261
101.300000 -1.778242
101.350000 -1.778242
101.400000 -1.740558
101.450000 -1.726854
101.500000 -1.730280
101.550000 -1.702873
101.600000 -1.692595
101.650000 -1.743983
101.700000 -1.809075
101.750000 -1.874167
101.800000 -1.963241
101.850000 -2.048887
101.900000 -2.120831
101.950000 -2.182497
102.000000 -2.216756
102.050000 -2.199627
102.100000 -2.151664
102.150000 -2.086572
102.200000 -1.987222
102.250000 -1.884445
102.300000 -1.795372
102.350000 -1.713150
102.400000 -1.651485
102.450000 -1.641206
102.500000 -1.665188
102.550000 -1.685743
102.600000 -1.716576
102.650000 -1.791946
102.700000 -1.901574
102.750000 -1.990647
102.800000 -2.069443
102.850000 -2.151664
102.900000 -2.209905
102.950000 -2.247589
103.000000 -2.302403
103.050000 -2.357218
103.100000 -2.367496
103.150000 -2.370921
103.200000 -2.412031
103.250000 -2.442865
103.300000 -2.436013
103.350000 -2.446291
103.400000 -2.483976
103.450000 -2.494253
103.500000 -2.501105
103.550000 -2.538789
103.600000 -2.535364
103.650000 -2.473698
103.700000 -2.422310
103.750000 -2.394902
103.800000 -2.340088
103.850000 -2.257866
103.900000 -2.185923
103.950000 -2.124257
104.000000 -2.066016
104.050000 -2.024907
104.100000 -1.997499
104.150000 -1.987222
104.200000 -2.021481
104.250000 -2.086572
104.300000 -2.144812
104.350000 -2.223607
104.400000 -2.309255
104.450000 -2.353791
104.500000 -2.360643
104.550000 -2.360644
104.600000 -2.364069
104.650000 -2.329811
104.700000 -2.254441
104.750000 -2.165368
104.800000 -2.103701
104.850000 -2.035184
104.900000 -1.935833
104.950000 -1.843334
105.000000 -1.778242
105.050000 -1.716577
105.100000 -1.641207
105.150000 -1.586392
105.200000 -1.558985
105.250000 -1.538430
105.300000 -1.514448
105.350000 -1.524726
105.400000 -1.548708
105.450000 -1.541856
105.500000 -1.528152
105.550000 -1.545281
105.600000 -1.596670
105.650000 -1.675465
105.700000 -1.757686
105.750000 -1.826204
105.800000 -1.884444
105.850000 -1.935833
105.900000 -1.946111
105.950000 -1.911852
106.000000 -1.891296
106.050000 -1.870741
106.100000 -1.802223
106.150000 -1.720002
106.200000 -1.672039
106.250000 -1.613800
106.300000 -1.521301
106.350000 -1.439079
106.400000 -1.401395
106.450000 -1.391117
106.500000 -1.397968
106.550000 -1.391116
106.600000 -1.377413
106.650000 -1.391117
106.700000 -1.435653
106.750000 -1.466486
106.800000 -1.483616
106.850000 -1.517874
106.900000 -1.572689
106.950000 -1.654910
107.000000 -1.771391
107.050000 -1.884445
107.100000 -1.983795
107.150000 -2.072869
107.200000 -2.110553
107.250000 -2.079721
107.300000 -2.004351
107.350000 -1.911852
107.400000 -1.785094
107.450000 -1.606947
107.500000 -1.428802
107.550000 -1.288340
107.600000 -1.209545
107.650000 -1.192415
107.700000 -1.199267
107.750000 -1.250655
107.800000 -1.380839
107.850000 -1.555559
107.900000 -1.723427
107.950000 -1.887871
108.000000 -2.052313
108.050000 -2.172220
108.100000 -2.247589
108.150000 -2.295551
108.200000 -2.319533
108.250000 -2.312681
108.300000 -2.264719
108.350000 -2.206478
108.400000 -2.179072
108.450000 -2.179071
108.500000 -2.151664
108.550000 -2.069443
108.600000 -2.018054
108.650000 -1.980370
108.700000 -1.853612
108.750000 -1.672040
108.800000 -1.538430
108.850000 -1.418524
108.900000 -1.267785
108.950000 -1.165008
109.000000 -1.137600
109.050000 -1.141027
109.100000 -1.192415
109.150000 -1.336302
109.200000 -1.504171
109.250000 -1.668614
109.300000 -1.853611
109.350000 -2.031758
109.400000 -2.165368
109.450000 -2.278422
109.500000 -2.374347
109.550000 -2.422309
109.600000 -2.432587
109.650000 -2.429161
109.700000 -2.388050
109.750000 -2.305829
109.800000 -2.233885
109.850000 -2.192775
109.900000 -2.161942
109.950000 -2.131109
110.000000 -2.117406
110.050000 -2.113980
110.100000 -2.093425
110.150000 -2.072869
110.200000 -2.035184
110.250000 -1.983796
110.300000 -1.946111
110.350000 -1.915278
110.400000 -1.877593
110.450000 -1.857038
110.500000 -1.853612
110.550000 -1.819353
110.600000 -1.781668
110.650000 -1.778242
110.700000 -1.774816
110.750000 -1.747409
110.800000 -1.747409
110.850000 -1.781668
110.900000 -1.805649
110.950000 -1.815927
111.000000 -1.850185
111.050000 -1.891297
111.100000 -1.898148
111.150000 -1.881019
111.200000 -1.846760
111.250000 -1.798797
111.300000 -1.737132
111.350000 -1.682318
111.400000 -1.617226
111.450000 -1.552133
111.500000 -1.500745
111.550000 -1.466486
111.600000 -1.445931
111.650000 -1.456208
111.700000 -1.490468
111.750000 -1.528152
111.800000 -1.555559
111.850000 -1.589818
111.900000 -1.624077
111.950000 -1.630929
112.000000 -1.613799
112.050000 -1.596670
112.100000 -1.582966
112.150000 -1.582967
112.200000 -1.620651
112.250000 -1.689169
112.300000 -1.778243
112.350000 -1.915278
112.400000 -2.079721
112.450000 -2.230459
112.500000 -2.364069
112.550000 -2.466846
112.600000 -2.525087
112.650000 -2.538790
112.700000 -2.514808
112.750000 -2.442865
112.800000 -2.305830
112.850000 -2.148239
112.900000 -1.987221
112.950000 -1.829630
113.000000 -1.709724
113.050000 -1.634355
113.100000 -1.579540
113.150000 -1.541856
113.200000 -1.569263
113.250000 -1.634355
113.300000 -1.678892
113.350000 -1.692595
113.400000 -1.720002
113.450000 -1.747409
113.500000 -1.750835
113.550000 -1.747409
113.600000 -1.757687
113.650000 -1.764538
113.700000 -1.764539
113.750000 -1.781668
113.800000 -1.819353
113.850000 -1.843334
113.900000 -1.860464
113.950000 -1.894723
114.000000 -1.939259
114.050000 -1.966666
114.100000 -1.970092
114.150000 -1.976944
114.200000 -1.980369
114.250000 -1.952962
114.300000 -1.887871
114.350000 -1.791946
114.400000 -1.709725
114.450000 -1.644633
114.500000 -1.555559
114.550000 -1.452783
114.600000 -1.391116
114.650000 -1.367135
114.700000 -1.339729
114.750000 -1.332876
114.800000 -1.397969
114.850000 -1.521300
114.900000 -1.651484
114.950000 -1.809075
115.000000 -1.990648
115.050000 -2.148239
115.100000 -2.274996
115.150000 -2.370921
115.200000 -2.432587
115.250000 -2.466846
115.300000 -2.470272
115.350000 -2.449716
115.400000 -2.412032
115.450000 -2.384624
115.500000 -2.350366
115.550000 -2.309255
115.600000 -2.305829
115.650000 -2.329811
115.700000 -2.346940
115.750000 -2.360643
115.800000 -2.384625
115.850000 -2.388051
115.900000 -2.388050
115.950000 -2.408606
116.000000 -2.412031
116.050000 -2.377773
116.100000 -2.364069
116.150000 -2.405180
116.200000 -2.470272
116.250000 -2.518234
116.300000 -2.573049
116.350000 -2.644992
116.400000 -2.723788
116.450000 -2.775176
116.500000 -2.795731
116.550000 -2.809435
116.600000 -2.816287
116.650000 -2.785454
116.700000 -2.713510
116.750000 -2.627863
116.800000 -2.535364
116.850000 -2.429161
116.900000 -2.302404
116.950000 -2.179071
117.000000 -2.079721
117.050000 -1.997499
117.100000 -1.925556
117.150000 -1.870741
117.200000 -1.863889
117.250000 -1.884445
117.300000 -1.898148
117.350000 -1.891297
117.400000 -1.908426
117.450000 -1.949537
117.500000 -1.994073
117.550000 -2.045462
117.600000 -2.117405
117.650000 -2.185923
117.700000 -2.254441
117.750000 -2.312681
117.800000 -2.350365
117.850000 -2.367495
117.900000 -2.384624
117.950000 -2.388050
118.000000 -2.360644
118.050000 -2.329811
118.100000 -2.319533
118.150000 -2.312681
118.200000 -2.312681
118.250000 -2.336662
118.300000 -2.381198
118.350000 -2.436013
118.400000 -2.501105
118.450000 -2.583327
118.500000 -2.658696
118.550000 -2.716936
118.600000 -2.744344
118.650000 -2.740917
118.700000 -2.716936
118.750000 -2.665548
118.800000 -2.579900
118.850000 -2.473698
118.900000 -2.370921
118.950000 -2.288700
119.000000 -2.223608
119.050000 -2.172220
119.100000 -2.151664
119.150000 -2.196201
119.200000 -2.247589
119.250000 -2.257867
119.300000 -2.268144
119.350000 -2.316107
119.400000 -2.329810
119.450000 -2.285274
119.500000 -2.244163
119.550000 -2.233886
119.600000 -2.223608
119.650000 -2.185923
119.700000 -2.134534
119.750000 -2.072869
119.800000 -2.011203
119.850000 -1.963240
119.900000 -1.918704
119.950000 -1.881019
120.000000 -1.874168
120.050000 -1.860464
120.100000 -1.839908
120.150000 -1.846760
120.200000 -1.877593
120.250000 -1.911852
120.300000 -1.959814
120.350000 -2.035184
120.400000 -2.110554
120.450000 -2.168794
120.500000 -2.237311
120.550000 -2.312681
120.600000 -2.367495
120.650000 -2.394902
120.700000 -2.405180
120.750000 -2.398329
120.800000 -2.394902
120.850000 -2.401755
120.900000 -2.388051
120.950000 -2.367496
121.000000 -2.346940
121.050000 -2.333236
121.100000 -2.312681
121.150000 -2.288699
121.200000 -2.281848
121.250000 -2.254441
121.300000 -2.179071
121.350000 -2.093424
121.400000 -2.035184
121.450000 -1.956388
121.500000 -1.829630
121.550000 -1.723428
121.600000 -1.685743
121.650000 -1.648058
121.700000 -1.576115
121.750000 -1.545282
121.800000 -1.582966
121.850000 -1.634355
121.900000 -1.682317
121.950000 -1.757687
122.000000 -1.850186
122.050000 -1.915278
122.100000 -1.966666
122.150000 -2.018054
122.200000 -2.052313
122.250000 -2.069443
122.300000 -2.076294
122.350000 -2.086573
122.400000 -2.079721
122.450000 -2.055739
122.500000 -2.031758
122.550000 -2.018055
122.600000 -2.024906
122.650000 -2.031758
122.700000 -2.018055
122.750000 -2.004351
122.800000 -2.011202
122.850000 -2.004351
122.900000 -1.963240
122.950000 -1.905000
123.000000 -1.860463
123.050000 -1.805649
123.100000 -1.726854
123.150000 -1.661762
123.200000 -1.651484
123.250000 -1.641207
123.300000 -1.620651
123.350000 -1.637781
123.400000 -1.678892
123.450000 -1.709725
123.500000 -1.716576
123.550000 -1.730280
123.600000 -1.754261
123.650000 -1.788520
123.700000 -1.822779
123.750000 -1.850186
123.800000 -1.894722
123.850000 -1.966666
123.900000 -2.014629
123.950000 -2.052313
124.000000 -2.131109
124.050000 -2.213330
124.100000 -2.247590
124.150000 -2.288699
124.200000 -2.360644
124.250000 -2.384625
124.300000 -2.322958
124.350000 -2.254441
124.400000 -2.192775
124.450000 -2.076294
124.500000 -1.915278
124.550000 -1.747409
124.600000 -1.600096
124.650000 -1.469913
124.700000 -1.343154
124.750000 -1.233526
124.800000 -1.175286
124.850000 -1.178712
124.900000 -1.206119
124.950000 -1.267784
125.000000 -1.408246
125.050000 -1.606948
125.100000 -1.809075
125.150000 -2.000925
125.200000 -2.192774
125.250000 -2.377773
125.300000 -2.507956
125.350000 -2.569623
125.400000 -2.573048
125.450000 -2.538790
125.500000 -2.463420
125.550000 -2.322958
125.600000 -2.158516
125.650000 -2.007777
125.700000 -1.867315
125.750000 -1.750835
125.800000 -1.696020
125.850000 -1.716576
125.900000 -1.771390
125.950000 -1.857037
126.000000 -1.990648
126.050000 -2.158516
126.100000 -2.329811
126.150000 -2.497679
126.200000 -2.631289
126.250000 -2.713510
126.300000 -2.758047
126.350000 -2.754621
126.400000 -2.706659
126.450000 -2.627863
126.500000 -2.518234
126.550000 -2.381199
126.600000 -2.268144
126.650000 -2.165368
126.700000 -2.031758
126.750000 -1.894722
126.800000 -1.819353
126.850000 -1.761113
126.900000 -1.685743
126.950000 -1.634355
127.000000 -1.637780
127.050000 -1.661762
127.100000 -1.682317
127.150000 -1.716576
127.200000 -1.788519
127.250000 -1.894722
127.300000 -2.018055
127.350000 -2.141386
127.400000 -2.295552
127.450000 -2.453142
127.500000 -2.538789
127.550000 -2.579900
127.600000 -2.644992
127.650000 -2.679251
127.700000 -2.614159
127.750000 -2.511383
127.800000 -2.408606
127.850000 -2.278422
127.900000 -2.158516
127.950000 -2.103701
128.000000 -2.083147
128.050000 -2.072868
128.100000 -2.113979
128.150000 -2.172219
128.200000 -2.206478
128.250000 -2.244164
128.300000 -2.285274
128.350000 -2.251015
128.400000 -2.134535
128.450000 -1.987222
128.500000 -1.805649
128.550000 -1.589818
128.600000 -1.397968
128.650000 -1.250655
128.700000 -1.123897
128.750000 -1.045101
128.800000 -1.031398
128.850000 -1.079360
128.900000 -1.178712
128.950000 -1.308895
129.000000 -1.428801
129.050000 -1.541856
129.100000 -1.637781
129.150000 -1.699447
129.200000 -1.754261
129.250000 -1.802223
129.300000 -1.778242
129.350000 -1.689169
129.400000 -1.648059
129.450000 -1.654910
129.500000 -1.637781
129.550000 -1.620651
129.600000 -1.668614
129.650000 -1.713150
129.700000 -1.726854
129.750000 -1.747409
129.800000 -1.795372
129.850000 -1.826204
129.900000 -1.853612
129.950000 -1.891296
130.000000 -1.932407
130.050000 -1.976944
130.100000 -2.028332
130.150000 -2.086572
130.200000 -2.165367
130.250000 -2.285273
130.300000 -2.408606
130.350000 -2.525086
130.400000 -2.644992
130.450000 -2.744343
130.500000 -2.775176
130.550000 -2.761472
130.600000 -2.751195
130.650000 -2.737491
130.700000 -2.716936
130.750000 -2.703233
130.800000 -2.706659
130.850000 -2.703232
130.900000 -2.699806
130.950000 -2.689529
131.000000 -2.665548
131.050000 -2.627863
131.100000 -2.552493
131.150000 -2.422310
131.200000 -2.281848
131.250000 -2.127683
131.300000 -1.939259
131.350000 -1.750835
131.400000 -1.606948
131.450000 -1.504171
131.500000 -1.442504
131.550000 -1.463061
131.600000 -1.552134
131.650000 -1.678891
131.700000 -1.839908
131.750000 -2.014629
131.800000 -2.148238
131.850000 -2.257867
131.900000 -2.367496
131.950000 -2.446291
132.000000 -2.470272
132.050000 -2.480550
132.100000 -2.494253
132.150000 -2.490828
132.200000 -2.501105
132.250000 -2.514809
132.300000 -2.487401
132.350000 -2.429161
132.400000 -2.398328
132.450000 -2.370921
132.500000 -2.312681
132.550000 -2.209904
132.600000 -2.086572
132.650000 -1.956388
132.700000 -1.839909
132.750000 -1.720002
132.800000 -1.613800
132.850000 -1.565837
132.900000 -1.569262
132.950000 -1.569263
133.000000 -1.562412
133.050000 -1.562411
133.100000 -1.552133
133.150000 -1.552134
133.200000 -1.558985
133.250000 -1.562411
133.300000 -1.548707
133.350000 -1.569263
133.400000 -1.648058
133.450000 -1.750835
133.500000 -1.860463
133.550000 -2.004351
133.600000 -2.189349
133.650000 -2.364070
133.700000 -2.507957
133.750000 -2.638141
133.800000 -2.730640
133.850000 -2.764899
133.900000 -2.734065
133.950000 -2.662122
134.000000 -2.569623
134.050000 -2.456569
134.100000 -2.309255
134.150000 -2.148238
134.200000 -2.011202
134.250000 -1.901575
134.300000 -1.802223
134.350000 -1.726854
134.400000 -1.685743
134.450000 -1.661762
134.500000 -1.675466
134.550000 -1.720002
134.600000 -1.767965
134.650000 -1.839908
134.700000 -1.928981
134.750000 -2.011203
134.800000 -2.110554
134.850000 -2.254440
134.900000 -2.360644
134.950000 -2.381198
135.000000 -2.394903
135.050000 -2.432587
135.100000 -2.439439
135.150000 -2.425736
135.200000 -2.401754
135.250000 -2.319532
135.300000 -2.179072
135.350000 -2.069443
135.400000 -1.987222
135.450000 -1.891297
135.500000 -1.809076
135.550000 -1.774816
135.600000 -1.771391
135.650000 -1.774816
135.700000 -1.795372
135.750000 -1.836482
135.800000 -1.908426
135.850000 -1.983795
135.900000 -2.018054
135.950000 -2.052314
136.000000 -2.124257
136.050000 -2.134535
136.100000 -2.048887
136.150000 -1.952963
136.200000 -1.877593
136.250000 -1.740557
136.300000 -1.565837
136.350000 -1.425376
136.400000 -1.305469
136.450000 -1.165007
136.500000 -1.041676
136.550000 -0.973158
136.600000 -0.938899
136.650000 -0.932048
136.700000 -0.962880
136.750000 -1.034824
136.800000 -1.137601
136.850000 -1.264358
136.900000 -1.394543
136.950000 -1.545282
137.000000 -1.713151
137.050000 -1.836482
137.100000 -1.925555
137.150000 -2.042035
137.200000 -2.134535
137.250000 -2.148238
137.300000 -2.131108
137.350000 -2.137961
137.400000 -2.113980
137.450000 -2.052313
137.500000 -1.997500
137.550000 -1.949537
137.600000 -1.891297
137.650000 -1.839909
137.700000 -1.795371
137.750000 -1.757687
137.800000 -1.764538
137.850000 -1.791945
137.900000 -1.788519
137.950000 -1.802224
138.000000 -1.836482
138.050000 -1.829630
138.100000 -1.809075
138.150000 -1.829631
138.200000 -1.846760
138.250000 -1.853612
138.300000 -1.887870
138.350000 -1.918704
138.400000 -1.928981
138.450000 -1.980369
138.500000 -2.038610
138.550000 -2.018055
138.600000 -1.980369
138.650000 -1.990647
138.700000 -1.990647
138.750000 -1.963240
138.800000 -1.973518
138.850000 -1.973518
138.900000 -1.898148
138.950000 -1.836483
139.000000 -1.809075
139.050000 -1.747409
139.100000 -1.661762
139.150000 -1.603522
139.200000 -1.562411
139.250000 -1.545281
139.300000 -1.569263
139.350000 -1.603522
139.400000 -1.637781
139.450000 -1.685743
139.500000 -1.730280
139.550000 -1.737131
139.600000 -1.730280
139.650000 -1.726854
139.700000 -1.702872
139.750000 -1.661761
139.800000 -1.634355
139.850000 -1.586392
139.900000 -1.535004
139.950000 -1.521301
140.000000 -1.535004
140.050000 -1.528152
140.100000 -1.555559
140.150000 -1.651484
140.200000 -1.754261
140.250000 -1.815927
140.300000 -1.860463
140.350000 -1.894722
140.400000 -1.894722
140.450000 -1.850186
140.500000 -1.785093
140.550000 -1.716576
140.600000 -1.654911
140.650000 -1.613800
140.700000 -1.610373
140.750000 -1.675465
140.800000 -1.771390
140.850000 -1.877593
140.900000 -2.004351
140.950000 -2.172219
141.000000 -2.333236
141.050000 -2.436013
141.100000 -2.483975
141.150000 -2.494253
141.200000 -2.463420
141.250000 -2.370921
141.300000 -2.216757
141.350000 -2.014629
141.400000 -1.788520
141.450000 -1.579541
141.500000 -1.384265
141.550000 -1.223248
141.600000 -1.099916
141.650000 -1.021121
141.700000 -0.983435
141.750000 -1.014269
141.800000 -1.113619
141.850000 -1.209544
141.900000 -1.298617
141.950000 -1.442505
142.000000 -1.606948
142.050000 -1.699447
142.100000 -1.743984
142.150000 -1.812501
142.200000 -1.836482
142.250000 -1.774816
142.300000 -1.713151
142.350000 -1.678891
142.400000 -1.634354
142.450000 -1.596670
142.500000 -1.600096
142.550000 -1.617226
142.600000 -1.651484
142.650000 -1.737131
142.700000 -1.850186
142.750000 -1.966666
142.800000 -2.100276
142.850000 -2.209904
142.900000 -2.240737
142.950000 -2.244163
143.000000 -2.274997
143.050000 -2.271570
143.100000 -2.220182
143.150000 -2.189349
143.200000 -2.192774
143.250000 -2.161942
143.300000 -2.120831
143.350000 -2.110553
143.400000 -2.093424
143.450000 -2.045462
143.500000 -1.997499
143.550000 -1.935833
143.600000 -1.850186
143.650000 -1.743983
143.700000 -1.620652
143.750000 -1.473338
143.800000 -1.363709
143.850000 -1.291765
143.900000 -1.236951
143.950000 -1.219822
144.000000 -1.271210
144.050000 -1.377413
144.100000 -1.514449
144.150000 -1.682317
144.200000 -1.829631
144.250000 -1.922129
144.300000 -1.980369
144.350000 -1.987221
144.400000 -1.911852
144.450000 -1.785093
144.500000 -1.661762
144.550000 -1.545281
144.600000 -1.439079
144.650000 -1.377413
144.700000 -1.336302
144.750000 -1.322599
144.800000 -1.394543
144.850000 -1.517875
144.900000 -1.610373
144.950000 -1.682318
145.000000 -1.778242
145.050000 -1.867315
145.100000 -1.894722
145.150000 -1.891296
145.200000 -1.867315
145.250000 -1.815927
145.300000 -1.767965
145.350000 -1.743983
145.400000 -1.743983
145.450000 -1.764539
145.500000 -1.812502
145.550000 -1.905000
145.600000 -2.014629
145.650000 -2.117405
145.700000 -2.192775
145.750000 -2.244163
145.800000 -2.271570
145.850000 -2.274997
145.900000 -2.223608
145.950000 -2.137961
146.000000 -2.079721
146.050000 -2.028332
146.100000 -1.935833
146.150000 -1.833056
146.200000 -1.771390
146.250000 -1.689169
146.300000 -1.586392
146.350000 -1.535004
146.400000 -1.541856
146.450000 -1.524726
146.500000 -1.511023
146.550000 -1.565837
146.600000 -1.668614
146.650000 -1.764538
146.700000 -1.877593
146.750000 -2.007777
146.800000 -2.127683
146.850000 -2.244163
146.900000 -2.343514
146.950000 -2.398328
147.000000 -2.398328
147.050000 -2.346940
147.100000 -2.254440
147.150000 -2.151664
147.200000 -2.059165
147.250000 -1.946111
147.300000 -1.829630
147.350000 -1.774816
147.400000 -1.761113
147.450000 -1.740557
147.500000 -1.737131
147.550000 -1.771390
147.600000 -1.802224
147.650000 -1.826205
147.700000 -1.850186
147.750000 -1.836482
147.800000 -1.785094
147.850000 -1.726854
147.900000 -1.634355
147.950000 -1.521301
148.000000 -1.459635
148.050000 -1.418523
148.100000 -1.367135
148.150000 -1.343154
148.200000 -1.384265
148.250000 -1.425375
148.300000 -1.459634
148.350000 -1.545281
148.400000 -1.661762
148.450000 -1.733705
148.500000 -1.774816
148.550000 -1.846760
148.600000 -1.901574
148.650000 -1.891296
148.700000 -1.853612
148.750000 -1.843334
148.800000 -1.846760
148.850000 -1.829631
148.900000 -1.805649
148.950000 -1.795372
149.000000 -1.809076
149.050000 -1.802223
149.100000 -1.754261
149.150000 -1.678891
149.200000 -1.630929
149.250000 -1.576114
149.300000 -1.500745
149.350000 -1.428801
149.400000 -1.401394
149.450000 -1.391117
149.500000 -1.370561
149.550000 -1.356858
149.600000 -1.387691
149.650000 -1.449356
149.700000 -1.480190
149.750000 -1.497320
149.800000 -1.538430
149.850000 -1.576115
149.900000 -1.558985
149.950000 -1.541856
150.000000 -1.569263
150.050000 -1.617226
150.100000 -1.682317
150.150000 -1.802223
150.200000 -1.946111
150.250000 -2.072869
150.300000 -2.199626
150.350000 -2.336663
150.400000 -2.425735
150.450000 -2.466846
150.500000 -2.470272
150.550000 -2.436013
150.600000 -2.370921
150.650000 -2.285273
150.700000 -2.172219
150.750000 -2.069443
150.800000 -2.021480
150.850000 -2.035184
150.900000 -2.086572
150.950000 -2.175645
151.000000 -2.305829
151.050000 -2.432587
151.100000 -2.525086
151.150000 -2.597030
151.200000 -2.658696
151.250000 -2.665547
151.300000 -2.603882
151.350000 -2.521660
151.400000 -2.453143
151.450000 -2.336662
151.500000 -2.185923
151.550000 -2.076294
151.600000 -2.018054
151.650000 -1.928981
151.700000 -1.833056
151.750000 -1.785094
151.800000 -1.761113
151.850000 -1.733705
151.900000 -1.743983
151.950000 -1.781668
152.000000 -1.805650
152.050000 -1.843334
152.100000 -1.905000
152.150000 -1.959814
152.200000 -2.045462
152.250000 -2.161942
152.300000 -2.230460
152.350000 -2.240737
152.400000 -2.257867
152.450000 -2.257867
152.500000 -2.182497
152.550000 -2.066017
152.600000 -1.956388
152.650000 -1.812501
152.700000 -1.630929
152.750000 -1.483615
152.800000 -1.384265
152.850000 -1.308895
152.900000 -1.257507
152.950000 -1.247230
153.000000 -1.260932
153.050000 -1.298618
153.100000 -1.356858
153.150000 -1.428801
153.200000 -1.490467
153.250000 -1.535004
153.300000 -1.555559
153.350000 -1.579540
153.400000 -1.624077
153.450000 -1.665188
153.500000 -1.675465
153.550000 -1.692594
153.600000 -1.733706
153.650000 -1.781668
153.700000 -1.819353
153.750000 -1.870741
153.800000 -1.949536
153.850000 -2.035184
153.900000 -2.089998
153.950000 -2.103702
154.000000 -2.107128
154.050000 -2.100276
154.100000 -2.052314
154.150000 -1.966666
154.200000 -1.894723
154.250000 -1.829630
154.300000 -1.781669
154.350000 -1.750835
154.400000 -1.730280
154.450000 -1.706298
154.500000 -1.709725
154.550000 -1.771391
154.600000 -1.870741
154.650000 -1.970091
154.700000 -2.059165
154.750000 -2.158516
154.800000 -2.268144
154.850000 -2.357218
154.900000 -2.401754
154.950000 -2.432587
155.000000 -2.477124
155.050000 -2.483975
155.100000 -2.432587
155.150000 -2.367495
155.200000 -2.309255
155.250000 -2.230459
155.300000 -2.148239
155.350000 -2.089998
155.400000 -2.028332
155.450000 -1.932407
155.500000 -1.836482
155.550000 -1.774816
155.600000 -1.730279
155.650000 -1.665188
155.700000 -1.589818
155.750000 -1.538430
155.800000 -1.524726
155.850000 -1.493893
155.900000 -1.463060
155.950000 -1.480190
156.000000 -1.514449
156.050000 -1.538430
156.100000 -1.589818
156.150000 -1.696020
156.200000 -1.815927
156.250000 -1.908426
156.300000 -1.980369
156.350000 -2.035184
156.400000 -2.062591
156.450000 -2.055739
156.500000 -2.014629
156.550000 -1.942685
156.600000 -1.843334
156.650000 -1.750835
156.700000 -1.689169
156.750000 -1.648058
156.800000 -1.627503
156.850000 -1.651484
156.900000 -1.699447
156.950000 -1.733705
157.000000 -1.785094
157.050000 -1.874167
157.100000 -1.966666
157.150000 -2.021480
157.200000 -2.055739
157.250000 -2.059165
157.300000 -2.021481
157.350000 -1.983795
157.400000 -1.983796
157.450000 -1.980370
157.500000 -1.939259
157.550000 -1.911852
157.600000 -1.908426
157.650000 -1.894723
157.700000 -1.870741
157.750000 -1.853612
157.800000 -1.829631
157.850000 -1.798798
157.900000 -1.788520
157.950000 -1.795371
158.000000 -1.815927
158.050000 -1.860464
158.100000 -1.908426
158.150000 -1.956389
158.200000 -2.031758
158.250000 -2.134535
158.300000 -2.223608
158.350000 -2.281848
158.400000 -2.353792
158.450000 -2.422309
158.500000 -2.459994
158.550000 -2.466846
158.600000 -2.453142
158.650000 -2.394903
158.700000 -2.322959
158.750000 -2.278422
158.800000 -2.220182
158.850000 -2.110554
158.900000 -1.976944
158.950000 -1.860464
159.000000 -1.750835
159.050000 -1.641207
159.100000 -1.535003
159.150000 -1.439079
159.200000 -1.346580
159.250000 -1.281488
159.300000 -1.254081
159.350000 -1.267784
159.400000 -1.291766
159.450000 -1.312321
159.500000 -1.350006
159.550000 -1.421949
159.600000 -1.511022
159.650000 -1.579541
159.700000 -1.620651
159.750000 -1.641206
159.800000 -1.658336
159.850000 -1.658336
159.900000 -1.610373
159.950000 -1.541855
160.000000 -1.507597
160.050000 -1.493894
160.100000 -1.480190
160.150000 -1.480190
160.200000 -1.524727
160.250000 -1.593244
160.300000 -1.668614
160.350000 -1.743983
160.400000 -1.833056
160.450000 -1.932407
160.500000 -2.035184
160.550000 -2.113980
160.600000 -2.182497
160.650000 -2.261293
160.700000 -2.329811
160.750000 -2.364069
160.800000 -2.364070
160.850000 -2.357218
160.900000 -2.343514
160.950000 -2.298978
161.000000 -2.247589
161.050000 -2.209905
161.100000 -2.182497
161.150000 -2.131109
161.200000 -2.113979
161.250000 -2.134534
161.300000 -2.151664
161.350000 -2.165367
161.400000 -2.213330
161.450000 -2.247589
161.500000 -2.233885
161.550000 -2.227033
161.600000 -2.213331
161.650000 -2.134535
161.700000 -2.014629
161.750000 -1.915278
161.800000 -1.833057
161.850000 -1.767964
161.900000 -1.761113
161.950000 -1.788520
162.000000 -1.846760
162.050000 -1.942685
162.100000 -2.069443
162.150000 -2.192775
162.200000 -2.316107
162.250000 -2.412031
162.300000 -2.439439
162.350000 -2.425736
162.400000 -2.374347
162.450000 -2.254441
162.500000 -2.086572
162.550000 -1.946111
162.600000 -1.846760
162.650000 -1.740557
162.700000 -1.648059
162.750000 -1.613799
162.800000 -1.630929
162.850000 -1.651484
162.900000 -1.678891
162.950000 -1.726853
163.000000 -1.778242
163.050000 -1.795372
163.100000 -1.805650
163.150000 -1.819353
163.200000 -1.812501
163.250000 -1.791945
163.300000 -1.795371
163.350000 -1.826204
163.400000 -1.884445
163.450000 -1.966666
163.500000 -2.055739
163.550000 -2.131109
163.600000 -2.209904
163.650000 -2.274997
163.700000 -2.316107
163.750000 -2.322959
163.800000 -2.302403
163.850000 -2.247589
163.900000 -2.168794
163.950000 -2.086572
164.000000 -2.024906
164.050000 -1.959814
164.100000 -1.881018
164.150000 -1.795372
164.200000 -1.743983
164.250000 -1.720002
164.300000 -1.685744
164.350000 -1.634355
164.400000 -1.576115
164.450000 -1.531578
164.500000 -1.517874
164.550000 -1.528152
164.600000 -1.552134
164.650000 -1.586392
164.700000 -1.634355
164.750000 -1.672040
164.800000 -1.723428
164.850000 -1.805650
164.900000 -1.877593
164.950000 -1.932407
165.000000 -2.007776
165.050000 -2.069442
165.100000 -2.066017
165.150000 -2.072869
165.200000 -2.120831
165.250000 -2.134535
165.300000 -2.089999
165.350000 -2.079721
165.400000 -2.113979
165.450000 -2.113979
165.500000 -2.069443
165.550000 -2.011203
165.600000 -1.956388
165.650000 -1.898148
165.700000 -1.833056
165.750000 -1.781668
165.800000 -1.747409
165.850000 -1.713150
165.900000 -1.661762
165.950000 -1.624077
166.000000 -1.610373
166.050000 -1.620651
166.100000 -1.637780
166.150000 -1.634355
166.200000 -1.613799
166.250000 -1.624077
166.300000 -1.661762
166.350000 -1.706299
166.400000 -1.761113
166.450000 -1.839908
166.500000 -1.908426
166.550000 -1.980370
166.600000 -2.076294
166.650000 -2.175646
166.700000 -2.261292
166.750000 -2.360643
166.800000 -2.442865
166.850000 -2.456568
166.900000 -2.436013
166.950000 -2.422310
167.000000 -2.377773
167.050000 -2.278422
167.100000 -2.158516
167.150000 -2.045462
167.200000 -1.925556
167.250000 -1.802224
167.300000 -1.689169
167.350000 -1.586392
167.400000 -1.504171
167.450000 -1.439079
167.500000 -1.367136
167.550000 -1.308895
167.600000 -1.291765
167.650000 -1.284913
167.700000 -1.271210
167.750000 -1.302044
167.800000 -1.397968
167.850000 -1.493893
167.900000 -1.586392
167.950000 -1.737131
168.000000 -1.901574
168.050000 -2.004351
168.100000 -2.083147
168.150000 -2.206479
168.200000 -2.309255
168.250000 -2.333237
168.300000 -2.309255
168.350000 -2.274996
168.400000 -2.196200
168.450000 -2.089998
168.500000 -1.966666
168.550000 -1.839908
168.600000 -1.726853
168.650000 -1.634355
168.700000 -1.555559
168.750000 -1.521300
168.800000 -1.555560
168.850000 -1.617225
168.900000 -1.689169
168.950000 -1.781668
169.000000 -1.891297
169.050000 -1.966666
169.100000 -2.018054
169.150000 -2.059165
169.200000 -2.059165
169.250000 -2.021481
169.300000 -1.994073
169.350000 -1.987222
169.400000 -1.956389
169.450000 -1.905000
169.500000 -1.860464
169.550000 -1.860463
169.600000 -1.901575
169.650000 -1.939259
169.700000 -1.935833
169.750000 -1.925556
169.800000 -1.932408
169.850000 -1.898148
169.900000 -1.778243
169.950000 -1.637781
170.000000 -1.521300
170.050000 -1.401394
170.100000 -1.298617
170.150000 -1.254081
170.200000 -1.254081
170.250000 -1.295192
170.300000 -1.387691
170.350000 -1.524726
170.400000 -1.665188
170.450000 -1.802223
170.500000 -1.949536
170.550000 -2.076295
170.600000 -2.182498
170.650000 -2.244163
170.700000 -2.240737
170.750000 -2.189349
170.800000 -2.117405
170.850000 -2.021481
170.900000 -1.905000
170.950000 -1.809075
171.000000 -1.730280
171.050000 -1.682317
171.100000 -1.675466
171.150000 -1.716576
171.200000 -1.767964
171.250000 -1.795372
171.300000 -1.802224
171.350000 -1.822779
171.400000 -1.839908
171.450000 -1.798798
171.500000 -1.702872
171.550000 -1.593244
171.600000 -1.463060
171.650000 -1.326025
171.700000 -1.223247
171.750000 -1.144452
171.800000 -1.072509
171.850000 -1.051953
171.900000 -1.093064
171.950000 -1.144453
172.000000 -1.206119
172.050000 -1.326024
172.100000 -1.466486
172.150000 -1.562411
172.200000 -1.634355
172.250000 -1.737132
172.300000 -1.819353
172.350000 -1.881019
172.400000 -1.959814
172.450000 -2.042036
172.500000 -2.062591
172.550000 -2.059166
172.600000 -2.072869
172.650000 -2.096850
172.700000 -2.120832
172.750000 -2.134535
172.800000 -2.148238
172.850000 -2.179071
172.900000 -2.233885
172.950000 -2.295552
173.000000 -2.367495
173.050000 -2.459995
173.100000 -2.538790
173.150000 -2.607307
173.200000 -2.679252
173.250000 -2.720362
173.300000 -2.713510
173.350000 -2.699806
173.400000 -2.689529
173.450000 -2.662121
173.500000 -2.621012
173.550000 -2.562771
173.600000 -2.490828
173.650000 -2.418884
173.700000 -2.340088
173.750000 -2.216756
173.800000 -2.089998
173.850000 -1.990647
173.900000 -1.860463
173.950000 -1.706299
174.000000 -1.606948
174.050000 -1.541855
174.100000 -1.463060
174.150000 -1.452783
174.200000 -1.552133
174.250000 -1.665188
174.300000 -1.747409
174.350000 -1.846760
174.400000 -1.966666
174.450000 -2.055739
174.500000 -2.117405
174.550000 -2.134535
174.600000 -2.096850
174.650000 -2.018054
174.700000 -1.911852
174.750000 -1.795372
174.800000 -1.706299
174.850000 -1.658336
174.900000 -1.627503
174.950000 -1.651484
175.000000 -1.754261
175.050000 -1.881019
175.100000 -1.976944
175.150000 -2.079721
175.200000 -2.151664
175.250000 -2.141386
175.300000 -2.072868
175.350000 -1.994073
175.400000 -1.884445
175.450000 -1.733705
175.500000 -1.565837
175.550000 -1.408246
175.600000 -1.274636
175.650000 -1.226674
175.700000 -1.257506
175.750000 -1.319173
175.800000 -1.445931
175.850000 -1.641207
175.900000 -1.839908
175.950000 -1.987221
176.000000 -2.134534
176.050000 -2.274997
176.100000 -2.343514
176.150000 -2.350365
176.200000 -2.353792
176.250000 -2.329810
176.300000 -2.261293
176.350000 -2.206478
176.400000 -2.185923
176.450000 -2.151664
176.500000 -2.120831
176.550000 -2.155090
176.600000 -2.237312
176.650000 -2.316107
176.700000 -2.377773
176.750000 -2.466846
176.800000 -2.573048
176.850000 -2.644992
176.900000 -2.675825
176.950000 -2.703233
177.000000 -2.737491
177.050000 -2.713510
177.100000 -2.648418
177.150000 -2.617585
177.200000 -2.579901
177.250000 -2.490827
177.300000 -2.384625
177.350000 -2.302403
177.400000 -2.213330
177.450000 -2.103701
177.500000 -2.018055
177.550000 -1.980369
177.600000 -1.946110
177.650000 -1.911852
177.700000 -1.915278
177.750000 -1.983795
177.800000 -2.076294
177.850000 -2.134535
177.900000 -2.158516
177.950000 -2.196201
178.000000 -2.251015
178.050000 -2.278422
178.100000 -2.257867
178.150000 -2.206478
178.200000 -2.137961
178.250000 -2.076295
178.300000 -2.024907
178.350000 -1.952963
178.400000 -1.881018
178.450000 -1.850185
178.500000 -1.860463
178.550000 -1.863890
178.600000 -1.877593
178.650000 -1.905000
178.700000 -1.905000
178.750000 -1.867315
178.800000 -1.829631
178.850000 -1.781668
178.900000 -1.696021
178.950000 -1.620651
179.000000 -1.582967
179.050000 -1.531579
179.100000 -1.463060
179.150000 -1.445931
179.200000 -1.469912
179.250000 -1.490467
179.300000 -1.507597
179.350000 -1.562412
179.400000 -1.654910
179.450000 -1.767965
179.500000 -1.874167
179.550000 -1.966666
179.600000 -2.079721
179.650000 -2.196201
179.700000 -2.254440
179.750000 -2.295551
179.800000 -2.370921
179.850000 -2.422309
179.900000 -2.446291
179.950000 -2.490827
180.000000 -2.511383
180.050000 -2.459994
180.100000 -2.394902
180.150000 -2.326384
180.200000 -2.220182
180.250000 -2.086573
180.300000 -1.976944
180.350000 -1.853612
180.400000 -1.699447
180.450000 -1.531578
180.500000 -1.360284
180.550000 -1.192415
180.600000 -1.082787
180.650000 -0.997139
180.700000 -0.908066
180.750000 -0.894363
180.800000 -0.986861
180.850000 -1.099916
180.900000 -1.223248
180.950000 -1.401395
181.000000 -1.606947
181.050000 -1.788520
181.100000 -1.970092
181.150000 -2.131108
181.200000 -2.223607
181.250000 -2.271570
181.300000 -2.292125
181.350000 -2.240738
181.400000 -2.172220
181.450000 -2.127682
181.500000 -2.042036
181.550000 -1.918704
181.600000 -1.850185
181.650000 -1.819352
181.700000 -1.761112
181.750000 -1.723428
181.800000 -1.747409
181.850000 -1.774817
181.900000 -1.788520
181.950000 -1.822779
182.000000 -1.884444
182.050000 -1.952963
182.100000 -2.042036
182.150000 -2.151664
182.200000 -2.274996
182.250000 -2.408606
182.300000 -2.521660
182.350000 -2.621011
182.400000 -2.734065
182.450000 -2.823139
182.500000 -2.853972
182.550000 -2.871101
182.600000 -2.877953
182.650000 -2.812861
182.700000 -2.686103
182.750000 -2.576475
182.800000 -2.463420
182.850000 -2.316107
182.900000 -2.182497
182.950000 -2.069443
183.000000 -1.946111
183.050000 -1.833056
183.100000 -1.764538
183.150000 -1.733706
183.200000 -1.730279
183.250000 -1.747409
183.300000 -1.767965
183.350000 -1.809075
183.400000 -1.877593
183.450000 -1.959815
183.500000 -2.028332
183.550000 -2.076294
183.600000 -2.110554
183.650000 -2.131109
183.700000 -2.134535
183.750000 -2.093424
183.800000 -2.018054
183.850000 -1.949537
183.900000 -1.894723
183.950000 -1.826205
184.000000 -1.788520
184.050000 -1.788520
184.100000 -1.785094
184.150000 -1.805650
184.200000 -1.874167
184.250000 -1.925555
184.300000 -1.908426
184.350000 -1.901574
184.400000 -1.925556
184.450000 -1.894722
184.500000 -1.822779
184.550000 -1.791946
184.600000 -1.774816
184.650000 -1.733706
184.700000 -1.723427
184.750000 -1.754261
184.800000 -1.802224
184.850000 -1.874167
184.900000 -1.976944
184.950000 -2.069443
185.000000 -2.148239
185.050000 -2.230460
185.100000 -2.281848
185.150000 -2.271571
185.200000 -2.254441
185.250000 -2.244164
185.300000 -2.182497
185.350000 -2.079720
185.400000 -1.994074
185.450000 -1.942685
185.500000 -1.874167
185.550000 -1.802224
185.600000 -1.764539
185.650000 -1.764539
185.700000 -1.750835
185.750000 -1.740557
185.800000 -1.747409
185.850000 -1.754261
185.900000 -1.750835
185.950000 -1.774816
186.000000 -1.822779
186.050000 -1.843334
186.100000 -1.853611
186.150000 -1.894723
186.200000 -1.949537
186.250000 -1.994073
186.300000 -2.038609
186.350000 -2.083147
186.400000 -2.137961
186.450000 -2.206479
186.500000 -2.264718
186.550000 -2.312681
186.600000 -2.381199
186.650000 -2.480550
186.700000 -2.562771
186.750000 -2.597030
186.800000 -2.624437
186.850000 -2.662121
186.900000 -2.658696
186.950000 -2.593604
187.000000 -2.518234
187.050000 -2.418884
187.100000 -2.264719
187.150000 -2.052314
187.200000 -1.843334
187.250000 -1.644633
187.300000 -1.432227
187.350000 -1.219822
187.400000 -1.062231
187.450000 -0.956029
187.500000 -0.887511
187.550000 -0.873807
187.600000 -0.928622
187.650000 -1.034824
187.700000 -1.158156
187.750000 -1.312321
187.800000 -1.497319
187.850000 -1.682317
187.900000 -1.843334
187.950000 -2.000925
188.000000 -2.148238
188.050000 -2.254441
188.100000 -2.309255
188.150000 -2.353791
188.200000 -2.398328
188.250000 -2.439439
188.300000 -2.483975
188.350000 -2.511382
188.400000 -2.514808
188.450000 -2.518235
188.500000 -2.528512
188.550000 -2.518234
188.600000 -2.473698
188.650000 -2.422310
188.700000 -2.357218
188.750000 -2.261292
188.800000 -2.161942
188.850000 -2.059165
