fit_time[ns] Functional_fit[mV] Thermal_fit[mV]
3.600000 39.475107 38.986563
3.650000 39.173640 38.296237
3.700000 38.858883 37.618176
3.750000 38.521585 36.952147
3.800000 38.153453 36.297921
3.850000 37.747352 35.655273
3.900000 37.297467 35.023986
3.950000 36.799435 34.403843
4.000000 36.250441 33.794635
4.050000 35.649267 33.196156
4.100000 34.996308 32.608204
4.150000 34.293541 32.030582
4.200000 33.544457 31.463097
4.250000 32.753953 30.905559
4.300000 31.928194 30.357782
4.350000 31.074441 29.819585
4.400000 30.200848 29.290790
4.450000 29.316248 28.771223
4.500000 28.429914 28.260711
4.550000 27.551321 27.759089
4.600000 26.689891 27.266191
4.650000 25.854760 26.781858
4.700000 25.054533 26.305931
4.750000 24.297076 25.838256
4.800000 23.589311 25.378681
4.850000 22.937048 24.927059
4.900000 22.344841 24.483243
4.950000 21.815880 24.047092
5.000000 21.351919 23.618465
5.050000 20.953235 23.197226
5.100000 20.618638 22.783241
5.150000 20.345500 22.376377
5.200000 20.129839 21.976505
5.250000 19.966426 21.583500
5.300000 19.848920 21.197236
5.350000 19.770043 20.817593
5.400000 19.721765 20.444450
5.450000 19.695512 20.077692
5.500000 19.682384 19.717203
5.550000 19.673386 19.362870
5.600000 19.659649 19.014584
5.650000 19.632654 18.672235
5.700000 19.584443 18.335719
5.750000 19.507811 18.004930
5.800000 19.396486 17.679767
5.850000 19.245270 17.360128
5.900000 19.050166 17.045917
5.950000 18.808466 16.737037
6.000000 18.518802 16.433392
6.050000 18.181172 16.134891
6.100000 17.796925 15.841441
6.150000 17.368712 15.552954
6.200000 16.900405 15.269342
6.250000 16.396989 14.990520
6.300000 15.864422 14.716401
6.350000 15.309471 14.446905
6.400000 14.739534 14.181949
6.450000 14.162447 13.921453
6.500000 13.586272 13.665340
6.550000 13.019095 13.413532
6.600000 12.468814 13.165955
6.650000 11.942942 12.922534
6.700000 11.448413 12.683196
6.750000 10.991413 12.447871
6.800000 10.577222 12.216488
6.850000 10.210092 11.988978
6.900000 9.893142 11.765275
6.950000 9.628285 11.545311
7.000000 9.416192 11.329023
7.050000 9.256282 11.116346
7.100000 9.146743 10.907217
7.150000 9.084591 10.701576
7.200000 9.065752 10.499361
7.250000 9.085172 10.300514
7.300000 9.136955 10.104976
7.350000 9.214514 9.912691
7.400000 9.310749 9.723602
7.450000 9.418224 9.537654
7.500000 9.529361 9.354793
7.550000 9.636632 9.174966
7.600000 9.732747 8.998121
7.650000 9.810837 8.824207
7.700000 9.864624 8.653173
7.750000 9.888573 8.484970
7.800000 9.878028 8.319550
7.850000 9.829318 8.156865
7.900000 9.739843 7.996868
7.950000 9.608129 7.839514
8.000000 9.433855 7.684756
8.050000 9.217852 7.532552
8.100000 8.962069 7.382857
8.150000 8.669513 7.235629
8.200000 8.344165 7.090825
8.250000 7.990865 6.948406
8.300000 7.615187 6.808329
8.350000 7.223284 6.670555
8.400000 6.821730 6.535046
8.450000 6.417348 6.401762
8.500000 6.017030 6.270667
8.550000 5.627566 6.141723
8.600000 5.255465 6.014893
8.650000 4.906796 5.890143
8.700000 4.587037 5.767436
8.750000 4.300933 5.646739
8.800000 4.052389 5.528018
8.850000 3.844372 5.411239
8.900000 3.678845 5.296369
8.950000 3.556722 5.183376
9.000000 3.477856 5.072230
9.050000 3.441048 4.962898
9.100000 3.444088 4.855351
9.150000 3.483816 4.749558
9.200000 3.556212 4.645490
9.250000 3.656505 4.543118
9.300000 3.779295 4.442414
9.350000 3.918703 4.343350
9.400000 4.068514 4.245898
9.450000 4.222345 4.150031
9.500000 4.373804 4.055723
9.550000 4.516653 3.962948
9.600000 4.644964 3.871680
9.650000 4.753267 3.781895
9.700000 4.836684 3.693567
9.750000 4.891047 3.606672
9.800000 4.912998 3.521186
9.850000 4.900068 3.437086
9.900000 4.850729 3.354349
9.950000 4.764426 3.272952
10.000000 4.641583 3.192874
10.050000 4.483581 3.114091
10.100000 4.292719 3.036583
10.150000 4.072141 2.960328
10.200000 3.825754 2.885306
10.250000 3.558118 2.811496
10.300000 3.274327 2.738878
10.350000 2.979873 2.667433
10.400000 2.680502 2.597141
10.450000 2.382067 2.527983
10.500000 2.090377 2.459940
10.550000 1.811049 2.392994
10.600000 1.549369 2.327127
10.650000 1.310154 2.262321
10.700000 1.097640 2.198558
10.750000 0.915374 2.135822
10.800000 0.766132 2.074095
10.850000 0.651852 2.013361
10.900000 0.573595 1.953603
10.950000 0.531520 1.894806
11.000000 0.524892 1.836954
11.050000 0.552104 1.780031
11.100000 0.610726 1.724022
11.150000 0.697577 1.668911
11.200000 0.808803 1.614685
11.250000 0.939991 1.561328
11.300000 1.086275 1.508827
11.350000 1.242471 1.457168
11.400000 1.403209 1.406336
11.450000 1.563066 1.356318
11.500000 1.716712 1.307101
11.550000 1.859036 1.258671
11.600000 1.985280 1.211017
11.650000 2.091154 1.164125
11.700000 2.172941 1.117982
11.750000 2.227586 1.072577
11.800000 2.252768 1.027898
11.850000 2.246953 0.983932
11.900000 2.209427 0.940668
11.950000 2.140303 0.898095
12.000000 2.040516 0.856201
12.050000 1.911788 0.814976
12.100000 1.756581 0.774408
12.150000 1.578023 0.734487
12.200000 1.379830 0.695202
12.250000 1.166197 0.656543
12.300000 0.941697 0.618500
12.350000 0.711152 0.581062
12.400000 0.479517 0.544221
12.450000 0.251745 0.507965
12.500000 0.032666 0.472287
12.550000 -0.173137 0.437176
12.600000 -0.361443 0.402623
12.650000 -0.528495 0.368620
12.700000 -0.671095 0.335156
12.750000 -0.786679 0.302224
12.800000 -0.873378 0.269816
12.850000 -0.930058 0.237921
12.900000 -0.956345 0.206533
12.950000 -0.952627 0.175643
13.000000 -0.920039 0.145243
13.050000 -0.860427 0.115325
13.100000 -0.776298 0.085882
13.150000 -0.670745 0.056905
13.200000 -0.547370 0.028387
13.250000 -0.410187 0.000321
13.300000 -0.263514 -0.027301
13.350000 -0.111862 -0.054485
13.400000 0.040179 -0.081239
13.450000 0.188059 -0.107570
13.500000 0.327384 -0.133484
13.550000 0.454022 -0.158989
13.600000 0.564211 -0.184090
13.650000 0.654647 -0.208795
13.700000 0.722569 -0.233109
13.750000 0.765816 -0.257039
13.800000 0.782888 -0.280591
13.850000 0.772967 -0.303771
13.900000 0.735940 -0.326585
13.950000 0.672393 -0.349039
14.000000 0.583589 -0.371139
14.050000 0.471433 -0.392890
14.100000 0.338415 -0.414299
14.150000 0.187543 -0.435370
14.200000 0.022262 -0.456108
14.250000 -0.153635 -0.476520
14.300000 -0.336112 -0.496610
14.350000 -0.520990 -0.516384
14.400000 -0.704056 -0.535847
14.450000 -0.881169 -0.555003
14.500000 -1.048369 -0.573858
14.550000 -1.201971 -0.592415
14.600000 -1.338659 -0.610681
14.650000 -1.455570 -0.628660
14.700000 -1.550356 -0.646356
14.750000 -1.621246 -0.663774
14.800000 -1.667084 -0.680918
14.850000 -1.687354 -0.697793
14.900000 -1.682184 -0.714402
14.950000 -1.652344 -0.730751
15.000000 -1.599217 -0.746843
15.050000 -1.524757 -0.762683
15.100000 -1.431442 -0.778274
15.150000 -1.322197 -0.793620
15.200000 -1.200324 -0.808725
15.250000 -1.069412 -0.823594
15.300000 -0.933243 -0.838229
15.350000 -0.795693 -0.852635
15.400000 -0.660639 -0.866815
15.450000 -0.531853 -0.880773
15.500000 -0.412911 -0.894512
15.550000 -0.307103 -0.908036
15.600000 -0.217354 -0.921348
15.650000 -0.146150 -0.934452
15.700000 -0.095479 -0.947351
15.750000 -0.066785 -0.960048
15.800000 -0.060938 -0.972546
15.850000 -0.078213 -0.984848
15.900000 -0.118293 -0.996959
15.950000 -0.180277 -1.008879
16.000000 -0.262709 -1.020614
16.050000 -0.363624 -1.032165
16.100000 -0.480598 -1.043535
16.150000 -0.610814 -1.054728
16.200000 -0.751137 -1.065746
16.250000 -0.898198 -1.076592
16.300000 -1.048481 -1.087269
16.350000 -1.198413 -1.097778
16.400000 -1.344455 -1.108124
16.450000 -1.483192 -1.118309
16.500000 -1.611422 -1.128334
16.550000 -1.726228 -1.138203
16.600000 -1.825058 -1.147918
16.650000 -1.905784 -1.157482
16.700000 -1.966749 -1.166896
16.750000 -2.006810 -1.176164
16.800000 -2.025362 -1.185288
16.850000 -2.022346 -1.194269
16.900000 -1.998248 -1.203110
16.950000 -1.954083 -1.211814
17.000000 -1.891365 -1.220382
17.050000 -1.812061 -1.228816
17.100000 -1.718541 -1.237120
17.150000 -1.613511 -1.245294
17.200000 -1.499947 -1.253340
17.250000 -1.381010 -1.261262
17.300000 -1.259971 -1.269061
17.350000 -1.140122 -1.276738
17.400000 -1.024694 -1.284296
17.450000 -0.916775 -1.291736
17.500000 -0.819237 -1.299060
17.550000 -0.734656 -1.306271
17.600000 -0.665257 -1.313370
17.650000 -0.612859 -1.320358
17.700000 -0.578827 -1.327238
17.750000 -0.564050 -1.334011
17.800000 -0.568913 -1.340679
17.850000 -0.593299 -1.347244
17.900000 -0.636592 -1.353706
17.950000 -0.697698 -1.360068
18.000000 -0.775077 -1.366332
18.050000 -0.866788 -1.372498
18.100000 -0.970536 -1.378568
18.150000 -1.083739 -1.384545
18.200000 -1.203595 -1.390429
18.250000 -1.327152 -1.396221
18.300000 -1.451386 -1.401924
18.350000 -1.573282 -1.407538
18.400000 -1.689904 -1.413066
18.450000 -1.798475 -1.418507
18.500000 -1.896442 -1.423865
18.550000 -1.981541 -1.429139
18.600000 -2.051852 -1.434332
18.650000 -2.105846 -1.439444
18.700000 -2.142416 -1.444478
18.750000 -2.160910 -1.449433
18.800000 -2.161134 -1.454312
18.850000 -2.143361 -1.459115
18.900000 -2.108316 -1.463844
18.950000 -2.057154 -1.468499
19.000000 -1.991431 -1.473083
19.050000 -1.913054 -1.477596
19.100000 -1.824237 -1.482039
19.150000 -1.727438 -1.486413
19.200000 -1.625295 -1.490720
19.250000 -1.520557 -1.494960
19.300000 -1.416018 -1.499134
19.350000 -1.314437 -1.503244
19.400000 -1.218477 -1.507291
19.450000 -1.130631 -1.511275
19.500000 -1.053166 -1.515198
19.550000 -0.988063 -1.519060
19.600000 -0.936972 -1.522862
19.650000 -0.901170 -1.526606
19.700000 -0.881534 -1.530292
19.750000 -0.878522 -1.533921
19.800000 -0.892164 -1.537494
19.850000 -0.922065 -1.541012
19.900000 -0.967418 -1.544475
19.950000 -1.027031 -1.547886
20.000000 -1.099354 -1.551243
20.050000 -1.182531 -1.554549
20.100000 -1.274440 -1.557804
20.150000 -1.372756 -1.561009
20.200000 -1.475009 -1.564164
20.250000 -1.578649 -1.567271
20.300000 -1.681108 -1.570330
20.350000 -1.779873 -1.573342
20.400000 -1.872540 -1.576307
20.450000 -1.956882 -1.579227
20.500000 -2.030900 -1.582102
20.550000 -2.092873 -1.584932
20.600000 -2.141400 -1.587719
20.650000 -2.175431 -1.590463
20.700000 -2.194293 -1.593165
20.750000 -2.197703 -1.595825
20.800000 -2.185772 -1.598444
20.850000 -2.158998 -1.601023
20.900000 -2.118252 -1.603562
20.950000 -2.064751 -1.606063
21.000000 -2.000026 -1.608524
21.050000 -1.925877 -1.610948
21.100000 -1.844331 -1.613335
21.150000 -1.757582 -1.615685
21.200000 -1.667938 -1.617999
21.250000 -1.577760 -1.620277
21.300000 -1.489403 -1.622521
21.350000 -1.405153 -1.624729
21.400000 -1.327174 -1.626904
21.450000 -1.257450 -1.629046
21.500000 -1.197737 -1.631154
21.550000 -1.149524 -1.633231
21.600000 -1.113992 -1.635275
21.650000 -1.091990 -1.637288
21.700000 -1.084014 -1.639270
21.750000 -1.090201 -1.641222
21.800000 -1.110324 -1.643143
21.850000 -1.143805 -1.645036
21.900000 -1.189728 -1.646899
21.950000 -1.246870 -1.648733
22.000000 -1.313732 -1.650540
22.050000 -1.388580 -1.652319
22.100000 -1.469489 -1.654070
22.150000 -1.554398 -1.655795
22.200000 -1.641161 -1.657493
22.250000 -1.727599 -1.659165
22.300000 -1.811562 -1.660812
22.350000 -1.890978 -1.662433
22.400000 -1.963911 -1.664029
22.450000 -2.028601 -1.665601
22.500000 -2.083513 -1.667149
22.550000 -2.127375 -1.668673
22.600000 -2.159202 -1.670174
22.650000 -2.178326 -1.671652
22.700000 -2.184404 -1.673107
22.750000 -2.177429 -1.674540
22.800000 -2.157723 -1.675951
22.850000 -2.125931 -1.677341
22.900000 -2.082997 -1.678709
22.950000 -2.030140 -1.680056
23.000000 -1.968821 -1.681383
23.050000 -1.900703 -1.682689
23.100000 -1.827607 -1.683975
23.150000 -1.751465 -1.685242
23.200000 -1.674270 -1.686489
23.250000 -1.598024 -1.687717
23.300000 -1.524687 -1.688927
23.350000 -1.456131 -1.690118
23.400000 -1.394086 -1.691290
23.450000 -1.340106 -1.692445
23.500000 -1.295524 -1.693582
23.550000 -1.261422 -1.694702
23.600000 -1.238609 -1.695805
23.650000 -1.227596 -1.696891
23.700000 -1.228594 -1.697960
23.750000 -1.241503 -1.699013
23.800000 -1.265921 -1.700049
23.850000 -1.301160 -1.701070
23.900000 -1.346258 -1.702076
23.950000 -1.400013 -1.703066
24.000000 -1.461011 -1.704041
24.050000 -1.527666 -1.705001
24.100000 -1.598262 -1.705946
24.150000 -1.670997 -1.706877
24.200000 -1.744026 -1.707794
24.250000 -1.815517 -1.708696
24.300000 -1.883688 -1.709585
24.350000 -1.946857 -1.710461
24.400000 -2.003484 -1.711323
24.450000 -2.052206 -1.712171
24.500000 -2.091873 -1.713007
24.550000 -2.121575 -1.713831
24.600000 -2.140661 -1.714641
24.650000 -2.148756 -1.715439
24.700000 -2.145767 -1.716226
24.750000 -2.131883 -1.717000
24.800000 -2.107567 -1.717762
24.850000 -2.073545 -1.718513
24.900000 -2.030781 -1.719252
24.950000 -1.980454 -1.719980
25.000000 -1.923926 -1.720697
25.050000 -1.862702 -1.721403
25.100000 -1.798396 -1.722098
25.150000 -1.732686 -1.722783
25.200000 -1.667270 -1.723457
25.250000 -1.603826 -1.724121
25.300000 -1.543966 -1.724775
25.350000 -1.489198 -1.725418
25.400000 -1.440886 -1.726053
25.450000 -1.400222 -1.726677
25.500000 -1.368190 -1.727292
25.550000 -1.345547 -1.727897
25.600000 -1.332805 -1.728494
25.650000 -1.330221 -1.729081
25.700000 -1.337790 -1.729659
25.750000 -1.355249 -1.730229
25.800000 -1.382086 -1.730790
25.850000 -1.417556 -1.731342
25.900000 -1.460697 -1.731886
25.950000 -1.510365 -1.732422
26.000000 -1.565255 -1.732949
26.050000 -1.623942 -1.733469
26.100000 -1.684917 -1.733980
26.150000 -1.746624 -1.734484
26.200000 -1.807502 -1.734980
26.250000 -1.866024 -1.735469
26.300000 -1.920734 -1.735950
26.350000 -1.970286 -1.736424
26.400000 -2.013478 -1.736890
26.450000 -2.049276 -1.737350
26.500000 -2.076844 -1.737802
26.550000 -2.095563 -1.738248
26.600000 -2.105043 -1.738687
26.650000 -2.105130 -1.739119
26.700000 -2.095914 -1.739545
26.750000 -2.077716 -1.739964
26.800000 -2.051085 -1.740377
26.850000 -2.016780 -1.740784
26.900000 -1.975746 -1.741184
26.950000 -1.929093 -1.741579
27.000000 -1.878064 -1.741967
27.050000 -1.824001 -1.742349
27.100000 -1.768315 -1.742726
27.150000 -1.712442 -1.743097
27.200000 -1.657814 -1.743462
27.250000 -1.605818 -1.743822
27.300000 -1.557762 -1.744176
27.350000 -1.514843 -1.744525
27.400000 -1.478119 -1.744869
27.450000 -1.448478 -1.745208
27.500000 -1.426623 -1.745541
27.550000 -1.413053 -1.745869
27.600000 -1.408052 -1.746192
27.650000 -1.411683 -1.746511
27.700000 -1.423789 -1.746824
27.750000 -1.444001 -1.747133
27.800000 -1.471743 -1.747437
27.850000 -1.506257 -1.747737
27.900000 -1.546615 -1.748032
27.950000 -1.591751 -1.748322
28.000000 -1.640486 -1.748608
28.050000 -1.691557 -1.748890
28.100000 -1.743655 -1.749167
28.150000 -1.795455 -1.749441
28.200000 -1.845649 -1.749710
28.250000 -1.892983 -1.749975
28.300000 -1.936284 -1.750236
28.350000 -1.974493 -1.750493
28.400000 -2.006688 -1.750746
28.450000 -2.032108 -1.750995
28.500000 -2.050170 -1.751241
28.550000 -2.060482 -1.751483
28.600000 -2.062855 -1.751721
28.650000 -2.057300 -1.751956
28.700000 -2.044031 -1.752187
28.750000 -2.023456 -1.752414
28.800000 -1.996164 -1.752638
28.850000 -1.962912 -1.752859
28.900000 -1.924599 -1.753076
28.950000 -1.882247 -1.753291
29.000000 -1.836973 -1.753501
29.050000 -1.789955 -1.753709
29.100000 -1.742409 -1.753914
29.150000 -1.695552 -1.754115
29.200000 -1.650575 -1.754313
29.250000 -1.608610 -1.754509
29.300000 -1.570702 -1.754701
29.350000 -1.537787 -1.754891
29.400000 -1.510663 -1.755077
29.450000 -1.489976 -1.755261
29.500000 -1.476202 -1.755442
29.550000 -1.469638 -1.755620
29.600000 -1.470395 -1.755796
29.650000 -1.478396 -1.755969
29.700000 -1.493383 -1.756139
29.750000 -1.514919 -1.756307
29.800000 -1.542408 -1.756472
29.850000 -1.575105 -1.756635
29.900000 -1.612139 -1.756795
29.950000 -1.652538 -1.756953
30.000000 -1.695250 -1.757109
30.050000 -1.739175 -1.757262
30.100000 -1.783190 -1.757413
30.150000 -1.826180 -1.757561
30.200000 -1.867066 -1.757707
30.250000 -1.904828 -1.757851
30.300000 -1.938539 -1.757993
30.350000 -1.967378 -1.758133
30.400000 -1.990657 -1.758271
30.450000 -2.007835 -1.758406
30.500000 -2.018530 -1.758540
30.550000 -2.022528 -1.758671
30.600000 -2.019787 -1.758801
30.650000 -2.010436 -1.758928
30.700000 -1.994772 -1.759054
30.750000 -1.973248 -1.759178
30.800000 -1.946465 -1.759300
30.850000 -1.915149 -1.759420
30.900000 -1.880137 -1.759538
30.950000 -1.842354 -1.759654
31.000000 -1.802786 -1.759769
31.050000 -1.762455 -1.759882
31.100000 -1.722396 -1.759993
31.150000 -1.683627 -1.760103
31.200000 -1.647126 -1.760211
31.250000 -1.613804 -1.760317
31.300000 -1.584484 -1.760422
31.350000 -1.559879 -1.760525
31.400000 -1.540578 -1.760626
31.450000 -1.527030 -1.760726
31.500000 -1.519534 -1.760825
31.550000 -1.518231 -1.760922
31.600000 -1.523105 -1.761017
31.650000 -1.533983 -1.761112
31.700000 -1.550540 -1.761204
31.750000 -1.572312 -1.761296
31.800000 -1.598702 -1.761385
31.850000 -1.629005 -1.761474
31.900000 -1.662419 -1.761561
31.950000 -1.698071 -1.761647
32.000000 -1.735040 -1.761732
32.050000 -1.772377 -1.761815
32.100000 -1.809131 -1.761897
32.150000 -1.844377 -1.761978
32.200000 -1.877233 -1.762058
32.250000 -1.906886 -1.762136
32.300000 -1.932612 -1.762214
32.350000 -1.953792 -1.762290
32.400000 -1.969927 -1.762365
32.450000 -1.980653 -1.762438
32.500000 -1.985743 -1.762511
32.550000 -1.985118 -1.762583
32.600000 -1.978842 -1.762653
32.650000 -1.967125 -1.762723
32.700000 -1.950312 -1.762791
32.750000 -1.928875 -1.762859
32.800000 -1.903398 -1.762925
32.850000 -1.874565 -1.762990
32.900000 -1.843137 -1.763055
32.950000 -1.809938 -1.763118
33.000000 -1.775827 -1.763181
33.050000 -1.741681 -1.763242
33.100000 -1.708368 -1.763303
33.150000 -1.676729 -1.763363
33.200000 -1.647557 -1.763421
33.250000 -1.621574 -1.763479
33.300000 -1.599413 -1.763536
33.350000 -1.581609 -1.763593
33.400000 -1.568577 -1.763648
33.450000 -1.560612 -1.763702
33.500000 -1.557873 -1.763756
33.550000 -1.560389 -1.763809
33.600000 -1.568052 -1.763861
33.650000 -1.580627 -1.763912
33.700000 -1.597753 -1.763963
33.750000 -1.618958 -1.764013
33.800000 -1.643672 -1.764062
33.850000 -1.671237 -1.764110
33.900000 -1.700931 -1.764158
33.950000 -1.731982 -1.764204
34.000000 -1.763591 -1.764251
34.050000 -1.794952 -1.764296
34.100000 -1.825270 -1.764341
34.150000 -1.853786 -1.764385
34.200000 -1.879791 -1.764428
34.250000 -1.902646 -1.764471
34.300000 -1.921798 -1.764513
34.350000 -1.936793 -1.764555
34.400000 -1.947285 -1.764596
34.450000 -1.953046 -1.764636
34.500000 -1.953971 -1.764676
34.550000 -1.950078 -1.764715
34.600000 -1.941508 -1.764753
34.650000 -1.928517 -1.764791
34.700000 -1.911475 -1.764828
34.750000 -1.890849 -1.764865
34.800000 -1.867194 -1.764901
34.850000 -1.841138 -1.764937
34.900000 -1.813364 -1.764972
34.950000 -1.784593 -1.765007
35.000000 -1.755565 -1.765041
35.050000 -1.727021 -1.765074
35.100000 -1.699683 -1.765108
35.150000 -1.674236 -1.765140
35.200000 -1.651313 -1.765172
35.250000 -1.631474 -1.765204
35.300000 -1.615200 -1.765235
35.350000 -1.602875 -1.765266
35.400000 -1.594779 -1.765296
35.450000 -1.591084 -1.765326
35.500000 -1.591847 -1.765355
35.550000 -1.597012 -1.765384
35.600000 -1.606413 -1.765412
35.650000 -1.619774 -1.765440
35.700000 -1.636725 -1.765468
35.750000 -1.656806 -1.765495
35.800000 -1.679479 -1.765522
35.850000 -1.704149 -1.765548
35.900000 -1.730172 -1.765574
35.950000 -1.756876 -1.765600
36.000000 -1.783577 -1.765625
36.050000 -1.809599 -1.765650
36.100000 -1.834286 -1.765674
36.150000 -1.857022 -1.765698
36.200000 -1.877246 -1.765722
36.250000 -1.894467 -1.765745
36.300000 -1.908273 -1.765768
36.350000 -1.918341 -1.765791
36.400000 -1.924449 -1.765813
36.450000 -1.926474 -1.765835
36.500000 -1.924400 -1.765857
36.550000 -1.918315 -1.765878
36.600000 -1.908407 -1.765899
36.650000 -1.894961 -1.765920
36.700000 -1.878348 -1.765940
36.750000 -1.859019 -1.765960
36.800000 -1.837486 -1.765980
36.850000 -1.814317 -1.766000
36.900000 -1.790114 -1.766019
36.950000 -1.765501 -1.766038
37.000000 -1.741109 -1.766056
37.050000 -1.717554 -1.766075
37.100000 -1.695430 -1.766093
37.150000 -1.675287 -1.766111
37.200000 -1.657621 -1.766128
37.250000 -1.642860 -1.766146
37.300000 -1.631355 -1.766163
37.350000 -1.623372 -1.766179
37.400000 -1.619084 -1.766196
37.450000 -1.618571 -1.766212
37.500000 -1.621814 -1.766228
37.550000 -1.628698 -1.766244
37.600000 -1.639021 -1.766259
37.650000 -1.652489 -1.766275
37.700000 -1.668737 -1.766290
37.750000 -1.687326 -1.766305
37.800000 -1.707767 -1.766319
37.850000 -1.729524 -1.766334
37.900000 -1.752034 -1.766348
37.950000 -1.774719 -1.766362
38.000000 -1.797001 -1.766376
38.050000 -1.818318 -1.766389
38.100000 -1.838137 -1.766403
38.150000 -1.855967 -1.766416
38.200000 -1.871372 -1.766429
38.250000 -1.883981 -1.766441
38.300000 -1.893497 -1.766454
38.350000 -1.899705 -1.766466
38.400000 -1.902475 -1.766479
38.450000 -1.901767 -1.766491
38.500000 -1.897626 -1.766503
38.550000 -1.890189 -1.766514
38.600000 -1.879671 -1.766526
38.650000 -1.866366 -1.766537
38.700000 -1.850636 -1.766548
38.750000 -1.832901 -1.766559
38.800000 -1.813628 -1.766570
38.850000 -1.793322 -1.766581
38.900000 -1.772506 -1.766591
38.950000 -1.751714 -1.766602
39.000000 -1.731475 -1.766612
39.050000 -1.712298 -1.766622
39.100000 -1.694662 -1.766632
39.150000 -1.679003 -1.766641
39.200000 -1.665702 -1.766651
39.250000 -1.655077 -1.766660
39.300000 -1.647377 -1.766670
39.350000 -1.642773 -1.766679
39.400000 -1.641356 -1.766688
39.450000 -1.643135 -1.766697
39.500000 -1.648040 -1.766706
39.550000 -1.655918 -1.766714
39.600000 -1.666546 -1.766723
39.650000 -1.679630 -1.766731
39.700000 -1.694818 -1.766739
39.750000 -1.711705 -1.766748
39.800000 -1.729850 -1.766756
39.850000 -1.748781 -1.766763
39.900000 -1.768010 -1.766771
39.950000 -1.787046 -1.766779
40.000000 -1.805407 -1.766786
40.050000 -1.822633 -1.766794
40.100000 -1.838296 -1.766801
40.150000 -1.852011 -1.766808
40.200000 -1.863445 -1.766815
40.250000 -1.872328 -1.766822
40.300000 -1.878456 -1.766829
40.350000 -1.881696 -1.766836
40.400000 -1.881990 -1.766843
40.450000 -1.879355 -1.766849
40.500000 -1.873884 -1.766856
40.550000 -1.865739 -1.766862
40.600000 -1.855150 -1.766869
40.650000 -1.842406 -1.766875
40.700000 -1.827849 -1.766881
40.750000 -1.811865 -1.766887
40.800000 -1.794873 -1.766893
40.850000 -1.777311 -1.766899
40.900000 -1.759633 -1.766904
40.950000 -1.742287 -1.766910
41.000000 -1.725712 -1.766916
41.050000 -1.710323 -1.766921
41.100000 -1.696502 -1.766927
41.150000 -1.684585 -1.766932
41.200000 -1.674862 -1.766937
41.250000 -1.667559 -1.766942
41.300000 -1.662843 -1.766947
41.350000 -1.660811 -1.766952
41.400000 -1.661494 -1.766957
41.450000 -1.664851 -1.766962
41.500000 -1.670774 -1.766967
41.550000 -1.679092 -1.766972
41.600000 -1.689574 -1.766976
41.650000 -1.701934 -1.766981
41.700000 -1.715844 -1.766986
41.750000 -1.730936 -1.766990
41.800000 -1.746818 -1.766994
41.850000 -1.763080 -1.766999
41.900000 -1.779305 -1.767003
41.950000 -1.795081 -1.767007
42.000000 -1.810012 -1.767011
42.050000 -1.823724 -1.767015
42.100000 -1.835881 -1.767019
42.150000 -1.846186 -1.767023
42.200000 -1.854393 -1.767027
42.250000 -1.860311 -1.767031
42.300000 -1.863809 -1.767035
42.350000 -1.864819 -1.767039
42.400000 -1.863336 -1.767042
42.450000 -1.859418 -1.767046
42.500000 -1.853185 -1.767049
42.550000 -1.844817 -1.767053
42.600000 -1.834542 -1.767056
42.650000 -1.822638 -1.767060
42.700000 -1.809422 -1.767063
42.750000 -1.795241 -1.767066
42.800000 -1.780462 -1.767070
42.850000 -1.765467 -1.767073
42.900000 -1.750638 -1.767076
42.950000 -1.736352 -1.767079
43.000000 -1.722966 -1.767082
43.050000 -1.710813 -1.767085
43.100000 -1.700192 -1.767088
43.150000 -1.691359 -1.767091
43.200000 -1.684526 -1.767094
43.250000 -1.679847 -1.767097
43.300000 -1.677425 -1.767100
43.350000 -1.677302 -1.767102
43.400000 -1.679461 -1.767105
43.450000 -1.683830 -1.767108
43.500000 -1.690278 -1.767110
43.550000 -1.698625 -1.767113
43.600000 -1.708642 -1.767115
43.650000 -1.720060 -1.767118
43.700000 -1.732579 -1.767120
43.750000 -1.745870 -1.767123
43.800000 -1.759590 -1.767125
43.850000 -1.773387 -1.767128
43.900000 -1.786909 -1.767130
43.950000 -1.799815 -1.767132
44.000000 -1.811782 -1.767135
44.050000 -1.822514 -1.767137
44.100000 -1.831749 -1.767139
44.150000 -1.839265 -1.767141
44.200000 -1.844885 -1.767143
44.250000 -1.848483 -1.767145
44.300000 -1.849984 -1.767147
44.350000 -1.849367 -1.767150
44.400000 -1.846666 -1.767152
44.450000 -1.841967 -1.767154
44.500000 -1.835406 -1.767155
44.550000 -1.827167 -1.767157
44.600000 -1.817471 -1.767159
44.650000 -1.806578 -1.767161
44.700000 -1.794775 -1.767163
44.750000 -1.782369 -1.767165
44.800000 -1.769681 -1.767167
44.850000 -1.757035 -1.767168
44.900000 -1.744753 -1.767170
44.950000 -1.733143 -1.767172
45.000000 -1.722496 -1.767173
45.050000 -1.713073 -1.767175
45.100000 -1.705103 -1.767177
45.150000 -1.698778 -1.767178
45.200000 -1.694244 -1.767180
45.250000 -1.691601 -1.767181
45.300000 -1.690901 -1.767183
45.350000 -1.692145 -1.767185
45.400000 -1.695286 -1.767186
45.450000 -1.700227 -1.767187
45.500000 -1.706828 -1.767189
45.550000 -1.714908 -1.767190
45.600000 -1.724248 -1.767192
45.650000 -1.734602 -1.767193
45.700000 -1.745697 -1.767194
45.750000 -1.757245 -1.767196
45.800000 -1.768949 -1.767197
45.850000 -1.780510 -1.767198
45.900000 -1.791637 -1.767200
45.950000 -1.802049 -1.767201
46.000000 -1.811488 -1.767202
46.050000 -1.819723 -1.767203
46.100000 -1.826554 -1.767205
46.150000 -1.831820 -1.767206
46.200000 -1.835400 -1.767207
46.250000 -1.837217 -1.767208
46.300000 -1.837239 -1.767209
46.350000 -1.835483 -1.767210
46.400000 -1.832006 -1.767212
46.450000 -1.826911 -1.767213
46.500000 -1.820343 -1.767214
46.550000 -1.812479 -1.767215
46.600000 -1.803531 -1.767216
46.650000 -1.793735 -1.767217
46.700000 -1.783348 -1.767218
46.750000 -1.772638 -1.767219
46.800000 -1.761880 -1.767220
46.850000 -1.751347 -1.767221
46.900000 -1.741307 -1.767222
46.950000 -1.732009 -1.767223
47.000000 -1.723684 -1.767224
47.050000 -1.716535 -1.767224
47.100000 -1.710733 -1.767225
47.150000 -1.706417 -1.767226
47.200000 -1.703681 -1.767227
47.250000 -1.702583 -1.767228
47.300000 -1.703137 -1.767229
47.350000 -1.705315 -1.767230
47.400000 -1.709048 -1.767230
47.450000 -1.714228 -1.767231
47.500000 -1.720712 -1.767232
47.550000 -1.728323 -1.767233
47.600000 -1.736859 -1.767234
47.650000 -1.746096 -1.767234
47.700000 -1.755792 -1.767235
47.750000 -1.765698 -1.767236
47.800000 -1.775559 -1.767237
47.850000 -1.785127 -1.767237
47.900000 -1.794160 -1.767238
47.950000 -1.802433 -1.767239
48.000000 -1.809742 -1.767239
48.050000 -1.815910 -1.767240
48.100000 -1.820790 -1.767241
48.150000 -1.824268 -1.767241
48.200000 -1.826267 -1.767242
48.250000 -1.826750 -1.767243
48.300000 -1.825717 -1.767243
48.350000 -1.823207 -1.767244
48.400000 -1.819296 -1.767245
48.450000 -1.814094 -1.767245
48.500000 -1.807746 -1.767246
48.550000 -1.800422 -1.767246
48.600000 -1.792317 -1.767247
48.650000 -1.783642 -1.767247
48.700000 -1.774623 -1.767248
48.750000 -1.765493 -1.767249
48.800000 -1.756484 -1.767249
48.850000 -1.747823 -1.767250
48.900000 -1.739730 -1.767250
48.950000 -1.732403 -1.767251
49.000000 -1.726023 -1.767251
49.050000 -1.720744 -1.767252
49.100000 -1.716691 -1.767252
49.150000 -1.713957 -1.767253
49.200000 -1.712600 -1.767253
49.250000 -1.712644 -1.767254
49.300000 -1.714074 -1.767254
49.350000 -1.716844 -1.767254
49.400000 -1.720872 -1.767255
49.450000 -1.726045 -1.767255
49.500000 -1.732221 -1.767256
49.550000 -1.739236 -1.767256
49.600000 -1.746904 -1.767257
49.650000 -1.755025 -1.767257
49.700000 -1.763388 -1.767257
49.750000 -1.771780 -1.767258
49.800000 -1.779987 -1.767258
49.850000 -1.787801 -1.767259
49.900000 -1.795028 -1.767259
49.950000 -1.801489 -1.767259
50.000000 -1.807026 -1.767260
50.050000 -1.811505 -1.767260
50.100000 -1.814823 -1.767261
50.150000 -1.816905 -1.767261
50.200000 -1.817708 -1.767261
50.250000 -1.817222 -1.767262
50.300000 -1.815470 -1.767262
50.350000 -1.812508 -1.767262
50.400000 -1.808422 -1.767263
50.450000 -1.803323 -1.767263
50.500000 -1.797352 -1.767263
50.550000 -1.790665 -1.767264
50.600000 -1.783440 -1.767264
50.650000 -1.775865 -1.767264
50.700000 -1.768134 -1.767265
50.750000 -1.760446 -1.767265
50.800000 -1.752996 -1.767265
50.850000 -1.745971 -1.767265
50.900000 -1.739546 -1.767266
50.950000 -1.733879 -1.767266
51.000000 -1.729108 -1.767266
51.050000 -1.725347 -1.767267
51.100000 -1.722682 -1.767267
51.150000 -1.721173 -1.767267
51.200000 -1.720848 -1.767267
51.250000 -1.721704 -1.767268
51.300000 -1.723712 -1.767268
51.350000 -1.726809 -1.767268
51.400000 -1.730909 -1.767268
51.450000 -1.735898 -1.767269
51.500000 -1.741642 -1.767269
51.550000 -1.747990 -1.767269
51.600000 -1.754774 -1.767269
51.650000 -1.761819 -1.767270
51.700000 -1.768943 -1.767270
51.750000 -1.775965 -1.767270
51.800000 -1.782707 -1.767270
51.850000 -1.789000 -1.767270
51.900000 -1.794689 -1.767271
51.950000 -1.799633 -1.767271
52.000000 -1.803713 -1.767271
52.050000 -1.806833 -1.767271
52.100000 -1.808922 -1.767271
52.150000 -1.809935 -1.767272
52.200000 -1.809855 -1.767272
52.250000 -1.808694 -1.767272
52.300000 -1.806489 -1.767272
52.350000 -1.803307 -1.767272
52.400000 -1.799236 -1.767273
52.450000 -1.794387 -1.767273
52.500000 -1.788890 -1.767273
52.550000 -1.782889 -1.767273
52.600000 -1.776542 -1.767273
52.650000 -1.770012 -1.767273
52.700000 -1.763468 -1.767274
52.750000 -1.757075 -1.767274
52.800000 -1.750995 -1.767274
52.850000 -1.745379 -1.767274
52.900000 -1.740367 -1.767274
52.950000 -1.736081 -1.767274
53.000000 -1.732623 -1.767275
53.050000 -1.730075 -1.767275
53.100000 -1.728494 -1.767275
53.150000 -1.727911 -1.767275
53.200000 -1.728333 -1.767275
53.250000 -1.729741 -1.767275
53.300000 -1.732092 -1.767275
53.350000 -1.735316 -1.767276
53.400000 -1.739326 -1.767276
53.450000 -1.744012 -1.767276
53.500000 -1.749250 -1.767276
53.550000 -1.754903 -1.767276
53.600000 -1.760822 -1.767276
53.650000 -1.766856 -1.767276
53.700000 -1.772849 -1.767277
53.750000 -1.778651 -1.767277
53.800000 -1.784116 -1.767277
53.850000 -1.789106 -1.767277
53.900000 -1.793500 -1.767277
53.950000 -1.797191 -1.767277
54.000000 -1.800091 -1.767277
54.050000 -1.802133 -1.767277
54.100000 -1.803272 -1.767277
54.150000 -1.803486 -1.767278
54.200000 -1.802779 -1.767278
54.250000 -1.801176 -1.767278
54.300000 -1.798724 -1.767278
54.350000 -1.795494 -1.767278
54.400000 -1.791575 -1.767278
54.450000 -1.787070 -1.767278
54.500000 -1.782101 -1.767278
54.550000 -1.776796 -1.767278
54.600000 -1.771295 -1.767278
54.650000 -1.765737 -1.767279
54.700000 -1.760265 -1.767279
54.750000 -1.755017 -1.767279
54.800000 -1.750124 -1.767279
54.850000 -1.745709 -1.767279
54.900000 -1.741879 -1.767279
54.950000 -1.738726 -1.767279
55.000000 -1.736325 -1.767279
55.050000 -1.734731 -1.767279
55.100000 -1.733977 -1.767279
55.150000 -1.734076 -1.767279
55.200000 -1.735018 -1.767280
55.250000 -1.736772 -1.767280
55.300000 -1.739286 -1.767280
55.350000 -1.742490 -1.767280
55.400000 -1.746298 -1.767280
55.450000 -1.750606 -1.767280
55.500000 -1.755303 -1.767280
55.550000 -1.760264 -1.767280
55.600000 -1.765362 -1.767280
55.650000 -1.770466 -1.767280
55.700000 -1.775446 -1.767280
55.750000 -1.780177 -1.767280
55.800000 -1.784541 -1.767280
55.850000 -1.788429 -1.767280
55.900000 -1.791748 -1.767281
55.950000 -1.794417 -1.767281
56.000000 -1.796374 -1.767281
56.050000 -1.797575 -1.767281
56.100000 -1.797996 -1.767281
56.150000 -1.797634 -1.767281
56.200000 -1.796503 -1.767281
56.250000 -1.794639 -1.767281
56.300000 -1.792095 -1.767281
56.350000 -1.788943 -1.767281
56.400000 -1.785266 -1.767281
56.450000 -1.781163 -1.767281
56.500000 -1.776742 -1.767281
56.550000 -1.772117 -1.767281
56.600000 -1.767409 -1.767281
56.650000 -1.762736 -1.767281
56.700000 -1.758218 -1.767281
56.750000 -1.753969 -1.767281
56.800000 -1.750093 -1.767282
56.850000 -1.746686 -1.767282
56.900000 -1.743832 -1.767282
56.950000 -1.741597 -1.767282
57.000000 -1.740034 -1.767282
57.050000 -1.739176 -1.767282
57.100000 -1.739039 -1.767282
57.150000 -1.739622 -1.767282
57.200000 -1.740902 -1.767282
57.250000 -1.742842 -1.767282
57.300000 -1.745386 -1.767282
57.350000 -1.748466 -1.767282
57.400000 -1.751998 -1.767282
57.450000 -1.755889 -1.767282
57.500000 -1.760037 -1.767282
57.550000 -1.764334 -1.767282
57.600000 -1.768670 -1.767282
57.650000 -1.772934 -1.767282
57.700000 -1.777019 -1.767282
57.750000 -1.780822 -1.767282
57.800000 -1.784249 -1.767282
57.850000 -1.787217 -1.767282
57.900000 -1.789653 -1.767282
57.950000 -1.791500 -1.767282
58.000000 -1.792716 -1.767283
58.050000 -1.793276 -1.767283
58.100000 -1.793171 -1.767283
58.150000 -1.792409 -1.767283
58.200000 -1.791014 -1.767283
58.250000 -1.789028 -1.767283
58.300000 -1.786507 -1.767283
58.350000 -1.783518 -1.767283
58.400000 -1.780141 -1.767283
58.450000 -1.776466 -1.767283
58.500000 -1.772589 -1.767283
58.550000 -1.768609 -1.767283
58.600000 -1.764629 -1.767283
58.650000 -1.760749 -1.767283
58.700000 -1.757068 -1.767283
58.750000 -1.753678 -1.767283
58.800000 -1.750662 -1.767283
58.850000 -1.748093 -1.767283
58.900000 -1.746034 -1.767283
58.950000 -1.744531 -1.767283
59.000000 -1.743620 -1.767283
59.050000 -1.743317 -1.767283
59.100000 -1.743626 -1.767283
59.150000 -1.744534 -1.767283
59.200000 -1.746012 -1.767283
59.250000 -1.748018 -1.767283
59.300000 -1.750497 -1.767283
59.350000 -1.753381 -1.767283
59.400000 -1.756595 -1.767283
59.450000 -1.760053 -1.767283
59.500000 -1.763666 -1.767283
59.550000 -1.767341 -1.767283
59.600000 -1.770983 -1.767283
59.650000 -1.774501 -1.767283
59.700000 -1.777806 -1.767283
59.750000 -1.780816 -1.767283
59.800000 -1.783457 -1.767283
59.850000 -1.785664 -1.767283
59.900000 -1.787387 -1.767284
59.950000 -1.788583 -1.767284
60.000000 -1.789229 -1.767284
60.050000 -1.789311 -1.767284
60.100000 -1.788833 -1.767284
60.150000 -1.787812 -1.767284
60.200000 -1.786277 -1.767284
60.250000 -1.784273 -1.767284
60.300000 -1.781854 -1.767284
60.350000 -1.779084 -1.767284
60.400000 -1.776038 -1.767284
60.450000 -1.772796 -1.767284
60.500000 -1.769440 -1.767284
60.550000 -1.766058 -1.767284
60.600000 -1.762735 -1.767284
60.650000 -1.759555 -1.767284
60.700000 -1.756599 -1.767284
60.750000 -1.753939 -1.767284
60.800000 -1.751640 -1.767284
60.850000 -1.749758 -1.767284
60.900000 -1.748338 -1.767284
60.950000 -1.747410 -1.767284
61.000000 -1.746995 -1.767284
61.050000 -1.747100 -1.767284
61.100000 -1.747716 -1.767284
61.150000 -1.748825 -1.767284
61.200000 -1.750393 -1.767284
61.250000 -1.752377 -1.767284
61.300000 -1.754724 -1.767284
61.350000 -1.757370 -1.767284
61.400000 -1.760245 -1.767284
61.450000 -1.763276 -1.767284
61.500000 -1.766383 -1.767284
61.550000 -1.769486 -1.767284
61.600000 -1.772508 -1.767284
61.650000 -1.775372 -1.767284
61.700000 -1.778006 -1.767284
61.750000 -1.780346 -1.767284
61.800000 -1.782334 -1.767284
61.850000 -1.783923 -1.767284
61.900000 -1.785076 -1.767284
61.950000 -1.785767 -1.767284
62.000000 -1.785983 -1.767284
62.050000 -1.785721 -1.767284
62.100000 -1.784994 -1.767284
62.150000 -1.783822 -1.767284
62.200000 -1.782240 -1.767284
62.250000 -1.780292 -1.767284
62.300000 -1.778029 -1.767284
62.350000 -1.775512 -1.767284
62.400000 -1.772807 -1.767284
62.450000 -1.769984 -1.767284
62.500000 -1.767117 -1.767284
62.550000 -1.764278 -1.767284
62.600000 -1.761539 -1.767284
62.650000 -1.758969 -1.767284
62.700000 -1.756631 -1.767284
62.750000 -1.754584 -1.767284
62.800000 -1.752877 -1.767284
62.850000 -1.751551 -1.767284
62.900000 -1.750635 -1.767284
62.950000 -1.750150 -1.767284
63.000000 -1.750104 -1.767284
63.050000 -1.750496 -1.767284
63.100000 -1.751311 -1.767284
63.150000 -1.752524 -1.767284
63.200000 -1.754103 -1.767284
63.250000 -1.756003 -1.767284
63.300000 -1.758174 -1.767284
63.350000 -1.760559 -1.767284
63.400000 -1.763094 -1.767284
63.450000 -1.765715 -1.767284
63.500000 -1.768353 -1.767284
63.550000 -1.770942 -1.767284
63.600000 -1.773417 -1.767284
63.650000 -1.775715 -1.767284
63.700000 -1.777779 -1.767284
63.750000 -1.779560 -1.767284
63.800000 -1.781013 -1.767284
63.850000 -1.782106 -1.767284
63.900000 -1.782813 -1.767284
63.950000 -1.783119 -1.767284
64.000000 -1.783020 -1.767284
64.050000 -1.782523 -1.767284
64.100000 -1.781642 -1.767284
64.150000 -1.780404 -1.767284
64.200000 -1.778843 -1.767284
64.250000 -1.777001 -1.767284
64.300000 -1.774928 -1.767284
64.350000 -1.772678 -1.767284
64.400000 -1.770309 -1.767284
64.450000 -1.767884 -1.767284
64.500000 -1.765464 -1.767284
64.550000 -1.763110 -1.767284
64.600000 -1.760882 -1.767284
64.650000 -1.758836 -1.767284
64.700000 -1.757021 -1.767284
64.750000 -1.755483 -1.767285
64.800000 -1.754257 -1.767285
64.850000 -1.753372 -1.767285
64.900000 -1.752849 -1.767285
64.950000 -1.752696 -1.767285
65.000000 -1.752916 -1.767285
65.050000 -1.753499 -1.767285
65.100000 -1.754427 -1.767285
65.150000 -1.755674 -1.767285
65.200000 -1.757206 -1.767285
65.250000 -1.758981 -1.767285
65.300000 -1.760952 -1.767285
65.350000 -1.763068 -1.767285
65.400000 -1.765273 -1.767285
65.450000 -1.767510 -1.767285
65.500000 -1.769724 -1.767285
65.550000 -1.771856 -1.767285
65.600000 -1.773855 -1.767285
65.650000 -1.775669 -1.767285
65.700000 -1.777256 -1.767285
65.750000 -1.778576 -1.767285
65.800000 -1.779598 -1.767285
65.850000 -1.780298 -1.767285
65.900000 -1.780662 -1.767285
65.950000 -1.780683 -1.767285
66.000000 -1.780363 -1.767285
66.050000 -1.779714 -1.767285
66.100000 -1.778754 -1.767285
66.150000 -1.777511 -1.767285
66.200000 -1.776018 -1.767285
66.250000 -1.774316 -1.767285
66.300000 -1.772450 -1.767285
66.350000 -1.770468 -1.767285
66.400000 -1.768421 -1.767285
66.450000 -1.766363 -1.767285
66.500000 -1.764346 -1.767285
66.550000 -1.762420 -1.767285
66.600000 -1.760634 -1.767285
66.650000 -1.759032 -1.767285
66.700000 -1.757653 -1.767285
66.750000 -1.756530 -1.767285
66.800000 -1.755691 -1.767285
66.850000 -1.755152 -1.767285
66.900000 -1.754927 -1.767285
66.950000 -1.755017 -1.767285
67.000000 -1.755419 -1.767285
67.050000 -1.756118 -1.767285
67.100000 -1.757096 -1.767285
67.150000 -1.758324 -1.767285
67.200000 -1.759769 -1.767285
67.250000 -1.761394 -1.767285
67.300000 -1.763154 -1.767285
67.350000 -1.765005 -1.767285
67.400000 -1.766898 -1.767285
67.450000 -1.768785 -1.767285
67.500000 -1.770618 -1.767285
67.550000 -1.772351 -1.767285
67.600000 -1.773941 -1.767285
67.650000 -1.775348 -1.767285
67.700000 -1.776539 -1.767285
67.750000 -1.777484 -1.767285
67.800000 -1.778163 -1.767285
67.850000 -1.778559 -1.767285
67.900000 -1.778665 -1.767285
67.950000 -1.778482 -1.767285
68.000000 -1.778015 -1.767285
68.050000 -1.777280 -1.767285
68.100000 -1.776297 -1.767285
68.150000 -1.775093 -1.767285
68.200000 -1.773700 -1.767285
68.250000 -1.772157 -1.767285
68.300000 -1.770502 -1.767285
68.350000 -1.768780 -1.767285
68.400000 -1.767034 -1.767285
68.450000 -1.765309 -1.767285
68.500000 -1.763649 -1.767285
68.550000 -1.762095 -1.767285
68.600000 -1.760686 -1.767285
68.650000 -1.759456 -1.767285
68.700000 -1.758436 -1.767285
68.750000 -1.757649 -1.767285
68.800000 -1.757114 -1.767285
68.850000 -1.756841 -1.767285
68.900000 -1.756836 -1.767285
68.950000 -1.757097 -1.767285
69.000000 -1.757614 -1.767285
69.050000 -1.758373 -1.767285
69.100000 -1.759352 -1.767285
69.150000 -1.760524 -1.767285
69.200000 -1.761858 -1.767285
69.250000 -1.763319 -1.767285
69.300000 -1.764869 -1.767285
69.350000 -1.766466 -1.767285
69.400000 -1.768072 -1.767285
69.450000 -1.769643 -1.767285
69.500000 -1.771142 -1.767285
69.550000 -1.772530 -1.767285
69.600000 -1.773773 -1.767285
69.650000 -1.774841 -1.767285
69.700000 -1.775708 -1.767285
69.750000 -1.776354 -1.767285
69.800000 -1.776763 -1.767285
69.850000 -1.776929 -1.767285
69.900000 -1.776848 -1.767285
69.950000 -1.776524 -1.767285
70.000000 -1.775969 -1.767285
70.050000 -1.775198 -1.767285
70.100000 -1.774232 -1.767285
70.150000 -1.773097 -1.767285
70.200000 -1.771824 -1.767285
70.250000 -1.770447 -1.767285
70.300000 -1.769001 -1.767285
70.350000 -1.767523 -1.767285
70.400000 -1.766052 -1.767285
70.450000 -1.764624 -1.767285
70.500000 -1.763276 -1.767285
70.550000 -1.762041 -1.767285
70.600000 -1.760950 -1.767285
70.650000 -1.760029 -1.767285
70.700000 -1.759300 -1.767285
70.750000 -1.758780 -1.767285
70.800000 -1.758480 -1.767285
70.850000 -1.758407 -1.767285
70.900000 -1.758559 -1.767285
70.950000 -1.758933 -1.767285
71.000000 -1.759515 -1.767285
71.050000 -1.760290 -1.767285
71.100000 -1.761236 -1.767285
71.150000 -1.762328 -1.767285
71.200000 -1.763537 -1.767285
71.250000 -1.764831 -1.767285
71.300000 -1.766176 -1.767285
71.350000 -1.767538 -1.767285
71.400000 -1.768883 -1.767285
71.450000 -1.770175 -1.767285
71.500000 -1.771383 -1.767285
71.550000 -1.772477 -1.767285
71.600000 -1.773430 -1.767285
71.650000 -1.774219 -1.767285
71.700000 -1.774825 -1.767285
71.750000 -1.775234 -1.767285
71.800000 -1.775438 -1.767285
71.850000 -1.775433 -1.767285
71.900000 -1.775221 -1.767285
71.950000 -1.774809 -1.767285
72.000000 -1.774209 -1.767285
72.050000 -1.773438 -1.767285
72.100000 -1.772518 -1.767285
72.150000 -1.771472 -1.767285
72.200000 -1.770328 -1.767285
72.250000 -1.769117 -1.767285
72.300000 -1.767870 -1.767285
72.350000 -1.766618 -1.767285
72.400000 -1.765393 -1.767285
72.450000 -1.764227 -1.767285
72.500000 -1.763148 -1.767285
72.550000 -1.762184 -1.767285
72.600000 -1.761357 -1.767285
72.650000 -1.760687 -1.767285
72.700000 -1.760191 -1.767285
72.750000 -1.759880 -1.767285
72.800000 -1.759759 -1.767285
72.850000 -1.759830 -1.767285
72.900000 -1.760090 -1.767285
72.950000 -1.760531 -1.767285
73.000000 -1.761140 -1.767285
73.050000 -1.761900 -1.767285
73.100000 -1.762790 -1.767285
73.150000 -1.763787 -1.767285
73.200000 -1.764865 -1.767285
73.250000 -1.765995 -1.767285
73.300000 -1.767148 -1.767285
73.350000 -1.768295 -1.767285
73.400000 -1.769407 -1.767285
73.450000 -1.770455 -1.767285
73.500000 -1.771415 -1.767285
73.550000 -1.772261 -1.767285
73.600000 -1.772974 -1.767285
73.650000 -1.773536 -1.767285
73.700000 -1.773934 -1.767285
73.750000 -1.774161 -1.767285
73.800000 -1.774210 -1.767285
73.850000 -1.774084 -1.767285
73.900000 -1.773785 -1.767285
73.950000 -1.773324 -1.767285
74.000000 -1.772713 -1.767285
74.050000 -1.771970 -1.767285
74.100000 -1.771114 -1.767285
74.150000 -1.770167 -1.767285
74.200000 -1.769155 -1.767285
74.250000 -1.768105 -1.767285
74.300000 -1.767042 -1.767285
74.350000 -1.765994 -1.767285
74.400000 -1.764988 -1.767285
74.450000 -1.764048 -1.767285
74.500000 -1.763199 -1.767285
74.550000 -1.762461 -1.767285
74.600000 -1.761851 -1.767285
74.650000 -1.761385 -1.767285
74.700000 -1.761072 -1.767285
74.750000 -1.760920 -1.767285
74.800000 -1.760931 -1.767285
74.850000 -1.761104 -1.767285
74.900000 -1.761432 -1.767285
74.950000 -1.761905 -1.767285
75.000000 -1.762512 -1.767285
75.050000 -1.763235 -1.767285
75.100000 -1.764055 -1.767285
75.150000 -1.764949 -1.767285
75.200000 -1.765896 -1.767285
75.250000 -1.766870 -1.767285
75.300000 -1.767847 -1.767285
75.350000 -1.768801 -1.767285
75.400000 -1.769708 -1.767285
75.450000 -1.770546 -1.767285
75.500000 -1.771295 -1.767285
75.550000 -1.771935 -1.767285
75.600000 -1.772452 -1.767285
75.650000 -1.772833 -1.767285
75.700000 -1.773070 -1.767285
75.750000 -1.773157 -1.767285
75.800000 -1.773095 -1.767285
75.850000 -1.772886 -1.767285
75.900000 -1.772536 -1.767285
75.950000 -1.772056 -1.767285
76.000000 -1.771459 -1.767285
76.050000 -1.770760 -1.767285
76.100000 -1.769979 -1.767285
76.150000 -1.769136 -1.767285
76.200000 -1.768253 -1.767285
76.250000 -1.767353 -1.767285
76.300000 -1.766459 -1.767285
76.350000 -1.765593 -1.767285
76.400000 -1.764777 -1.767285
76.450000 -1.764032 -1.767285
76.500000 -1.763376 -1.767285
76.550000 -1.762825 -1.767285
76.600000 -1.762392 -1.767285
76.650000 -1.762086 -1.767285
76.700000 -1.761915 -1.767285
76.750000 -1.761883 -1.767285
76.800000 -1.761987 -1.767285
76.850000 -1.762226 -1.767285
76.900000 -1.762591 -1.767285
76.950000 -1.763072 -1.767285
77.000000 -1.763656 -1.767285
77.050000 -1.764328 -1.767285
77.100000 -1.765069 -1.767285
77.150000 -1.765860 -1.767285
77.200000 -1.766681 -1.767285
77.250000 -1.767510 -1.767285
77.300000 -1.768326 -1.767285
77.350000 -1.769110 -1.767285
77.400000 -1.769840 -1.767285
77.450000 -1.770499 -1.767285
77.500000 -1.771071 -1.767285
77.550000 -1.771542 -1.767285
77.600000 -1.771901 -1.767285
77.650000 -1.772140 -1.767285
77.700000 -1.772253 -1.767285
77.750000 -1.772239 -1.767285
77.800000 -1.772099 -1.767285
77.850000 -1.771838 -1.767285
77.900000 -1.771464 -1.767285
77.950000 -1.770986 -1.767285
78.000000 -1.770419 -1.767285
78.050000 -1.769776 -1.767285
78.100000 -1.769076 -1.767285
78.150000 -1.768336 -1.767285
78.200000 -1.767576 -1.767285
78.250000 -1.766814 -1.767285
78.300000 -1.766071 -1.767285
78.350000 -1.765365 -1.767285
78.400000 -1.764714 -1.767285
78.450000 -1.764133 -1.767285
78.500000 -1.763637 -1.767285
78.550000 -1.763239 -1.767285
78.600000 -1.762946 -1.767285
78.650000 -1.762766 -1.767285
78.700000 -1.762702 -1.767285
78.750000 -1.762756 -1.767285
78.800000 -1.762924 -1.767285
78.850000 -1.763201 -1.767285
78.900000 -1.763580 -1.767285
78.950000 -1.764050 -1.767285
79.000000 -1.764598 -1.767285
79.050000 -1.765210 -1.767285
79.100000 -1.765869 -1.767285
79.150000 -1.766559 -1.767285
79.200000 -1.767262 -1.767285
79.250000 -1.767959 -1.767285
79.300000 -1.768633 -1.767285
79.350000 -1.769267 -1.767285
79.400000 -1.769846 -1.767285
79.450000 -1.770355 -1.767285
79.500000 -1.770781 -1.767285
79.550000 -1.771115 -1.767285
79.600000 -1.771349 -1.767285
79.650000 -1.771477 -1.767285
79.700000 -1.771499 -1.767285
79.750000 -1.771412 -1.767285
79.800000 -1.771222 -1.767285
79.850000 -1.770933 -1.767285
79.900000 -1.770554 -1.767285
79.950000 -1.770095 -1.767285
80.000000 -1.769568 -1.767285
80.050000 -1.768988 -1.767285
80.100000 -1.768370 -1.767285
80.150000 -1.767729 -1.767285
80.200000 -1.767082 -1.767285
80.250000 -1.766445 -1.767285
80.300000 -1.765836 -1.767285
80.350000 -1.765268 -1.767285
80.400000 -1.764756 -1.767285
80.450000 -1.764313 -1.767285
80.500000 -1.763949 -1.767285
80.550000 -1.763673 -1.767285
80.600000 -1.763491 -1.767285
80.650000 -1.763407 -1.767285
80.700000 -1.763422 -1.767285
80.750000 -1.763535 -1.767285
80.800000 -1.763743 -1.767285
80.850000 -1.764038 -1.767285
80.900000 -1.764414 -1.767285
80.950000 -1.764860 -1.767285
81.000000 -1.765363 -1.767285
81.050000 -1.765911 -1.767285
81.100000 -1.766490 -1.767285
81.150000 -1.767083 -1.767285
81.200000 -1.767677 -1.767285
81.250000 -1.768256 -1.767285
81.300000 -1.768805 -1.767285
81.350000 -1.769312 -1.767285
81.400000 -1.769762 -1.767285
81.450000 -1.770146 -1.767285
81.500000 -1.770453 -1.767285
81.550000 -1.770678 -1.767285
81.600000 -1.770815 -1.767285
81.650000 -1.770860 -1.767285
81.700000 -1.770815 -1.767285
81.750000 -1.770680 -1.767285
81.800000 -1.770460 -1.767285
81.850000 -1.770161 -1.767285
81.900000 -1.769792 -1.767285
81.950000 -1.769362 -1.767285
82.000000 -1.768882 -1.767285
82.050000 -1.768367 -1.767285
82.100000 -1.767828 -1.767285
82.150000 -1.767280 -1.767285
82.200000 -1.766736 -1.767285
82.250000 -1.766211 -1.767285
82.300000 -1.765718 -1.767285
82.350000 -1.765268 -1.767285
82.400000 -1.764874 -1.767285
82.450000 -1.764544 -1.767285
82.500000 -1.764287 -1.767285
82.550000 -1.764108 -1.767285
82.600000 -1.764011 -1.767285
82.650000 -1.763998 -1.767285
82.700000 -1.764069 -1.767285
82.750000 -1.764221 -1.767285
82.800000 -1.764450 -1.767285
82.850000 -1.764748 -1.767285
82.900000 -1.765109 -1.767285
82.950000 -1.765522 -1.767285
83.000000 -1.765976 -1.767285
83.050000 -1.766459 -1.767285
83.100000 -1.766960 -1.767285
83.150000 -1.767465 -1.767285
83.200000 -1.767961 -1.767285
83.250000 -1.768435 -1.767285
83.300000 -1.768876 -1.767285
83.350000 -1.769273 -1.767285
83.400000 -1.769617 -1.767285
83.450000 -1.769898 -1.767285
83.500000 -1.770110 -1.767285
83.550000 -1.770249 -1.767285
83.600000 -1.770311 -1.767285
83.650000 -1.770296 -1.767285
83.700000 -1.770205 -1.767285
83.750000 -1.770040 -1.767285
83.800000 -1.769806 -1.767285
83.850000 -1.769511 -1.767285
83.900000 -1.769161 -1.767285
83.950000 -1.768766 -1.767285
84.000000 -1.768338 -1.767285
84.050000 -1.767886 -1.767285
84.100000 -1.767422 -1.767285
84.150000 -1.766959 -1.767285
84.200000 -1.766508 -1.767285
84.250000 -1.766081 -1.767285
84.300000 -1.765687 -1.767285
84.350000 -1.765338 -1.767285
84.400000 -1.765041 -1.767285
84.450000 -1.764804 -1.767285
84.500000 -1.764631 -1.767285
84.550000 -1.764528 -1.767285
84.600000 -1.764495 -1.767285
84.650000 -1.764534 -1.767285
84.700000 -1.764642 -1.767285
84.750000 -1.764816 -1.767285
84.800000 -1.765052 -1.767285
84.850000 -1.765342 -1.767285
84.900000 -1.765680 -1.767285
84.950000 -1.766055 -1.767285
85.000000 -1.766458 -1.767285
85.050000 -1.766879 -1.767285
85.100000 -1.767307 -1.767285
85.150000 -1.767731 -1.767285
85.200000 -1.768140 -1.767285
85.250000 -1.768523 -1.767285
85.300000 -1.768872 -1.767285
85.350000 -1.769178 -1.767285
85.400000 -1.769433 -1.767285
85.450000 -1.769631 -1.767285
85.500000 -1.769768 -1.767285
85.550000 -1.769841 -1.767285
85.600000 -1.769848 -1.767285
85.650000 -1.769790 -1.767285
85.700000 -1.769669 -1.767285
85.750000 -1.769488 -1.767285
85.800000 -1.769253 -1.767285
85.850000 -1.768970 -1.767285
85.900000 -1.768646 -1.767285
85.950000 -1.768290 -1.767285
86.000000 -1.767912 -1.767285
86.050000 -1.767521 -1.767285
86.100000 -1.767128 -1.767285
86.150000 -1.766741 -1.767285
86.200000 -1.766372 -1.767285
86.250000 -1.766029 -1.767285
86.300000 -1.765721 -1.767285
86.350000 -1.765455 -1.767285
86.400000 -1.765238 -1.767285
86.450000 -1.765074 -1.767285
86.500000 -1.764969 -1.767285
86.550000 -1.764923 -1.767285
86.600000 -1.764937 -1.767285
86.650000 -1.765011 -1.767285
86.700000 -1.765142 -1.767285
86.750000 -1.765326 -1.767285
86.800000 -1.765559 -1.767285
86.850000 -1.765833 -1.767285
86.900000 -1.766143 -1.767285
86.950000 -1.766478 -1.767285
87.000000 -1.766831 -1.767285
87.050000 -1.767193 -1.767285
87.100000 -1.767554 -1.767285
87.150000 -1.767905 -1.767285
87.200000 -1.768238 -1.767285
87.250000 -1.768543 -1.767285
87.300000 -1.768814 -1.767285
87.350000 -1.769044 -1.767285
87.400000 -1.769227 -1.767285
87.450000 -1.769360 -1.767285
87.500000 -1.769438 -1.767285
87.550000 -1.769461 -1.767285
87.600000 -1.769429 -1.767285
87.650000 -1.769342 -1.767285
87.700000 -1.769204 -1.767285
87.750000 -1.769018 -1.767285
87.800000 -1.768790 -1.767285
87.850000 -1.768525 -1.767285
87.900000 -1.768231 -1.767285
87.950000 -1.767916 -1.767285
88.000000 -1.767587 -1.767285
88.050000 -1.767253 -1.767285
88.100000 -1.766923 -1.767285
88.150000 -1.766605 -1.767285
88.200000 -1.766306 -1.767285
88.250000 -1.766035 -1.767285
88.300000 -1.765799 -1.767285
88.350000 -1.765601 -1.767285
88.400000 -1.765449 -1.767285
88.450000 -1.765344 -1.767285
88.500000 -1.765289 -1.767285
88.550000 -1.765286 -1.767285
88.600000 -1.765333 -1.767285
88.650000 -1.765430 -1.767285
88.700000 -1.765573 -1.767285
88.750000 -1.765758 -1.767285
88.800000 -1.765980 -1.767285
88.850000 -1.766234 -1.767285
88.900000 -1.766512 -1.767285
88.950000 -1.766808 -1.767285
89.000000 -1.767113 -1.767285
89.050000 -1.767420 -1.767285
89.100000 -1.767721 -1.767285
89.150000 -1.768009 -1.767285
89.200000 -1.768275 -1.767285
89.250000 -1.768515 -1.767285
89.300000 -1.768721 -1.767285
89.350000 -1.768888 -1.767285
89.400000 -1.769014 -1.767285
89.450000 -1.769094 -1.767285
89.500000 -1.769128 -1.767285
89.550000 -1.769115 -1.767285
89.600000 -1.769056 -1.767285
89.650000 -1.768952 -1.767285
89.700000 -1.768806 -1.767285
89.750000 -1.768623 -1.767285
89.800000 -1.768407 -1.767285
89.850000 -1.768165 -1.767285
89.900000 -1.767903 -1.767285
89.950000 -1.767627 -1.767285
90.000000 -1.767344 -1.767285
90.050000 -1.767063 -1.767285
90.100000 -1.766789 -1.767285
90.150000 -1.766530 -1.767285
90.200000 -1.766293 -1.767285
90.250000 -1.766083 -1.767285
90.300000 -1.765905 -1.767285
90.350000 -1.765764 -1.767285
90.400000 -1.765662 -1.767285
90.450000 -1.765603 -1.767285
90.500000 -1.765587 -1.767285
90.550000 -1.765614 -1.767285
90.600000 -1.765683 -1.767285
90.650000 -1.765793 -1.767285
90.700000 -1.765939 -1.767285
90.750000 -1.766119 -1.767285
90.800000 -1.766326 -1.767285
90.850000 -1.766556 -1.767285
90.900000 -1.766803 -1.767285
90.950000 -1.767060 -1.767285
91.000000 -1.767321 -1.767285
91.050000 -1.767578 -1.767285
91.100000 -1.767826 -1.767285
91.150000 -1.768058 -1.767285
91.200000 -1.768268 -1.767285
91.250000 -1.768452 -1.767285
91.300000 -1.768604 -1.767285
91.350000 -1.768722 -1.767285
91.400000 -1.768802 -1.767285
91.450000 -1.768843 -1.767285
91.500000 -1.768844 -1.767285
91.550000 -1.768805 -1.767285
91.600000 -1.768728 -1.767285
91.650000 -1.768615 -1.767285
91.700000 -1.768469 -1.767285
91.750000 -1.768295 -1.767285
91.800000 -1.768096 -1.767285
91.850000 -1.767878 -1.767285
91.900000 -1.767647 -1.767285
91.950000 -1.767408 -1.767285
92.000000 -1.767169 -1.767285
92.050000 -1.766934 -1.767285
92.100000 -1.766711 -1.767285
92.150000 -1.766503 -1.767285
92.200000 -1.766318 -1.767285
92.250000 -1.766158 -1.767285
92.300000 -1.766029 -1.767285
92.350000 -1.765932 -1.767285
92.400000 -1.765871 -1.767285
92.450000 -1.765846 -1.767285
92.500000 -1.765858 -1.767285
92.550000 -1.765906 -1.767285
92.600000 -1.765989 -1.767285
92.650000 -1.766103 -1.767285
92.700000 -1.766247 -1.767285
92.750000 -1.766417 -1.767285
92.800000 -1.766606 -1.767285
92.850000 -1.766812 -1.767285
92.900000 -1.767027 -1.767285
92.950000 -1.767248 -1.767285
93.000000 -1.767467 -1.767285
93.050000 -1.767680 -1.767285
93.100000 -1.767882 -1.767285
93.150000 -1.768066 -1.767285
93.200000 -1.768229 -1.767285
93.250000 -1.768367 -1.767285
93.300000 -1.768476 -1.767285
93.350000 -1.768553 -1.767285
93.400000 -1.768598 -1.767285
93.450000 -1.768609 -1.767285
93.500000 -1.768587 -1.767285
93.550000 -1.768531 -1.767285
93.600000 -1.768445 -1.767285
93.650000 -1.768329 -1.767285
93.700000 -1.768188 -1.767285
93.750000 -1.768025 -1.767285
93.800000 -1.767845 -1.767285
93.850000 -1.767652 -1.767285
93.900000 -1.767451 -1.767285
93.950000 -1.767248 -1.767285
94.000000 -1.767048 -1.767285
94.050000 -1.766855 -1.767285
94.100000 -1.766674 -1.767285
94.150000 -1.766511 -1.767285
94.200000 -1.766369 -1.767285
94.250000 -1.766251 -1.767285
94.300000 -1.766160 -1.767285
94.350000 -1.766099 -1.767285
94.400000 -1.766069 -1.767285
94.450000 -1.766069 -1.767285
94.500000 -1.766101 -1.767285
94.550000 -1.766162 -1.767285
94.600000 -1.766251 -1.767285
94.650000 -1.766366 -1.767285
94.700000 -1.766503 -1.767285
94.750000 -1.766659 -1.767285
94.800000 -1.766830 -1.767285
94.850000 -1.767010 -1.767285
94.900000 -1.767196 -1.767285
94.950000 -1.767383 -1.767285
95.000000 -1.767566 -1.767285
95.050000 -1.767740 -1.767285
95.100000 -1.767901 -1.767285
95.150000 -1.768045 -1.767285
95.200000 -1.768169 -1.767285
95.250000 -1.768269 -1.767285
95.300000 -1.768343 -1.767285
95.350000 -1.768389 -1.767285
95.400000 -1.768408 -1.767285
95.450000 -1.768397 -1.767285
95.500000 -1.768358 -1.767285
95.550000 -1.768293 -1.767285
95.600000 -1.768202 -1.767285
95.650000 -1.768089 -1.767285
95.700000 -1.767956 -1.767285
95.750000 -1.767808 -1.767285
95.800000 -1.767647 -1.767285
95.850000 -1.767478 -1.767285
95.900000 -1.767306 -1.767285
95.950000 -1.767135 -1.767285
96.000000 -1.766969 -1.767285
96.050000 -1.766813 -1.767285
96.100000 -1.766669 -1.767285
96.150000 -1.766543 -1.767285
96.200000 -1.766437 -1.767285
96.250000 -1.766353 -1.767285
96.300000 -1.766293 -1.767285
96.350000 -1.766259 -1.767285
96.400000 -1.766252 -1.767285
96.450000 -1.766270 -1.767285
96.500000 -1.766315 -1.767285
96.550000 -1.766383 -1.767285
96.600000 -1.766474 -1.767285
96.650000 -1.766585 -1.767285
96.700000 -1.766713 -1.767285
96.750000 -1.766854 -1.767285
96.800000 -1.767005 -1.767285
96.850000 -1.767162 -1.767285
96.900000 -1.767320 -1.767285
96.950000 -1.767476 -1.767285
97.000000 -1.767627 -1.767285
97.050000 -1.767767 -1.767285
97.100000 -1.767894 -1.767285
97.150000 -1.768004 -1.767285
97.200000 -1.768095 -1.767285
97.250000 -1.768165 -1.767285
97.300000 -1.768211 -1.767285
97.350000 -1.768234 -1.767285
97.400000 -1.768233 -1.767285
97.450000 -1.768207 -1.767285
97.500000 -1.768158 -1.767285
97.550000 -1.768088 -1.767285
97.600000 -1.767997 -1.767285
97.650000 -1.767890 -1.767285
97.700000 -1.767768 -1.767285
97.750000 -1.767634 -1.767285
97.800000 -1.767493 -1.767285
97.850000 -1.767348 -1.767285
97.900000 -1.767202 -1.767285
97.950000 -1.767060 -1.767285
98.000000 -1.766924 -1.767285
98.050000 -1.766799 -1.767285
98.100000 -1.766687 -1.767285
98.150000 -1.766592 -1.767285
98.200000 -1.766514 -1.767285
98.250000 -1.766457 -1.767285
98.300000 -1.766422 -1.767285
98.350000 -1.766409 -1.767285
98.400000 -1.766418 -1.767285
98.450000 -1.766449 -1.767285
98.500000 -1.766501 -1.767285
98.550000 -1.766572 -1.767285
98.600000 -1.766662 -1.767285
98.650000 -1.766766 -1.767285
98.700000 -1.766882 -1.767285
98.750000 -1.767008 -1.767285
98.800000 -1.767140 -1.767285
98.850000 -1.767274 -1.767285
98.900000 -1.767407 -1.767285
98.950000 -1.767536 -1.767285
99.000000 -1.767658 -1.767285
99.050000 -1.767769 -1.767285
99.100000 -1.767867 -1.767285
99.150000 -1.767950 -1.767285
99.200000 -1.768014 -1.767285
99.250000 -1.768060 -1.767285
99.300000 -1.768086 -1.767285
99.350000 -1.768091 -1.767285
99.400000 -1.768075 -1.767285
99.450000 -1.768040 -1.767285
99.500000 -1.767986 -1.767285
99.550000 -1.767914 -1.767285
99.600000 -1.767827 -1.767285
99.650000 -1.767727 -1.767285
99.700000 -1.767616 -1.767285
99.750000 -1.767498 -1.767285
99.800000 -1.767376 -1.767285
99.850000 -1.767252 -1.767285
99.900000 -1.767130 -1.767285
99.950000 -1.767013 -1.767285
100.000000 -1.766904 -1.767285
100.050000 -1.766806 -1.767285
100.100000 -1.766720 -1.767285
100.150000 -1.766650 -1.767285
100.200000 -1.766596 -1.767285
100.250000 -1.766561 -1.767285
100.300000 -1.766544 -1.767285
100.350000 -1.766546 -1.767285
100.400000 -1.766566 -1.767285
100.450000 -1.766605 -1.767285
100.500000 -1.766661 -1.767285
100.550000 -1.766732 -1.767285
100.600000 -1.766817 -1.767285
100.650000 -1.766912 -1.767285
100.700000 -1.767017 -1.767285
100.750000 -1.767127 -1.767285
100.800000 -1.767241 -1.767285
100.850000 -1.767354 -1.767285
100.900000 -1.767465 -1.767285
100.950000 -1.767571 -1.767285
101.000000 -1.767668 -1.767285
101.050000 -1.767755 -1.767285
101.100000 -1.767829 -1.767285
101.150000 -1.767888 -1.767285
101.200000 -1.767932 -1.767285
101.250000 -1.767959 -1.767285
101.300000 -1.767968 -1.767285
101.350000 -1.767961 -1.767285
101.400000 -1.767936 -1.767285
101.450000 -1.767894 -1.767285
101.500000 -1.767838 -1.767285
101.550000 -1.767768 -1.767285
101.600000 -1.767686 -1.767285
101.650000 -1.767595 -1.767285
101.700000 -1.767497 -1.767285
101.750000 -1.767394 -1.767285
101.800000 -1.767289 -1.767285
101.850000 -1.767185 -1.767285
101.900000 -1.767084 -1.767285
101.950000 -1.766990 -1.767285
102.000000 -1.766903 -1.767285
102.050000 -1.766827 -1.767285
102.100000 -1.766764 -1.767285
102.150000 -1.766714 -1.767285
102.200000 -1.766679 -1.767285
102.250000 -1.766659 -1.767285
102.300000 -1.766656 -1.767285
102.350000 -1.766669 -1.767285
102.400000 -1.766697 -1.767285
102.450000 -1.766740 -1.767285
102.500000 -1.766797 -1.767285
102.550000 -1.766865 -1.767285
102.600000 -1.766944 -1.767285
102.650000 -1.767030 -1.767285
102.700000 -1.767122 -1.767285
102.750000 -1.767218 -1.767285
102.800000 -1.767315 -1.767285
102.850000 -1.767409 -1.767285
102.900000 -1.767500 -1.767285
102.950000 -1.767585 -1.767285
103.000000 -1.767662 -1.767285
103.050000 -1.767728 -1.767285
103.100000 -1.767782 -1.767285
103.150000 -1.767823 -1.767285
103.200000 -1.767851 -1.767285
103.250000 -1.767863 -1.767285
103.300000 -1.767861 -1.767285
103.350000 -1.767844 -1.767285
103.400000 -1.767813 -1.767285
103.450000 -1.767769 -1.767285
103.500000 -1.767713 -1.767285
103.550000 -1.767647 -1.767285
103.600000 -1.767572 -1.767285
103.650000 -1.767490 -1.767285
103.700000 -1.767404 -1.767285
103.750000 -1.767315 -1.767285
103.800000 -1.767227 -1.767285
103.850000 -1.767140 -1.767285
103.900000 -1.767058 -1.767285
103.950000 -1.766983 -1.767285
104.000000 -1.766916 -1.767285
104.050000 -1.766858 -1.767285
104.100000 -1.766812 -1.767285
104.150000 -1.766779 -1.767285
104.200000 -1.766758 -1.767285
104.250000 -1.766751 -1.767285
104.300000 -1.766758 -1.767285
104.350000 -1.766778 -1.767285
104.400000 -1.766811 -1.767285
104.450000 -1.766855 -1.767285
104.500000 -1.766910 -1.767285
104.550000 -1.766975 -1.767285
104.600000 -1.767046 -1.767285
104.650000 -1.767123 -1.767285
104.700000 -1.767203 -1.767285
104.750000 -1.767285 -1.767285
104.800000 -1.767366 -1.767285
104.850000 -1.767445 -1.767285
104.900000 -1.767518 -1.767285
104.950000 -1.767585 -1.767285
105.000000 -1.767644 -1.767285
105.050000 -1.767693 -1.767285
105.100000 -1.767732 -1.767285
105.150000 -1.767759 -1.767285
105.200000 -1.767773 -1.767285
105.250000 -1.767775 -1.767285
105.300000 -1.767765 -1.767285
105.350000 -1.767742 -1.767285
105.400000 -1.767708 -1.767285
105.450000 -1.767664 -1.767285
105.500000 -1.767610 -1.767285
105.550000 -1.767548 -1.767285
105.600000 -1.767481 -1.767285
105.650000 -1.767408 -1.767285
105.700000 -1.767334 -1.767285
105.750000 -1.767258 -1.767285
105.800000 -1.767184 -1.767285
105.850000 -1.767114 -1.767285
105.900000 -1.767048 -1.767285
105.950000 -1.766988 -1.767285
106.000000 -1.766937 -1.767285
106.050000 -1.766895 -1.767285
106.100000 -1.766863 -1.767285
106.150000 -1.766843 -1.767285
106.200000 -1.766833 -1.767285
106.250000 -1.766835 -1.767285
106.300000 -1.766849 -1.767285
106.350000 -1.766874 -1.767285
106.400000 -1.766908 -1.767285
106.450000 -1.766952 -1.767285
106.500000 -1.767005 -1.767285
106.550000 -1.767063 -1.767285
106.600000 -1.767127 -1.767285
106.650000 -1.767195 -1.767285
106.700000 -1.767264 -1.767285
106.750000 -1.767333 -1.767285
106.800000 -1.767400 -1.767285
106.850000 -1.767464 -1.767285
106.900000 -1.767523 -1.767285
106.950000 -1.767575 -1.767285
107.000000 -1.767619 -1.767285
107.050000 -1.767655 -1.767285
107.100000 -1.767681 -1.767285
107.150000 -1.767696 -1.767285
107.200000 -1.767701 -1.767285
107.250000 -1.767695 -1.767285
107.300000 -1.767679 -1.767285
107.350000 -1.767653 -1.767285
107.400000 -1.767618 -1.767285
107.450000 -1.767575 -1.767285
107.500000 -1.767525 -1.767285
107.550000 -1.767469 -1.767285
107.600000 -1.767408 -1.767285
107.650000 -1.767346 -1.767285
107.700000 -1.767282 -1.767285
107.750000 -1.767219 -1.767285
107.800000 -1.767158 -1.767285
107.850000 -1.767100 -1.767285
107.900000 -1.767048 -1.767285
107.950000 -1.767003 -1.767285
108.000000 -1.766965 -1.767285
108.050000 -1.766935 -1.767285
108.100000 -1.766914 -1.767285
108.150000 -1.766904 -1.767285
108.200000 -1.766902 -1.767285
108.250000 -1.766911 -1.767285
108.300000 -1.766929 -1.767285
108.350000 -1.766956 -1.767285
108.400000 -1.766991 -1.767285
108.450000 -1.767033 -1.767285
108.500000 -1.767081 -1.767285
108.550000 -1.767134 -1.767285
108.600000 -1.767191 -1.767285
108.650000 -1.767249 -1.767285
108.700000 -1.767308 -1.767285
108.750000 -1.767366 -1.767285
108.800000 -1.767421 -1.767285
108.850000 -1.767472 -1.767285
108.900000 -1.767518 -1.767285
108.950000 -1.767558 -1.767285
109.000000 -1.767590 -1.767285
109.050000 -1.767614 -1.767285
109.100000 -1.767630 -1.767285
109.150000 -1.767637 -1.767285
109.200000 -1.767635 -1.767285
109.250000 -1.767624 -1.767285
109.300000 -1.767605 -1.767285
109.350000 -1.767577 -1.767285
109.400000 -1.767543 -1.767285
109.450000 -1.767502 -1.767285
109.500000 -1.767456 -1.767285
109.550000 -1.767405 -1.767285
109.600000 -1.767353 -1.767285
109.650000 -1.767299 -1.767285
109.700000 -1.767245 -1.767285
109.750000 -1.767193 -1.767285
109.800000 -1.767143 -1.767285
109.850000 -1.767097 -1.767285
109.900000 -1.767057 -1.767285
109.950000 -1.767023 -1.767285
110.000000 -1.766995 -1.767285
110.050000 -1.766975 -1.767285
110.100000 -1.766964 -1.767285
110.150000 -1.766960 -1.767285
110.200000 -1.766965 -1.767285
110.250000 -1.766978 -1.767285
110.300000 -1.766998 -1.767285
110.350000 -1.767026 -1.767285
110.400000 -1.767060 -1.767285
110.450000 -1.767099 -1.767285
110.500000 -1.767143 -1.767285
110.550000 -1.767190 -1.767285
110.600000 -1.767239 -1.767285
110.650000 -1.767289 -1.767285
110.700000 -1.767339 -1.767285
110.750000 -1.767386 -1.767285
110.800000 -1.767431 -1.767285
110.850000 -1.767471 -1.767285
110.900000 -1.767506 -1.767285
110.950000 -1.767536 -1.767285
111.000000 -1.767559 -1.767285
111.050000 -1.767574 -1.767285
111.100000 -1.767583 -1.767285
111.150000 -1.767583 -1.767285
111.200000 -1.767576 -1.767285
111.250000 -1.767562 -1.767285
111.300000 -1.767540 -1.767285
111.350000 -1.767513 -1.767285
111.400000 -1.767480 -1.767285
111.450000 -1.767442 -1.767285
111.500000 -1.767400 -1.767285
111.550000 -1.767356 -1.767285
111.600000 -1.767311 -1.767285
111.650000 -1.767265 -1.767285
111.700000 -1.767220 -1.767285
111.750000 -1.767177 -1.767285
111.800000 -1.767137 -1.767285
111.850000 -1.767102 -1.767285
111.900000 -1.767071 -1.767285
111.950000 -1.767046 -1.767285
112.000000 -1.767027 -1.767285
112.050000 -1.767015 -1.767285
112.100000 -1.767010 -1.767285
112.150000 -1.767012 -1.767285
112.200000 -1.767021 -1.767285
112.250000 -1.767036 -1.767285
112.300000 -1.767058 -1.767285
112.350000 -1.767085 -1.767285
112.400000 -1.767117 -1.767285
112.450000 -1.767153 -1.767285
112.500000 -1.767192 -1.767285
112.550000 -1.767234 -1.767285
112.600000 -1.767276 -1.767285
112.650000 -1.767318 -1.767285
112.700000 -1.767359 -1.767285
112.750000 -1.767397 -1.767285
112.800000 -1.767433 -1.767285
112.850000 -1.767464 -1.767285
112.900000 -1.767490 -1.767285
112.950000 -1.767512 -1.767285
113.000000 -1.767527 -1.767285
113.050000 -1.767536 -1.767285
113.100000 -1.767538 -1.767285
113.150000 -1.767534 -1.767285
113.200000 -1.767524 -1.767285
113.250000 -1.767508 -1.767285
113.300000 -1.767486 -1.767285
113.350000 -1.767459 -1.767285
113.400000 -1.767428 -1.767285
113.450000 -1.767394 -1.767285
113.500000 -1.767357 -1.767285
113.550000 -1.767319 -1.767285
113.600000 -1.767280 -1.767285
113.650000 -1.767241 -1.767285
113.700000 -1.767204 -1.767285
113.750000 -1.767170 -1.767285
113.800000 -1.767138 -1.767285
113.850000 -1.767111 -1.767285
113.900000 -1.767088 -1.767285
113.950000 -1.767071 -1.767285
114.000000 -1.767059 -1.767285
114.050000 -1.767052 -1.767285
114.100000 -1.767052 -1.767285
114.150000 -1.767058 -1.767285
114.200000 -1.767069 -1.767285
114.250000 -1.767086 -1.767285
114.300000 -1.767108 -1.767285
114.350000 -1.767134 -1.767285
114.400000 -1.767164 -1.767285
114.450000 -1.767196 -1.767285
114.500000 -1.767231 -1.767285
114.550000 -1.767266 -1.767285
114.600000 -1.767302 -1.767285
114.650000 -1.767337 -1.767285
114.700000 -1.767370 -1.767285
114.750000 -1.767401 -1.767285
114.800000 -1.767429 -1.767285
114.850000 -1.767453 -1.767285
114.900000 -1.767472 -1.767285
114.950000 -1.767487 -1.767285
115.000000 -1.767496 -1.767285
115.050000 -1.767499 -1.767285
115.100000 -1.767498 -1.767285
115.150000 -1.767491 -1.767285
115.200000 -1.767478 -1.767285
115.250000 -1.767461 -1.767285
115.300000 -1.767440 -1.767285
115.350000 -1.767415 -1.767285
115.400000 -1.767386 -1.767285
115.450000 -1.767356 -1.767285
115.500000 -1.767323 -1.767285
115.550000 -1.767291 -1.767285
115.600000 -1.767258 -1.767285
115.650000 -1.767226 -1.767285
115.700000 -1.767196 -1.767285
115.750000 -1.767168 -1.767285
115.800000 -1.767144 -1.767285
115.850000 -1.767124 -1.767285
115.900000 -1.767107 -1.767285
115.950000 -1.767096 -1.767285
116.000000 -1.767089 -1.767285
116.050000 -1.767087 -1.767285
116.100000 -1.767091 -1.767285
116.150000 -1.767099 -1.767285
116.200000 -1.767112 -1.767285
116.250000 -1.767129 -1.767285
116.300000 -1.767150 -1.767285
116.350000 -1.767174 -1.767285
116.400000 -1.767201 -1.767285
116.450000 -1.767230 -1.767285
116.500000 -1.767260 -1.767285
116.550000 -1.767290 -1.767285
116.600000 -1.767320 -1.767285
116.650000 -1.767349 -1.767285
116.700000 -1.767376 -1.767285
116.750000 -1.767400 -1.767285
116.800000 -1.767421 -1.767285
116.850000 -1.767439 -1.767285
116.900000 -1.767452 -1.767285
116.950000 -1.767462 -1.767285
117.000000 -1.767466 -1.767285
117.050000 -1.767466 -1.767285
117.100000 -1.767462 -1.767285
117.150000 -1.767452 -1.767285
117.200000 -1.767439 -1.767285
117.250000 -1.767422 -1.767285
117.300000 -1.767402 -1.767285
117.350000 -1.767378 -1.767285
117.400000 -1.767353 -1.767285
117.450000 -1.767326 -1.767285
117.500000 -1.767298 -1.767285
117.550000 -1.767270 -1.767285
117.600000 -1.767243 -1.767285
117.650000 -1.767217 -1.767285
117.700000 -1.767193 -1.767285
117.750000 -1.767172 -1.767285
117.800000 -1.767153 -1.767285
117.850000 -1.767138 -1.767285
117.900000 -1.767127 -1.767285
117.950000 -1.767120 -1.767285
118.000000 -1.767117 -1.767285
118.050000 -1.767119 -1.767285
118.100000 -1.767125 -1.767285
118.150000 -1.767134 -1.767285
118.200000 -1.767148 -1.767285
118.250000 -1.767165 -1.767285
118.300000 -1.767185 -1.767285
118.350000 -1.767207 -1.767285
118.400000 -1.767231 -1.767285
118.450000 -1.767256 -1.767285
118.500000 -1.767281 -1.767285
118.550000 -1.767307 -1.767285
118.600000 -1.767332 -1.767285
118.650000 -1.767355 -1.767285
118.700000 -1.767376 -1.767285
118.750000 -1.767395 -1.767285
118.800000 -1.767411 -1.767285
118.850000 -1.767424 -1.767285
118.900000 -1.767433 -1.767285
118.950000 -1.767438 -1.767285
119.000000 -1.767439 -1.767285
119.050000 -1.767436 -1.767285
119.100000 -1.767430 -1.767285
119.150000 -1.767419 -1.767285
119.200000 -1.767406 -1.767285
119.250000 -1.767389 -1.767285
119.300000 -1.767370 -1.767285
119.350000 -1.767349 -1.767285
119.400000 -1.767327 -1.767285
119.450000 -1.767303 -1.767285
119.500000 -1.767280 -1.767285
119.550000 -1.767256 -1.767285
119.600000 -1.767234 -1.767285
119.650000 -1.767213 -1.767285
119.700000 -1.767194 -1.767285
119.750000 -1.767178 -1.767285
119.800000 -1.767164 -1.767285
119.850000 -1.767154 -1.767285
119.900000 -1.767147 -1.767285
119.950000 -1.767143 -1.767285
120.000000 -1.767143 -1.767285
120.050000 -1.767147 -1.767285
120.100000 -1.767154 -1.767285
120.150000 -1.767165 -1.767285
120.200000 -1.767178 -1.767285
120.250000 -1.767194 -1.767285
120.300000 -1.767213 -1.767285
120.350000 -1.767233 -1.767285
120.400000 -1.767254 -1.767285
120.450000 -1.767275 -1.767285
120.500000 -1.767297 -1.767285
120.550000 -1.767318 -1.767285
120.600000 -1.767339 -1.767285
120.650000 -1.767357 -1.767285
120.700000 -1.767374 -1.767285
120.750000 -1.767388 -1.767285
120.800000 -1.767400 -1.767285
120.850000 -1.767408 -1.767285
120.900000 -1.767414 -1.767285
120.950000 -1.767416 -1.767285
121.000000 -1.767414 -1.767285
121.050000 -1.767410 -1.767285
121.100000 -1.767402 -1.767285
121.150000 -1.767391 -1.767285
121.200000 -1.767378 -1.767285
121.250000 -1.767362 -1.767285
121.300000 -1.767345 -1.767285
121.350000 -1.767326 -1.767285
121.400000 -1.767307 -1.767285
121.450000 -1.767287 -1.767285
121.500000 -1.767267 -1.767285
121.550000 -1.767247 -1.767285
121.600000 -1.767229 -1.767285
121.650000 -1.767213 -1.767285
121.700000 -1.767198 -1.767285
121.750000 -1.767186 -1.767285
121.800000 -1.767176 -1.767285
121.850000 -1.767169 -1.767285
121.900000 -1.767165 -1.767285
121.950000 -1.767165 -1.767285
122.000000 -1.767167 -1.767285
122.050000 -1.767172 -1.767285
122.100000 -1.767180 -1.767285
122.150000 -1.767191 -1.767285
122.200000 -1.767204 -1.767285
122.250000 -1.767219 -1.767285
122.300000 -1.767235 -1.767285
122.350000 -1.767253 -1.767285
122.400000 -1.767271 -1.767285
122.450000 -1.767290 -1.767285
122.500000 -1.767308 -1.767285
122.550000 -1.767325 -1.767285
122.600000 -1.767341 -1.767285
122.650000 -1.767356 -1.767285
122.700000 -1.767369 -1.767285
122.750000 -1.767379 -1.767285
122.800000 -1.767387 -1.767285
122.850000 -1.767393 -1.767285
122.900000 -1.767395 -1.767285
122.950000 -1.767395 -1.767285
123.000000 -1.767392 -1.767285
123.050000 -1.767386 -1.767285
123.100000 -1.767378 -1.767285
123.150000 -1.767367 -1.767285
123.200000 -1.767355 -1.767285
123.250000 -1.767340 -1.767285
123.300000 -1.767325 -1.767285
123.350000 -1.767308 -1.767285
123.400000 -1.767291 -1.767285
123.450000 -1.767275 -1.767285
123.500000 -1.767258 -1.767285
123.550000 -1.767242 -1.767285
123.600000 -1.767228 -1.767285
123.650000 -1.767215 -1.767285
123.700000 -1.767204 -1.767285
123.750000 -1.767195 -1.767285
123.800000 -1.767188 -1.767285
123.850000 -1.767184 -1.767285
123.900000 -1.767183 -1.767285
123.950000 -1.767184 -1.767285
124.000000 -1.767188 -1.767285
124.050000 -1.767194 -1.767285
124.100000 -1.767202 -1.767285
124.150000 -1.767213 -1.767285
124.200000 -1.767225 -1.767285
124.250000 -1.767238 -1.767285
124.300000 -1.767253 -1.767285
124.350000 -1.767268 -1.767285
124.400000 -1.767284 -1.767285
124.450000 -1.767300 -1.767285
124.500000 -1.767315 -1.767285
124.550000 -1.767329 -1.767285
124.600000 -1.767342 -1.767285
124.650000 -1.767353 -1.767285
124.700000 -1.767363 -1.767285
124.750000 -1.767370 -1.767285
124.800000 -1.767375 -1.767285
124.850000 -1.767378 -1.767285
124.900000 -1.767379 -1.767285
124.950000 -1.767377 -1.767285
125.000000 -1.767373 -1.767285
125.050000 -1.767366 -1.767285
125.100000 -1.767358 -1.767285
125.150000 -1.767347 -1.767285
125.200000 -1.767336 -1.767285
125.250000 -1.767323 -1.767285
125.300000 -1.767309 -1.767285
125.350000 -1.767295 -1.767285
125.400000 -1.767280 -1.767285
125.450000 -1.767266 -1.767285
125.500000 -1.767253 -1.767285
125.550000 -1.767240 -1.767285
125.600000 -1.767229 -1.767285
125.650000 -1.767219 -1.767285
125.700000 -1.767211 -1.767285
125.750000 -1.767204 -1.767285
125.800000 -1.767200 -1.767285
125.850000 -1.767199 -1.767285
125.900000 -1.767199 -1.767285
125.950000 -1.767201 -1.767285
126.000000 -1.767206 -1.767285
126.050000 -1.767212 -1.767285
126.100000 -1.767221 -1.767285
126.150000 -1.767231 -1.767285
126.200000 -1.767242 -1.767285
126.250000 -1.767254 -1.767285
126.300000 -1.767267 -1.767285
126.350000 -1.767280 -1.767285
126.400000 -1.767293 -1.767285
126.450000 -1.767306 -1.767285
126.500000 -1.767319 -1.767285
126.550000 -1.767330 -1.767285
126.600000 -1.767340 -1.767285
126.650000 -1.767348 -1.767285
126.700000 -1.767355 -1.767285
126.750000 -1.767360 -1.767285
126.800000 -1.767363 -1.767285
126.850000 -1.767364 -1.767285
126.900000 -1.767363 -1.767285
126.950000 -1.767360 -1.767285
127.000000 -1.767356 -1.767285
127.050000 -1.767349 -1.767285
127.100000 -1.767341 -1.767285
127.150000 -1.767331 -1.767285
127.200000 -1.767321 -1.767285
127.250000 -1.767309 -1.767285
127.300000 -1.767297 -1.767285
127.350000 -1.767285 -1.767285
127.400000 -1.767273 -1.767285
127.450000 -1.767261 -1.767285
127.500000 -1.767250 -1.767285
127.550000 -1.767240 -1.767285
127.600000 -1.767231 -1.767285
127.650000 -1.767224 -1.767285
127.700000 -1.767218 -1.767285
127.750000 -1.767214 -1.767285
127.800000 -1.767212 -1.767285
127.850000 -1.767212 -1.767285
127.900000 -1.767213 -1.767285
127.950000 -1.767217 -1.767285
128.000000 -1.767222 -1.767285
128.050000 -1.767228 -1.767285
128.100000 -1.767236 -1.767285
128.150000 -1.767245 -1.767285
128.200000 -1.767256 -1.767285
128.250000 -1.767266 -1.767285
128.300000 -1.767277 -1.767285
128.350000 -1.767289 -1.767285
128.400000 -1.767300 -1.767285
128.450000 -1.767310 -1.767285
128.500000 -1.767320 -1.767285
128.550000 -1.767329 -1.767285
128.600000 -1.767337 -1.767285
128.650000 -1.767343 -1.767285
128.700000 -1.767348 -1.767285
128.750000 -1.767351 -1.767285
128.800000 -1.767352 -1.767285
128.850000 -1.767352 -1.767285
128.900000 -1.767350 -1.767285
128.950000 -1.767346 -1.767285
129.000000 -1.767341 -1.767285
129.050000 -1.767334 -1.767285
129.100000 -1.767327 -1.767285
129.150000 -1.767318 -1.767285
129.200000 -1.767308 -1.767285
129.250000 -1.767298 -1.767285
129.300000 -1.767288 -1.767285
129.350000 -1.767278 -1.767285
129.400000 -1.767268 -1.767285
129.450000 -1.767258 -1.767285
129.500000 -1.767249 -1.767285
129.550000 -1.767242 -1.767285
129.600000 -1.767235 -1.767285
129.650000 -1.767230 -1.767285
129.700000 -1.767226 -1.767285
129.750000 -1.767223 -1.767285
129.800000 -1.767223 -1.767285
129.850000 -1.767224 -1.767285
129.900000 -1.767226 -1.767285
129.950000 -1.767230 -1.767285
130.000000 -1.767235 -1.767285
130.050000 -1.767241 -1.767285
130.100000 -1.767249 -1.767285
130.150000 -1.767257 -1.767285
130.200000 -1.767266 -1.767285
130.250000 -1.767276 -1.767285
130.300000 -1.767285 -1.767285
130.350000 -1.767295 -1.767285
130.400000 -1.767304 -1.767285
130.450000 -1.767312 -1.767285
130.500000 -1.767320 -1.767285
130.550000 -1.767327 -1.767285
130.600000 -1.767333 -1.767285
130.650000 -1.767337 -1.767285
130.700000 -1.767340 -1.767285
130.750000 -1.767342 -1.767285
130.800000 -1.767342 -1.767285
130.850000 -1.767341 -1.767285
130.900000 -1.767338 -1.767285
130.950000 -1.767334 -1.767285
131.000000 -1.767329 -1.767285
131.050000 -1.767322 -1.767285
131.100000 -1.767315 -1.767285
131.150000 -1.767307 -1.767285
131.200000 -1.767299 -1.767285
131.250000 -1.767290 -1.767285
131.300000 -1.767281 -1.767285
131.350000 -1.767273 -1.767285
131.400000 -1.767265 -1.767285
131.450000 -1.767257 -1.767285
131.500000 -1.767250 -1.767285
131.550000 -1.767244 -1.767285
131.600000 -1.767239 -1.767285
131.650000 -1.767236 -1.767285
131.700000 -1.767233 -1.767285
131.750000 -1.767232 -1.767285
131.800000 -1.767233 -1.767285
131.850000 -1.767234 -1.767285
131.900000 -1.767237 -1.767285
131.950000 -1.767241 -1.767285
132.000000 -1.767246 -1.767285
132.050000 -1.767252 -1.767285
132.100000 -1.767259 -1.767285
132.150000 -1.767267 -1.767285
132.200000 -1.767275 -1.767285
132.250000 -1.767283 -1.767285
132.300000 -1.767291 -1.767285
132.350000 -1.767299 -1.767285
132.400000 -1.767306 -1.767285
132.450000 -1.767313 -1.767285
132.500000 -1.767319 -1.767285
132.550000 -1.767324 -1.767285
132.600000 -1.767328 -1.767285
132.650000 -1.767331 -1.767285
132.700000 -1.767333 -1.767285
132.750000 -1.767333 -1.767285
132.800000 -1.767333 -1.767285
132.850000 -1.767331 -1.767285
132.900000 -1.767328 -1.767285
132.950000 -1.767323 -1.767285
133.000000 -1.767318 -1.767285
133.050000 -1.767312 -1.767285
133.100000 -1.767306 -1.767285
133.150000 -1.767299 -1.767285
133.200000 -1.767292 -1.767285
133.250000 -1.767284 -1.767285
133.300000 -1.767277 -1.767285
133.350000 -1.767270 -1.767285
133.400000 -1.767263 -1.767285
133.450000 -1.767257 -1.767285
133.500000 -1.767252 -1.767285
133.550000 -1.767247 -1.767285
133.600000 -1.767244 -1.767285
133.650000 -1.767242 -1.767285
133.700000 -1.767240 -1.767285
133.750000 -1.767240 -1.767285
133.800000 -1.767241 -1.767285
133.850000 -1.767243 -1.767285
133.900000 -1.767247 -1.767285
133.950000 -1.767251 -1.767285
134.000000 -1.767256 -1.767285
134.050000 -1.767261 -1.767285
134.100000 -1.767268 -1.767285
134.150000 -1.767274 -1.767285
134.200000 -1.767281 -1.767285
134.250000 -1.767288 -1.767285
134.300000 -1.767294 -1.767285
134.350000 -1.767301 -1.767285
134.400000 -1.767307 -1.767285
134.450000 -1.767312 -1.767285
134.500000 -1.767317 -1.767285
134.550000 -1.767320 -1.767285
134.600000 -1.767323 -1.767285
134.650000 -1.767325 -1.767285
134.700000 -1.767326 -1.767285
134.750000 -1.767326 -1.767285
134.800000 -1.767324 -1.767285
134.850000 -1.767322 -1.767285
134.900000 -1.767319 -1.767285
134.950000 -1.767315 -1.767285
135.000000 -1.767310 -1.767285
135.050000 -1.767304 -1.767285
135.100000 -1.767299 -1.767285
135.150000 -1.767292 -1.767285
135.200000 -1.767286 -1.767285
135.250000 -1.767280 -1.767285
135.300000 -1.767274 -1.767285
135.350000 -1.767268 -1.767285
135.400000 -1.767263 -1.767285
135.450000 -1.767258 -1.767285
135.500000 -1.767254 -1.767285
135.550000 -1.767251 -1.767285
135.600000 -1.767249 -1.767285
135.650000 -1.767247 -1.767285
135.700000 -1.767247 -1.767285
135.750000 -1.767248 -1.767285
135.800000 -1.767249 -1.767285
135.850000 -1.767252 -1.767285
135.900000 -1.767255 -1.767285
135.950000 -1.767259 -1.767285
136.000000 -1.767263 -1.767285
136.050000 -1.767269 -1.767285
136.100000 -1.767274 -1.767285
136.150000 -1.767280 -1.767285
136.200000 -1.767286 -1.767285
136.250000 -1.767291 -1.767285
136.300000 -1.767297 -1.767285
136.350000 -1.767302 -1.767285
136.400000 -1.767307 -1.767285
136.450000 -1.767311 -1.767285
136.500000 -1.767314 -1.767285
136.550000 -1.767317 -1.767285
136.600000 -1.767319 -1.767285
136.650000 -1.767319 -1.767285
136.700000 -1.767320 -1.767285
136.750000 -1.767319 -1.767285
136.800000 -1.767317 -1.767285
136.850000 -1.767314 -1.767285
136.900000 -1.767311 -1.767285
136.950000 -1.767307 -1.767285
137.000000 -1.767303 -1.767285
137.050000 -1.767298 -1.767285
137.100000 -1.767293 -1.767285
137.150000 -1.767288 -1.767285
137.200000 -1.767282 -1.767285
137.250000 -1.767277 -1.767285
137.300000 -1.767272 -1.767285
137.350000 -1.767267 -1.767285
137.400000 -1.767263 -1.767285
137.450000 -1.767260 -1.767285
137.500000 -1.767257 -1.767285
137.550000 -1.767255 -1.767285
137.600000 -1.767253 -1.767285
137.650000 -1.767253 -1.767285
137.700000 -1.767253 -1.767285
137.750000 -1.767254 -1.767285
137.800000 -1.767256 -1.767285
137.850000 -1.767258 -1.767285
137.900000 -1.767262 -1.767285
137.950000 -1.767265 -1.767285
138.000000 -1.767270 -1.767285
138.050000 -1.767274 -1.767285
138.100000 -1.767279 -1.767285
138.150000 -1.767284 -1.767285
138.200000 -1.767289 -1.767285
138.250000 -1.767294 -1.767285
138.300000 -1.767298 -1.767285
138.350000 -1.767302 -1.767285
138.400000 -1.767306 -1.767285
138.450000 -1.767309 -1.767285
138.500000 -1.767311 -1.767285
138.550000 -1.767313 -1.767285
138.600000 -1.767314 -1.767285
138.650000 -1.767314 -1.767285
138.700000 -1.767314 -1.767285
138.750000 -1.767313 -1.767285
138.800000 -1.767311 -1.767285
138.850000 -1.767308 -1.767285
138.900000 -1.767305 -1.767285
138.950000 -1.767301 -1.767285
139.000000 -1.767297 -1.767285
139.050000 -1.767293 -1.767285
139.100000 -1.767289 -1.767285
139.150000 -1.767284 -1.767285
139.200000 -1.767280 -1.767285
139.250000 -1.767275 -1.767285
139.300000 -1.767271 -1.767285
139.350000 -1.767268 -1.767285
139.400000 -1.767264 -1.767285
139.450000 -1.767262 -1.767285
139.500000 -1.767260 -1.767285
139.550000 -1.767258 -1.767285
139.600000 -1.767258 -1.767285
139.650000 -1.767258 -1.767285
139.700000 -1.767258 -1.767285
139.750000 -1.767260 -1.767285
139.800000 -1.767262 -1.767285
139.850000 -1.767264 -1.767285
139.900000 -1.767267 -1.767285
139.950000 -1.767271 -1.767285
140.000000 -1.767275 -1.767285
140.050000 -1.767279 -1.767285
140.100000 -1.767283 -1.767285
140.150000 -1.767287 -1.767285
140.200000 -1.767291 -1.767285
140.250000 -1.767295 -1.767285
140.300000 -1.767298 -1.767285
140.350000 -1.767302 -1.767285
140.400000 -1.767304 -1.767285
140.450000 -1.767307 -1.767285
140.500000 -1.767308 -1.767285
140.550000 -1.767309 -1.767285
140.600000 -1.767310 -1.767285
140.650000 -1.767310 -1.767285
140.700000 -1.767309 -1.767285
140.750000 -1.767307 -1.767285
140.800000 -1.767305 -1.767285
140.850000 -1.767303 -1.767285
140.900000 -1.767300 -1.767285
140.950000 -1.767296 -1.767285
141.000000 -1.767293 -1.767285
141.050000 -1.767289 -1.767285
141.100000 -1.767285 -1.767285
141.150000 -1.767282 -1.767285
141.200000 -1.767278 -1.767285
141.250000 -1.767274 -1.767285
141.300000 -1.767271 -1.767285
141.350000 -1.767268 -1.767285
141.400000 -1.767266 -1.767285
141.450000 -1.767264 -1.767285
141.500000 -1.767263 -1.767285
141.550000 -1.767262 -1.767285
141.600000 -1.767262 -1.767285
141.650000 -1.767262 -1.767285
141.700000 -1.767263 -1.767285
141.750000 -1.767265 -1.767285
141.800000 -1.767267 -1.767285
141.850000 -1.767269 -1.767285
141.900000 -1.767272 -1.767285
141.950000 -1.767275 -1.767285
142.000000 -1.767279 -1.767285
142.050000 -1.767282 -1.767285
142.100000 -1.767286 -1.767285
142.150000 -1.767289 -1.767285
142.200000 -1.767292 -1.767285
142.250000 -1.767296 -1.767285
142.300000 -1.767298 -1.767285
142.350000 -1.767301 -1.767285
142.400000 -1.767303 -1.767285
142.450000 -1.767304 -1.767285
142.500000 -1.767305 -1.767285
142.550000 -1.767306 -1.767285
142.600000 -1.767306 -1.767285
142.650000 -1.767305 -1.767285
142.700000 -1.767304 -1.767285
142.750000 -1.767303 -1.767285
142.800000 -1.767301 -1.767285
142.850000 -1.767298 -1.767285
142.900000 -1.767296 -1.767285
142.950000 -1.767293 -1.767285
143.000000 -1.767289 -1.767285
143.050000 -1.767286 -1.767285
143.100000 -1.767283 -1.767285
143.150000 -1.767280 -1.767285
143.200000 -1.767277 -1.767285
143.250000 -1.767274 -1.767285
143.300000 -1.767272 -1.767285
143.350000 -1.767269 -1.767285
143.400000 -1.767268 -1.767285
143.450000 -1.767266 -1.767285
143.500000 -1.767266 -1.767285
143.550000 -1.767265 -1.767285
143.600000 -1.767266 -1.767285
143.650000 -1.767266 -1.767285
143.700000 -1.767267 -1.767285
143.750000 -1.767269 -1.767285
143.800000 -1.767271 -1.767285
143.850000 -1.767273 -1.767285
143.900000 -1.767276 -1.767285
143.950000 -1.767279 -1.767285
144.000000 -1.767282 -1.767285
144.050000 -1.767285 -1.767285
144.100000 -1.767288 -1.767285
144.150000 -1.767290 -1.767285
144.200000 -1.767293 -1.767285
144.250000 -1.767296 -1.767285
144.300000 -1.767298 -1.767285
144.350000 -1.767300 -1.767285
144.400000 -1.767301 -1.767285
144.450000 -1.767302 -1.767285
144.500000 -1.767303 -1.767285
144.550000 -1.767303 -1.767285
144.600000 -1.767302 -1.767285
144.650000 -1.767302 -1.767285
144.700000 -1.767300 -1.767285
144.750000 -1.767299 -1.767285
144.800000 -1.767297 -1.767285
144.850000 -1.767295 -1.767285
144.900000 -1.767292 -1.767285
144.950000 -1.767290 -1.767285
145.000000 -1.767287 -1.767285
145.050000 -1.767284 -1.767285
145.100000 -1.767281 -1.767285
145.150000 -1.767279 -1.767285
145.200000 -1.767276 -1.767285
145.250000 -1.767274 -1.767285
145.300000 -1.767272 -1.767285
145.350000 -1.767271 -1.767285
145.400000 -1.767270 -1.767285
145.450000 -1.767269 -1.767285
145.500000 -1.767268 -1.767285
145.550000 -1.767268 -1.767285
145.600000 -1.767269 -1.767285
145.650000 -1.767270 -1.767285
145.700000 -1.767271 -1.767285
145.750000 -1.767272 -1.767285
145.800000 -1.767274 -1.767285
145.850000 -1.767276 -1.767285
145.900000 -1.767279 -1.767285
145.950000 -1.767281 -1.767285
146.000000 -1.767284 -1.767285
146.050000 -1.767286 -1.767285
146.100000 -1.767289 -1.767285
146.150000 -1.767291 -1.767285
146.200000 -1.767293 -1.767285
146.250000 -1.767295 -1.767285
146.300000 -1.767297 -1.767285
146.350000 -1.767298 -1.767285
146.400000 -1.767299 -1.767285
146.450000 -1.767300 -1.767285
146.500000 -1.767300 -1.767285
146.550000 -1.767300 -1.767285
146.600000 -1.767299 -1.767285
146.650000 -1.767298 -1.767285
146.700000 -1.767297 -1.767285
146.750000 -1.767296 -1.767285
146.800000 -1.767294 -1.767285
146.850000 -1.767292 -1.767285
146.900000 -1.767290 -1.767285
146.950000 -1.767287 -1.767285
147.000000 -1.767285 -1.767285
147.050000 -1.767283 -1.767285
147.100000 -1.767280 -1.767285
147.150000 -1.767278 -1.767285
147.200000 -1.767276 -1.767285
147.250000 -1.767275 -1.767285
147.300000 -1.767273 -1.767285
147.350000 -1.767272 -1.767285
147.400000 -1.767271 -1.767285
147.450000 -1.767271 -1.767285
147.500000 -1.767271 -1.767285
147.550000 -1.767271 -1.767285
147.600000 -1.767272 -1.767285
147.650000 -1.767273 -1.767285
147.700000 -1.767274 -1.767285
147.750000 -1.767275 -1.767285
147.800000 -1.767277 -1.767285
147.850000 -1.767279 -1.767285
147.900000 -1.767281 -1.767285
147.950000 -1.767283 -1.767285
148.000000 -1.767285 -1.767285
148.050000 -1.767288 -1.767285
148.100000 -1.767290 -1.767285
148.150000 -1.767291 -1.767285
148.200000 -1.767293 -1.767285
148.250000 -1.767295 -1.767285
148.300000 -1.767296 -1.767285
148.350000 -1.767297 -1.767285
148.400000 -1.767297 -1.767285
148.450000 -1.767298 -1.767285
148.500000 -1.767298 -1.767285
148.550000 -1.767297 -1.767285
148.600000 -1.767297 -1.767285
148.650000 -1.767296 -1.767285
148.700000 -1.767294 -1.767285
148.750000 -1.767293 -1.767285
148.800000 -1.767291 -1.767285
148.850000 -1.767289 -1.767285
148.900000 -1.767287 -1.767285
148.950000 -1.767286 -1.767285
149.000000 -1.767284 -1.767285
149.050000 -1.767282 -1.767285
149.100000 -1.767280 -1.767285
149.150000 -1.767278 -1.767285
149.200000 -1.767277 -1.767285
149.250000 -1.767275 -1.767285
149.300000 -1.767274 -1.767285
149.350000 -1.767274 -1.767285
149.400000 -1.767273 -1.767285
149.450000 -1.767273 -1.767285
149.500000 -1.767273 -1.767285
149.550000 -1.767274 -1.767285
149.600000 -1.767274 -1.767285
149.650000 -1.767275 -1.767285
149.700000 -1.767276 -1.767285
149.750000 -1.767278 -1.767285
149.800000 -1.767279 -1.767285
149.850000 -1.767281 -1.767285
149.900000 -1.767283 -1.767285
149.950000 -1.767285 -1.767285
150.000000 -1.767287 -1.767285
150.050000 -1.767288 -1.767285
150.100000 -1.767290 -1.767285
150.150000 -1.767291 -1.767285
150.200000 -1.767293 -1.767285
150.250000 -1.767294 -1.767285
150.300000 -1.767295 -1.767285
150.350000 -1.767295 -1.767285
150.400000 -1.767296 -1.767285
150.450000 -1.767296 -1.767285
150.500000 -1.767295 -1.767285
150.550000 -1.767295 -1.767285
150.600000 -1.767294 -1.767285
150.650000 -1.767293 -1.767285
150.700000 -1.767292 -1.767285
150.750000 -1.767291 -1.767285
150.800000 -1.767289 -1.767285
150.850000 -1.767288 -1.767285
150.900000 -1.767286 -1.767285
150.950000 -1.767284 -1.767285
151.000000 -1.767283 -1.767285
151.050000 -1.767281 -1.767285
151.100000 -1.767280 -1.767285
151.150000 -1.767278 -1.767285
151.200000 -1.767277 -1.767285
151.250000 -1.767276 -1.767285
151.300000 -1.767275 -1.767285
151.350000 -1.767275 -1.767285
151.400000 -1.767275 -1.767285
151.450000 -1.767275 -1.767285
151.500000 -1.767275 -1.767285
151.550000 -1.767276 -1.767285
151.600000 -1.767276 -1.767285
151.650000 -1.767277 -1.767285
151.700000 -1.767279 -1.767285
151.750000 -1.767280 -1.767285
151.800000 -1.767281 -1.767285
151.850000 -1.767283 -1.767285
151.900000 -1.767284 -1.767285
151.950000 -1.767286 -1.767285
152.000000 -1.767287 -1.767285
152.050000 -1.767289 -1.767285
152.100000 -1.767290 -1.767285
152.150000 -1.767291 -1.767285
152.200000 -1.767292 -1.767285
152.250000 -1.767293 -1.767285
152.300000 -1.767294 -1.767285
152.350000 -1.767294 -1.767285
152.400000 -1.767294 -1.767285
152.450000 -1.767294 -1.767285
152.500000 -1.767294 -1.767285
152.550000 -1.767293 -1.767285
152.600000 -1.767292 -1.767285
152.650000 -1.767291 -1.767285
152.700000 -1.767290 -1.767285
152.750000 -1.767289 -1.767285
152.800000 -1.767288 -1.767285
152.850000 -1.767286 -1.767285
152.900000 -1.767285 -1.767285
152.950000 -1.767283 -1.767285
153.000000 -1.767282 -1.767285
153.050000 -1.767281 -1.767285
153.100000 -1.767280 -1.767285
153.150000 -1.767279 -1.767285
153.200000 -1.767278 -1.767285
153.250000 -1.767277 -1.767285
153.300000 -1.767277 -1.767285
153.350000 -1.767276 -1.767285
153.400000 -1.767276 -1.767285
153.450000 -1.767276 -1.767285
153.500000 -1.767277 -1.767285
153.550000 -1.767277 -1.767285
153.600000 -1.767278 -1.767285
153.650000 -1.767279 -1.767285
153.700000 -1.767280 -1.767285
153.750000 -1.767281 -1.767285
153.800000 -1.767283 -1.767285
153.850000 -1.767284 -1.767285
153.900000 -1.767285 -1.767285
153.950000 -1.767287 -1.767285
154.000000 -1.767288 -1.767285
154.050000 -1.767289 -1.767285
154.100000 -1.767290 -1.767285
154.150000 -1.767291 -1.767285
154.200000 -1.767292 -1.767285
154.250000 -1.767292 -1.767285
154.300000 -1.767292 -1.767285
154.350000 -1.767293 -1.767285
154.400000 -1.767293 -1.767285
154.450000 -1.767292 -1.767285
154.500000 -1.767292 -1.767285
154.550000 -1.767291 -1.767285
154.600000 -1.767291 -1.767285
154.650000 -1.767290 -1.767285
154.700000 -1.767289 -1.767285
154.750000 -1.767288 -1.767285
154.800000 -1.767286 -1.767285
154.850000 -1.767285 -1.767285
154.900000 -1.767284 -1.767285
154.950000 -1.767283 -1.767285
155.000000 -1.767282 -1.767285
155.050000 -1.767281 -1.767285
155.100000 -1.767280 -1.767285
155.150000 -1.767279 -1.767285
155.200000 -1.767278 -1.767285
155.250000 -1.767278 -1.767285
155.300000 -1.767278 -1.767285
155.350000 -1.767278 -1.767285
155.400000 -1.767278 -1.767285
155.450000 -1.767278 -1.767285
155.500000 -1.767278 -1.767285
155.550000 -1.767279 -1.767285
155.600000 -1.767280 -1.767285
155.650000 -1.767281 -1.767285
155.700000 -1.767282 -1.767285
155.750000 -1.767283 -1.767285
155.800000 -1.767284 -1.767285
155.850000 -1.767285 -1.767285
155.900000 -1.767286 -1.767285
155.950000 -1.767287 -1.767285
156.000000 -1.767288 -1.767285
156.050000 -1.767289 -1.767285
156.100000 -1.767290 -1.767285
156.150000 -1.767290 -1.767285
156.200000 -1.767291 -1.767285
156.250000 -1.767291 -1.767285
156.300000 -1.767291 -1.767285
156.350000 -1.767291 -1.767285
156.400000 -1.767291 -1.767285
156.450000 -1.767291 -1.767285
156.500000 -1.767291 -1.767285
156.550000 -1.767290 -1.767285
156.600000 -1.767289 -1.767285
156.650000 -1.767288 -1.767285
156.700000 -1.767287 -1.767285
156.750000 -1.767286 -1.767285
156.800000 -1.767285 -1.767285
156.850000 -1.767284 -1.767285
156.900000 -1.767283 -1.767285
156.950000 -1.767282 -1.767285
157.000000 -1.767282 -1.767285
157.050000 -1.767281 -1.767285
157.100000 -1.767280 -1.767285
157.150000 -1.767279 -1.767285
157.200000 -1.767279 -1.767285
157.250000 -1.767279 -1.767285
157.300000 -1.767279 -1.767285
157.350000 -1.767279 -1.767285
157.400000 -1.767279 -1.767285
157.450000 -1.767279 -1.767285
157.500000 -1.767280 -1.767285
157.550000 -1.767280 -1.767285
157.600000 -1.767281 -1.767285
157.650000 -1.767282 -1.767285
157.700000 -1.767283 -1.767285
157.750000 -1.767284 -1.767285
157.800000 -1.767285 -1.767285
157.850000 -1.767286 -1.767285
157.900000 -1.767286 -1.767285
157.950000 -1.767287 -1.767285
158.000000 -1.767288 -1.767285
158.050000 -1.767289 -1.767285
158.100000 -1.767289 -1.767285
158.150000 -1.767290 -1.767285
158.200000 -1.767290 -1.767285
158.250000 -1.767290 -1.767285
158.300000 -1.767290 -1.767285
158.350000 -1.767290 -1.767285
158.400000 -1.767290 -1.767285
158.450000 -1.767290 -1.767285
158.500000 -1.767289 -1.767285
158.550000 -1.767289 -1.767285
158.600000 -1.767288 -1.767285
158.650000 -1.767287 -1.767285
158.700000 -1.767286 -1.767285
158.750000 -1.767286 -1.767285
158.800000 -1.767285 -1.767285
158.850000 -1.767284 -1.767285
158.900000 -1.767283 -1.767285
158.950000 -1.767282 -1.767285
159.000000 -1.767282 -1.767285
159.050000 -1.767281 -1.767285
159.100000 -1.767280 -1.767285
159.150000 -1.767280 -1.767285
159.200000 -1.767280 -1.767285
159.250000 -1.767280 -1.767285
159.300000 -1.767280 -1.767285
159.350000 -1.767280 -1.767285
159.400000 -1.767280 -1.767285
159.450000 -1.767280 -1.767285
159.500000 -1.767281 -1.767285
159.550000 -1.767281 -1.767285
159.600000 -1.767282 -1.767285
159.650000 -1.767283 -1.767285
159.700000 -1.767284 -1.767285
159.750000 -1.767284 -1.767285
159.800000 -1.767285 -1.767285
159.850000 -1.767286 -1.767285
159.900000 -1.767287 -1.767285
159.950000 -1.767287 -1.767285
160.000000 -1.767288 -1.767285
160.050000 -1.767289 -1.767285
160.100000 -1.767289 -1.767285
160.150000 -1.767289 -1.767285
160.200000 -1.767290 -1.767285
160.250000 -1.767290 -1.767285
160.300000 -1.767290 -1.767285
160.350000 -1.767289 -1.767285
160.400000 -1.767289 -1.767285
160.450000 -1.767289 -1.767285
160.500000 -1.767288 -1.767285
160.550000 -1.767288 -1.767285
160.600000 -1.767287 -1.767285
160.650000 -1.767286 -1.767285
160.700000 -1.767286 -1.767285
160.750000 -1.767285 -1.767285
160.800000 -1.767284 -1.767285
160.850000 -1.767284 -1.767285
160.900000 -1.767283 -1.767285
160.950000 -1.767282 -1.767285
161.000000 -1.767282 -1.767285
161.050000 -1.767281 -1.767285
161.100000 -1.767281 -1.767285
161.150000 -1.767281 -1.767285
161.200000 -1.767280 -1.767285
161.250000 -1.767280 -1.767285
161.300000 -1.767280 -1.767285
161.350000 -1.767281 -1.767285
161.400000 -1.767281 -1.767285
161.450000 -1.767281 -1.767285
161.500000 -1.767282 -1.767285
161.550000 -1.767282 -1.767285
161.600000 -1.767283 -1.767285
161.650000 -1.767284 -1.767285
161.700000 -1.767284 -1.767285
161.750000 -1.767285 -1.767285
161.800000 -1.767286 -1.767285
161.850000 -1.767286 -1.767285
161.900000 -1.767287 -1.767285
161.950000 -1.767287 -1.767285
162.000000 -1.767288 -1.767285
162.050000 -1.767288 -1.767285
162.100000 -1.767289 -1.767285
162.150000 -1.767289 -1.767285
162.200000 -1.767289 -1.767285
162.250000 -1.767289 -1.767285
162.300000 -1.767289 -1.767285
162.350000 -1.767289 -1.767285
162.400000 -1.767288 -1.767285
162.450000 -1.767288 -1.767285
162.500000 -1.767287 -1.767285
162.550000 -1.767287 -1.767285
162.600000 -1.767286 -1.767285
162.650000 -1.767286 -1.767285
162.700000 -1.767285 -1.767285
162.750000 -1.767284 -1.767285
162.800000 -1.767284 -1.767285
162.850000 -1.767283 -1.767285
162.900000 -1.767283 -1.767285
162.950000 -1.767282 -1.767285
163.000000 -1.767282 -1.767285
163.050000 -1.767282 -1.767285
163.100000 -1.767281 -1.767285
163.150000 -1.767281 -1.767285
163.200000 -1.767281 -1.767285
163.250000 -1.767281 -1.767285
163.300000 -1.767281 -1.767285
163.350000 -1.767281 -1.767285
163.400000 -1.767282 -1.767285
163.450000 -1.767282 -1.767285
163.500000 -1.767283 -1.767285
163.550000 -1.767283 -1.767285
163.600000 -1.767284 -1.767285
163.650000 -1.767284 -1.767285
163.700000 -1.767285 -1.767285
163.750000 -1.767285 -1.767285
163.800000 -1.767286 -1.767285
163.850000 -1.767286 -1.767285
163.900000 -1.767287 -1.767285
163.950000 -1.767287 -1.767285
164.000000 -1.767288 -1.767285
164.050000 -1.767288 -1.767285
164.100000 -1.767288 -1.767285
164.150000 -1.767288 -1.767285
164.200000 -1.767288 -1.767285
164.250000 -1.767288 -1.767285
164.300000 -1.767288 -1.767285
164.350000 -1.767288 -1.767285
164.400000 -1.767288 -1.767285
164.450000 -1.767287 -1.767285
164.500000 -1.767287 -1.767285
164.550000 -1.767286 -1.767285
164.600000 -1.767286 -1.767285
164.650000 -1.767285 -1.767285
164.700000 -1.767285 -1.767285
164.750000 -1.767284 -1.767285
164.800000 -1.767284 -1.767285
164.850000 -1.767283 -1.767285
164.900000 -1.767283 -1.767285
164.950000 -1.767282 -1.767285
165.000000 -1.767282 -1.767285
165.050000 -1.767282 -1.767285
165.100000 -1.767282 -1.767285
165.150000 -1.767282 -1.767285
165.200000 -1.767282 -1.767285
165.250000 -1.767282 -1.767285
165.300000 -1.767282 -1.767285
165.350000 -1.767282 -1.767285
165.400000 -1.767282 -1.767285
165.450000 -1.767283 -1.767285
165.500000 -1.767283 -1.767285
165.550000 -1.767284 -1.767285
165.600000 -1.767284 -1.767285
165.650000 -1.767285 -1.767285
165.700000 -1.767285 -1.767285
165.750000 -1.767286 -1.767285
165.800000 -1.767286 -1.767285
165.850000 -1.767286 -1.767285
165.900000 -1.767287 -1.767285
165.950000 -1.767287 -1.767285
166.000000 -1.767287 -1.767285
166.050000 -1.767288 -1.767285
166.100000 -1.767288 -1.767285
166.150000 -1.767288 -1.767285
166.200000 -1.767288 -1.767285
166.250000 -1.767288 -1.767285
166.300000 -1.767287 -1.767285
166.350000 -1.767287 -1.767285
166.400000 -1.767287 -1.767285
166.450000 -1.767287 -1.767285
166.500000 -1.767286 -1.767285
166.550000 -1.767286 -1.767285
166.600000 -1.767285 -1.767285
166.650000 -1.767285 -1.767285
166.700000 -1.767284 -1.767285
166.750000 -1.767284 -1.767285
166.800000 -1.767284 -1.767285
166.850000 -1.767283 -1.767285
166.900000 -1.767283 -1.767285
166.950000 -1.767283 -1.767285
167.000000 -1.767282 -1.767285
167.050000 -1.767282 -1.767285
167.100000 -1.767282 -1.767285
167.150000 -1.767282 -1.767285
167.200000 -1.767282 -1.767285
167.250000 -1.767282 -1.767285
167.300000 -1.767282 -1.767285
167.350000 -1.767283 -1.767285
167.400000 -1.767283 -1.767285
167.450000 -1.767283 -1.767285
167.500000 -1.767284 -1.767285
167.550000 -1.767284 -1.767285
167.600000 -1.767285 -1.767285
167.650000 -1.767285 -1.767285
167.700000 -1.767285 -1.767285
167.750000 -1.767286 -1.767285
167.800000 -1.767286 -1.767285
167.850000 -1.767286 -1.767285
167.900000 -1.767287 -1.767285
167.950000 -1.767287 -1.767285
168.000000 -1.767287 -1.767285
168.050000 -1.767287 -1.767285
168.100000 -1.767287 -1.767285
168.150000 -1.767287 -1.767285
168.200000 -1.767287 -1.767285
168.250000 -1.767287 -1.767285
168.300000 -1.767287 -1.767285
168.350000 -1.767287 -1.767285
168.400000 -1.767286 -1.767285
168.450000 -1.767286 -1.767285
168.500000 -1.767286 -1.767285
168.550000 -1.767285 -1.767285
168.600000 -1.767285 -1.767285
168.650000 -1.767285 -1.767285
168.700000 -1.767284 -1.767285
168.750000 -1.767284 -1.767285
168.800000 -1.767284 -1.767285
168.850000 -1.767283 -1.767285
168.900000 -1.767283 -1.767285
168.950000 -1.767283 -1.767285
169.000000 -1.767283 -1.767285
169.050000 -1.767283 -1.767285
169.100000 -1.767283 -1.767285
169.150000 -1.767283 -1.767285
169.200000 -1.767283 -1.767285
169.250000 -1.767283 -1.767285
169.300000 -1.767283 -1.767285
169.350000 -1.767283 -1.767285
169.400000 -1.767283 -1.767285
169.450000 -1.767284 -1.767285
169.500000 -1.767284 -1.767285
169.550000 -1.767284 -1.767285
169.600000 -1.767285 -1.767285
169.650000 -1.767285 -1.767285
169.700000 -1.767285 -1.767285
169.750000 -1.767286 -1.767285
169.800000 -1.767286 -1.767285
169.850000 -1.767286 -1.767285
169.900000 -1.767287 -1.767285
169.950000 -1.767287 -1.767285
170.000000 -1.767287 -1.767285
170.050000 -1.767287 -1.767285
170.100000 -1.767287 -1.767285
170.150000 -1.767287 -1.767285
170.200000 -1.767287 -1.767285
170.250000 -1.767287 -1.767285
170.300000 -1.767286 -1.767285
170.350000 -1.767286 -1.767285
170.400000 -1.767286 -1.767285
170.450000 -1.767286 -1.767285
170.500000 -1.767285 -1.767285
170.550000 -1.767285 -1.767285
170.600000 -1.767285 -1.767285
170.650000 -1.767284 -1.767285
170.700000 -1.767284 -1.767285
170.750000 -1.767284 -1.767285
170.800000 -1.767284 -1.767285
170.850000 -1.767283 -1.767285
170.900000 -1.767283 -1.767285
170.950000 -1.767283 -1.767285
171.000000 -1.767283 -1.767285
171.050000 -1.767283 -1.767285
171.100000 -1.767283 -1.767285
171.150000 -1.767283 -1.767285
171.200000 -1.767283 -1.767285
171.250000 -1.767283 -1.767285
171.300000 -1.767283 -1.767285
171.350000 -1.767284 -1.767285
171.400000 -1.767284 -1.767285
171.450000 -1.767284 -1.767285
171.500000 -1.767284 -1.767285
171.550000 -1.767285 -1.767285
171.600000 -1.767285 -1.767285
171.650000 -1.767285 -1.767285
171.700000 -1.767286 -1.767285
171.750000 -1.767286 -1.767285
171.800000 -1.767286 -1.767285
171.850000 -1.767286 -1.767285
171.900000 -1.767286 -1.767285
171.950000 -1.767286 -1.767285
172.000000 -1.767287 -1.767285
172.050000 -1.767287 -1.767285
172.100000 -1.767287 -1.767285
172.150000 -1.767286 -1.767285
172.200000 -1.767286 -1.767285
172.250000 -1.767286 -1.767285
172.300000 -1.767286 -1.767285
172.350000 -1.767286 -1.767285
172.400000 -1.767286 -1.767285
172.450000 -1.767285 -1.767285
172.500000 -1.767285 -1.767285
172.550000 -1.767285 -1.767285
172.600000 -1.767285 -1.767285
172.650000 -1.767284 -1.767285
172.700000 -1.767284 -1.767285
172.750000 -1.767284 -1.767285
172.800000 -1.767284 -1.767285
172.850000 -1.767283 -1.767285
172.900000 -1.767283 -1.767285
172.950000 -1.767283 -1.767285
173.000000 -1.767283 -1.767285
173.050000 -1.767283 -1.767285
173.100000 -1.767283 -1.767285
173.150000 -1.767283 -1.767285
173.200000 -1.767283 -1.767285
173.250000 -1.767284 -1.767285
173.300000 -1.767284 -1.767285
173.350000 -1.767284 -1.767285
173.400000 -1.767284 -1.767285
173.450000 -1.767284 -1.767285
173.500000 -1.767285 -1.767285
173.550000 -1.767285 -1.767285
173.600000 -1.767285 -1.767285
173.650000 -1.767285 -1.767285
173.700000 -1.767286 -1.767285
173.750000 -1.767286 -1.767285
173.800000 -1.767286 -1.767285
173.850000 -1.767286 -1.767285
173.900000 -1.767286 -1.767285
173.950000 -1.767286 -1.767285
174.000000 -1.767286 -1.767285
174.050000 -1.767286 -1.767285
174.100000 -1.767286 -1.767285
174.150000 -1.767286 -1.767285
174.200000 -1.767286 -1.767285
174.250000 -1.767286 -1.767285
174.300000 -1.767286 -1.767285
174.350000 -1.767286 -1.767285
174.400000 -1.767285 -1.767285
174.450000 -1.767285 -1.767285
174.500000 -1.767285 -1.767285
174.550000 -1.767285 -1.767285
174.600000 -1.767284 -1.767285
174.650000 -1.767284 -1.767285
174.700000 -1.767284 -1.767285
174.750000 -1.767284 -1.767285
174.800000 -1.767284 -1.767285
174.850000 -1.767284 -1.767285
174.900000 -1.767283 -1.767285
174.950000 -1.767283 -1.767285
175.000000 -1.767283 -1.767285
175.050000 -1.767283 -1.767285
175.100000 -1.767284 -1.767285
175.150000 -1.767284 -1.767285
175.200000 -1.767284 -1.767285
175.250000 -1.767284 -1.767285
175.300000 -1.767284 -1.767285
175.350000 -1.767284 -1.767285
175.400000 -1.767284 -1.767285
175.450000 -1.767285 -1.767285
175.500000 -1.767285 -1.767285
175.550000 -1.767285 -1.767285
175.600000 -1.767285 -1.767285
175.650000 -1.767285 -1.767285
175.700000 -1.767286 -1.767285
175.750000 -1.767286 -1.767285
175.800000 -1.767286 -1.767285
175.850000 -1.767286 -1.767285
175.900000 -1.767286 -1.767285
175.950000 -1.767286 -1.767285
176.000000 -1.767286 -1.767285
176.050000 -1.767286 -1.767285
176.100000 -1.767286 -1.767285
176.150000 -1.767286 -1.767285
176.200000 -1.767286 -1.767285
176.250000 -1.767286 -1.767285
176.300000 -1.767285 -1.767285
176.350000 -1.767285 -1.767285
176.400000 -1.767285 -1.767285
176.450000 -1.767285 -1.767285
176.500000 -1.767285 -1.767285
176.550000 -1.767285 -1.767285
176.600000 -1.767284 -1.767285
176.650000 -1.767284 -1.767285
176.700000 -1.767284 -1.767285
176.750000 -1.767284 -1.767285
176.800000 -1.767284 -1.767285
176.850000 -1.767284 -1.767285
176.900000 -1.767284 -1.767285
176.950000 -1.767284 -1.767285
177.000000 -1.767284 -1.767285
177.050000 -1.767284 -1.767285
177.100000 -1.767284 -1.767285
177.150000 -1.767284 -1.767285
177.200000 -1.767284 -1.767285
177.250000 -1.767284 -1.767285
177.300000 -1.767284 -1.767285
177.350000 -1.767284 -1.767285
177.400000 -1.767285 -1.767285
177.450000 -1.767285 -1.767285
177.500000 -1.767285 -1.767285
177.550000 -1.767285 -1.767285
177.600000 -1.767285 -1.767285
177.650000 -1.767285 -1.767285
177.700000 -1.767286 -1.767285
177.750000 -1.767286 -1.767285
177.800000 -1.767286 -1.767285
177.850000 -1.767286 -1.767285
177.900000 -1.767286 -1.767285
177.950000 -1.767286 -1.767285
178.000000 -1.767286 -1.767285
178.050000 -1.767286 -1.767285
178.100000 -1.767286 -1.767285
178.150000 -1.767286 -1.767285
178.200000 -1.767286 -1.767285
178.250000 -1.767285 -1.767285
178.300000 -1.767285 -1.767285
178.350000 -1.767285 -1.767285
178.400000 -1.767285 -1.767285
178.450000 -1.767285 -1.767285
178.500000 -1.767285 -1.767285
178.550000 -1.767284 -1.767285
178.600000 -1.767284 -1.767285
178.650000 -1.767284 -1.767285
178.700000 -1.767284 -1.767285
178.750000 -1.767284 -1.767285
178.800000 -1.767284 -1.767285
178.850000 -1.767284 -1.767285
178.900000 -1.767284 -1.767285
178.950000 -1.767284 -1.767285
179.000000 -1.767284 -1.767285
179.050000 -1.767284 -1.767285
179.100000 -1.767284 -1.767285
179.150000 -1.767284 -1.767285
179.200000 -1.767284 -1.767285
179.250000 -1.767284 -1.767285
179.300000 -1.767284 -1.767285
179.350000 -1.767285 -1.767285
179.400000 -1.767285 -1.767285
179.450000 -1.767285 -1.767285
179.500000 -1.767285 -1.767285
179.550000 -1.767285 -1.767285
179.600000 -1.767285 -1.767285
179.650000 -1.767285 -1.767285
179.700000 -1.767286 -1.767285
179.750000 -1.767286 -1.767285
179.800000 -1.767286 -1.767285
179.850000 -1.767286 -1.767285
179.900000 -1.767286 -1.767285
179.950000 -1.767286 -1.767285
180.000000 -1.767286 -1.767285
180.050000 -1.767286 -1.767285
180.100000 -1.767286 -1.767285
180.150000 -1.767285 -1.767285
180.200000 -1.767285 -1.767285
180.250000 -1.767285 -1.767285
180.300000 -1.767285 -1.767285
180.350000 -1.767285 -1.767285
180.400000 -1.767285 -1.767285
180.450000 -1.767285 -1.767285
180.500000 -1.767285 -1.767285
180.550000 -1.767284 -1.767285
180.600000 -1.767284 -1.767285
180.650000 -1.767284 -1.767285
180.700000 -1.767284 -1.767285
180.750000 -1.767284 -1.767285
180.800000 -1.767284 -1.767285
180.850000 -1.767284 -1.767285
180.900000 -1.767284 -1.767285
180.950000 -1.767284 -1.767285
181.000000 -1.767284 -1.767285
181.050000 -1.767284 -1.767285
181.100000 -1.767284 -1.767285
181.150000 -1.767284 -1.767285
181.200000 -1.767284 -1.767285
181.250000 -1.767284 -1.767285
181.300000 -1.767285 -1.767285
181.350000 -1.767285 -1.767285
181.400000 -1.767285 -1.767285
181.450000 -1.767285 -1.767285
181.500000 -1.767285 -1.767285
181.550000 -1.767285 -1.767285
181.600000 -1.767285 -1.767285
181.650000 -1.767285 -1.767285
181.700000 -1.767285 -1.767285
181.750000 -1.767286 -1.767285
181.800000 -1.767286 -1.767285
181.850000 -1.767286 -1.767285
181.900000 -1.767286 -1.767285
181.950000 -1.767286 -1.767285
182.000000 -1.767286 -1.767285
182.050000 -1.767285 -1.767285
182.100000 -1.767285 -1.767285
182.150000 -1.767285 -1.767285
182.200000 -1.767285 -1.767285
182.250000 -1.767285 -1.767285
182.300000 -1.767285 -1.767285
182.350000 -1.767285 -1.767285
182.400000 -1.767285 -1.767285
182.450000 -1.767285 -1.767285
182.500000 -1.767285 -1.767285
182.550000 -1.767284 -1.767285
182.600000 -1.767284 -1.767285
182.650000 -1.767284 -1.767285
182.700000 -1.767284 -1.767285
182.750000 -1.767284 -1.767285
182.800000 -1.767284 -1.767285
182.850000 -1.767284 -1.767285
182.900000 -1.767284 -1.767285
182.950000 -1.767284 -1.767285
183.000000 -1.767284 -1.767285
183.050000 -1.767284 -1.767285
183.100000 -1.767284 -1.767285
183.150000 -1.767284 -1.767285
183.200000 -1.767284 -1.767285
183.250000 -1.767285 -1.767285
183.300000 -1.767285 -1.767285
183.350000 -1.767285 -1.767285
183.400000 -1.767285 -1.767285
183.450000 -1.767285 -1.767285
183.500000 -1.767285 -1.767285
183.550000 -1.767285 -1.767285
183.600000 -1.767285 -1.767285
183.650000 -1.767285 -1.767285
183.700000 -1.767285 -1.767285
183.750000 -1.767285 -1.767285
183.800000 -1.767285 -1.767285
183.850000 -1.767285 -1.767285
183.900000 -1.767285 -1.767285
183.950000 -1.767285 -1.767285
184.000000 -1.767285 -1.767285
184.050000 -1.767285 -1.767285
184.100000 -1.767285 -1.767285
184.150000 -1.767285 -1.767285
184.200000 -1.767285 -1.767285
184.250000 -1.767285 -1.767285
184.300000 -1.767285 -1.767285
184.350000 -1.767285 -1.767285
184.400000 -1.767285 -1.767285
184.450000 -1.767285 -1.767285
184.500000 -1.767285 -1.767285
184.550000 -1.767284 -1.767285
184.600000 -1.767284 -1.767285
184.650000 -1.767284 -1.767285
184.700000 -1.767284 -1.767285
184.750000 -1.767284 -1.767285
184.800000 -1.767284 -1.767285
184.850000 -1.767284 -1.767285
184.900000 -1.767284 -1.767285
184.950000 -1.767284 -1.767285
185.000000 -1.767284 -1.767285
185.050000 -1.767284 -1.767285
185.100000 -1.767284 -1.767285
185.150000 -1.767285 -1.767285
185.200000 -1.767285 -1.767285
185.250000 -1.767285 -1.767285
185.300000 -1.767285 -1.767285
185.350000 -1.767285 -1.767285
185.400000 -1.767285 -1.767285
185.450000 -1.767285 -1.767285
185.500000 -1.767285 -1.767285
185.550000 -1.767285 -1.767285
185.600000 -1.767285 -1.767285
185.650000 -1.767285 -1.767285
185.700000 -1.767285 -1.767285
185.750000 -1.767285 -1.767285
185.800000 -1.767285 -1.767285
185.850000 -1.767285 -1.767285
185.900000 -1.767285 -1.767285
185.950000 -1.767285 -1.767285
186.000000 -1.767285 -1.767285
186.050000 -1.767285 -1.767285
186.100000 -1.767285 -1.767285
186.150000 -1.767285 -1.767285
186.200000 -1.767285 -1.767285
186.250000 -1.767285 -1.767285
186.300000 -1.767285 -1.767285
186.350000 -1.767285 -1.767285
186.400000 -1.767285 -1.767285
186.450000 -1.767285 -1.767285
186.500000 -1.767285 -1.767285
186.550000 -1.767284 -1.767285
186.600000 -1.767284 -1.767285
186.650000 -1.767284 -1.767285
186.700000 -1.767284 -1.767285
186.750000 -1.767284 -1.767285
186.800000 -1.767284 -1.767285
186.850000 -1.767284 -1.767285
186.900000 -1.767284 -1.767285
186.950000 -1.767284 -1.767285
