time[ns] Raw_signal[mV]
-11.200000 -0.098734
-11.150000 -0.050771
-11.100000 -0.013087
-11.050000 0.034876
-11.000000 0.069135
-10.950000 0.082839
-10.900000 0.082838
-10.850000 0.069134
-10.800000 0.048580
-10.750000 0.034876
-10.700000 0.014320
-10.650000 -0.019939
-10.600000 -0.030216
-10.550000 -0.016513
-10.500000 -0.033642
-10.450000 -0.040493
-10.400000 0.024599
-10.350000 0.086264
-10.300000 0.062283
-10.250000 0.038302
-10.200000 0.065709
-10.150000 0.072560
-10.100000 0.038302
-10.050000 0.014321
-10.000000 0.014321
-9.950000 0.017746
-9.900000 0.021173
-9.850000 0.024598
-9.800000 0.017747
-9.750000 0.024598
-9.700000 0.038301
-9.650000 0.038302
-9.600000 0.024598
-9.550000 -0.013086
-9.500000 -0.078178
-9.450000 -0.126141
-9.400000 -0.139844
-9.350000 -0.160400
-9.300000 -0.167252
-9.250000 -0.139845
-9.200000 -0.088457
-9.150000 -0.040494
-9.100000 -0.002809
-9.050000 0.021172
-9.000000 0.052005
-8.950000 0.096542
-8.900000 0.089690
-8.850000 0.031450
-8.800000 -0.019939
-8.750000 -0.071327
-8.700000 -0.191233
-8.650000 -0.317990
-8.600000 -0.400212
-8.550000 -0.472156
-8.500000 -0.554377
-8.450000 -0.598914
-8.400000 -0.595488
-8.350000 -0.574932
-8.300000 -0.520118
-8.250000 -0.413915
-8.200000 -0.287158
-8.150000 -0.153548
-8.100000 -0.019939
-8.050000 0.130801
-8.000000 0.291818
-7.950000 0.422001
-7.900000 0.476816
-7.850000 0.483668
-7.800000 0.490519
-7.750000 0.473389
-7.700000 0.391168
-7.650000 0.260984
-7.600000 0.110245
-7.550000 -0.026790
-7.500000 -0.156974
-7.450000 -0.270029
-7.400000 -0.348824
-7.350000 -0.400213
-7.300000 -0.437897
-7.250000 -0.441323
-7.200000 -0.396786
-7.150000 -0.335120
-7.100000 -0.259750
-7.050000 -0.153548
-7.000000 -0.047345
-6.950000 0.004043
-6.900000 0.028024
-6.850000 0.065709
-6.800000 0.093116
-6.750000 0.069134
-6.700000 0.028024
-6.650000 0.004042
-6.600000 -0.040493
-6.550000 -0.102160
-6.500000 -0.136418
-6.450000 -0.163826
-6.400000 -0.191233
-6.350000 -0.187807
-6.300000 -0.156974
-6.250000 -0.119289
-6.200000 -0.074753
-6.150000 -0.013087
-6.100000 0.014320
-6.050000 0.024598
-6.000000 0.055431
-5.950000 0.072561
-5.900000 0.017747
-5.850000 -0.043920
-5.800000 -0.067901
-5.750000 -0.085030
-5.700000 -0.122716
-5.650000 -0.143271
-5.600000 -0.115863
-5.550000 -0.050772
-5.500000 0.031450
-5.450000 0.110245
-5.400000 0.223300
-5.350000 0.336354
-5.300000 0.408298
-5.250000 0.466538
-5.200000 0.514500
-5.150000 0.476815
-5.100000 0.346631
-5.050000 0.213023
-5.000000 0.058857
-4.950000 -0.180955
-4.900000 -0.444748
-4.850000 -0.657154
-4.800000 -0.862708
-4.750000 -1.047705
-4.700000 -1.150483
-4.650000 -1.167611
-4.600000 -1.143630
-4.550000 -1.068260
-4.500000 -0.931225
-4.450000 -0.756505
-4.400000 -0.568081
-4.350000 -0.389934
-4.300000 -0.232344
-4.250000 -0.098733
-4.200000 -0.009660
-4.150000 0.021173
-4.100000 0.028024
-4.050000 0.010895
-4.000000 -0.043919
-3.950000 -0.112438
-3.900000 -0.180956
-3.850000 -0.235769
-3.800000 -0.249473
-3.750000 -0.211788
-3.700000 -0.156974
-3.650000 -0.091882
-3.600000 0.031449
-3.550000 0.165059
-3.500000 0.247281
-3.450000 0.343206
-3.400000 0.469964
-3.350000 0.483667
-3.300000 0.356910
-3.250000 0.305521
-3.200000 0.377465
-3.150000 0.305522
-3.100000 0.072561
-3.050000 -0.016512
-3.000000 0.010895
-2.950000 -0.102160
-2.900000 -0.259751
-2.850000 -0.307713
-2.800000 -0.389934
-2.750000 -0.458452
-2.700000 -0.317991
-2.650000 -0.208362
-2.600000 -0.335120
-2.550000 -0.376231
-2.500000 -0.239195
-2.450000 -0.294009
-2.400000 -0.468730
-2.350000 -0.427619
-2.300000 -0.389934
-2.250000 -0.568081
-2.200000 -0.619469
-2.150000 -0.427620
-2.100000 -0.393361
-2.050000 -0.568081
-2.000000 -0.619469
-1.950000 -0.513267
-1.900000 -0.365953
-1.850000 -0.163826
-1.800000 -0.037068
-1.750000 -0.071327
-1.700000 -0.026790
-1.650000 0.151356
-1.600000 0.168486
-1.550000 0.075986
-1.500000 0.161634
-1.450000 0.319224
-1.400000 0.302095
-1.350000 0.240429
-1.300000 0.178763
-1.250000 0.021172
-1.200000 -0.057624
-1.150000 0.055431
-1.100000 -0.037068
-1.050000 -0.393361
-1.000000 -0.496137
-0.950000 -0.324842
-0.900000 -0.328269
-0.850000 -0.393360
-0.800000 -0.215214
-0.750000 -0.064475
-0.700000 -0.098734
-0.650000 -0.023365
-0.600000 0.178763
-0.550000 0.216448
-0.500000 0.168486
-0.450000 0.223300
-0.400000 0.264410
-0.350000 0.189041
-0.300000 0.072561
-0.250000 -0.050771
-0.200000 -0.174104
-0.150000 -0.280306
-0.100000 -0.383083
-0.050000 -0.444748
0.000000 -0.424193
0.050000 -0.417341
0.100000 -0.482433
0.150000 -0.441323
0.200000 -0.276881
0.250000 -0.239196
0.300000 -0.328269
0.350000 -0.270029
0.400000 -0.088456
0.450000 -0.013087
0.500000 -0.019938
0.550000 0.028024
0.600000 0.058857
0.650000 0.021172
0.700000 0.031450
0.750000 0.151356
0.800000 0.353484
0.850000 0.644684
0.900000 1.103753
0.950000 1.819764
1.000000 2.857809
1.050000 4.262424
1.100000 6.050740
1.150000 8.263860
1.200000 10.912079
1.250000 13.978251
1.300000 17.387006
1.350000 20.977344
1.400000 24.636194
1.450000 28.370409
1.500000 32.138890
1.550000 35.749781
1.600000 39.117426
1.650000 42.317208
1.700000 45.290888
1.750000 47.911688
1.800000 50.213888
1.850000 52.293408
1.900000 54.129678
1.950000 55.650778
2.000000 56.846408
2.050000 57.709728
2.100000 58.257878
2.150000 58.466858
2.200000 58.268158
2.250000 57.630948
2.300000 56.623728
2.350000 55.277358
2.400000 53.581538
2.450000 51.539708
2.500000 49.196398
2.550000 46.565318
2.600000 43.694418
2.650000 40.672788
2.700000 37.562078
2.750000 34.389708
2.800000 31.224178
2.850000 28.185418
2.900000 25.352208
2.950000 22.755378
3.000000 20.429198
3.050000 18.496998
3.100000 16.989604
3.150000 15.896751
3.200000 15.218421
3.250000 14.961484
3.300000 15.023147
3.350000 15.355457
3.400000 15.972115
3.450000 16.828591
3.500000 17.763852
3.550000 18.702547
3.600000 19.692636
3.650000 20.682711
3.700000 21.573444
3.750000 22.368257
3.800000 23.115093
3.850000 23.731757
3.900000 24.166842
3.950000 24.464902
4.000000 24.629336
4.050000 24.557397
4.100000 24.238793
4.150000 23.728329
4.200000 23.050003
4.250000 22.166123
4.300000 21.069837
4.350000 19.822815
4.400000 18.496995
4.450000 17.099238
4.500000 15.629529
4.550000 14.183797
4.600000 12.861409
4.650000 11.634935
4.700000 10.487267
4.750000 9.504036
4.800000 8.719507
4.850000 8.072014
4.900000 7.537575
4.950000 7.164153
5.000000 6.927766
5.050000 6.790730
5.100000 6.735916
5.150000 6.770179
5.200000 6.896931
5.250000 7.095632
5.300000 7.335446
5.350000 7.606094
5.400000 7.945260
5.450000 8.325526
5.500000 8.685253
5.550000 9.079224
5.600000 9.514315
5.650000 9.908290
5.700000 10.223474
5.750000 10.470141
5.800000 10.655131
5.850000 10.751064
5.900000 10.771611
5.950000 10.703099
6.000000 10.535233
6.050000 10.285141
6.100000 9.976811
6.150000 9.610235
6.200000 9.182001
6.250000 8.719507
6.300000 8.263864
6.350000 7.808221
6.400000 7.335448
6.450000 6.835268
6.500000 6.321384
6.550000 5.793797
6.600000 5.249080
6.650000 4.690660
6.700000 4.156222
6.750000 3.683449
6.800000 3.268916
6.850000 2.892068
6.900000 2.604293
6.950000 2.443276
7.000000 2.398740
7.050000 2.436424
7.100000 2.539202
7.150000 2.693367
7.200000 2.902346
7.250000 3.149010
7.300000 3.405952
7.350000 3.638912
7.400000 3.854743
7.450000 4.050019
7.500000 4.217887
7.550000 4.348071
7.600000 4.464552
7.650000 4.557050
7.700000 4.622143
7.750000 4.680383
7.800000 4.759179
7.850000 4.834548
7.900000 4.865381
7.950000 4.861955
8.000000 4.837973
8.050000 4.772882
8.100000 4.649550
8.150000 4.491959
8.200000 4.303535
8.250000 4.036315
8.300000 3.700578
8.350000 3.330582
8.400000 2.943456
8.450000 2.522071
8.500000 2.086984
8.550000 1.672451
8.600000 1.264770
8.650000 0.901626
8.700000 0.613851
8.750000 0.398020
8.800000 0.247281
8.850000 0.168485
8.900000 0.178763
8.950000 0.226726
9.000000 0.267837
9.050000 0.346631
9.100000 0.487094
9.150000 0.641258
9.200000 0.757739
9.250000 0.863941
9.300000 0.980422
9.350000 1.096901
9.400000 1.209957
9.450000 1.333288
9.500000 1.477176
9.550000 1.651896
9.600000 1.864302
9.650000 2.097261
9.700000 2.306241
9.750000 2.463832
9.800000 2.590590
9.850000 2.669385
9.900000 2.652256
9.950000 2.552905
10.000000 2.415870
10.050000 2.230872
10.100000 1.973930
10.150000 1.706710
10.200000 1.460046
10.250000 1.206530
10.300000 0.953014
10.350000 0.761165
10.400000 0.644684
10.450000 0.535056
10.500000 0.418576
10.550000 0.319224
10.600000 0.254133
10.650000 0.189041
10.700000 0.110245
10.750000 0.045153
10.800000 0.017746
10.850000 0.000617
10.900000 -0.013086
10.950000 -0.006235
11.000000 0.055431
11.050000 0.151356
11.100000 0.288391
11.150000 0.469963
11.200000 0.672091
11.250000 0.853663
11.300000 1.011254
11.350000 1.172271
11.400000 1.319585
11.450000 1.412084
11.500000 1.442917
11.550000 1.460046
11.600000 1.480601
11.650000 1.466898
11.700000 1.425787
11.750000 1.415509
11.800000 1.449769
11.850000 1.460046
11.900000 1.418936
11.950000 1.391529
12.000000 1.388103
12.050000 1.333288
12.100000 1.199679
12.150000 1.042088
12.200000 0.874219
12.250000 0.651536
12.300000 0.353484
12.350000 0.065709
12.400000 -0.194659
12.450000 -0.455027
12.500000 -0.691413
12.550000 -0.859282
12.600000 -0.944929
12.650000 -0.962059
12.700000 -0.914096
12.750000 -0.794190
12.800000 -0.646877
12.850000 -0.485860
12.900000 -0.300861
12.950000 -0.078178
13.000000 0.144504
13.050000 0.332928
13.100000 0.507649
13.150000 0.675517
13.200000 0.829682
13.250000 0.966718
13.300000 1.079772
13.350000 1.161994
13.400000 1.227085
13.450000 1.244215
13.500000 1.179123
13.550000 1.048939
13.600000 0.905052
13.650000 0.750887
13.700000 0.545333
13.750000 0.326076
13.800000 0.147930
13.850000 -0.023365
13.900000 -0.208362
13.950000 -0.352250
14.000000 -0.448175
14.050000 -0.523545
14.100000 -0.581784
14.150000 -0.598913
14.200000 -0.619469
14.250000 -0.653729
14.300000 -0.674283
14.350000 -0.698265
14.400000 -0.725672
14.450000 -0.729097
14.500000 -0.729098
14.550000 -0.742801
14.600000 -0.753079
14.650000 -0.742801
14.700000 -0.722246
14.750000 -0.674283
14.800000 -0.588636
14.850000 -0.492711
14.900000 -0.383083
14.950000 -0.232344
15.000000 -0.071326
15.050000 0.093116
15.100000 0.271262
15.150000 0.415150
15.200000 0.487093
15.250000 0.535056
15.300000 0.579592
15.350000 0.562462
15.400000 0.469964
15.450000 0.391169
15.500000 0.326077
15.550000 0.230151
15.600000 0.127375
15.650000 0.065709
15.700000 0.000617
15.750000 -0.078179
15.800000 -0.122715
15.850000 -0.150122
15.900000 -0.235770
15.950000 -0.341972
16.000000 -0.424194
16.050000 -0.526970
16.100000 -0.670858
16.150000 -0.797615
16.200000 -0.886689
16.250000 -0.979187
16.300000 -1.054557
16.350000 -1.068261
16.400000 -1.064835
16.450000 -1.064835
16.500000 -1.051132
16.550000 -0.999743
16.600000 -0.924373
16.650000 -0.852430
16.700000 -0.797615
16.750000 -0.749653
16.800000 -0.667432
16.850000 -0.568081
16.900000 -0.479008
16.950000 -0.376231
17.000000 -0.228918
17.050000 -0.071327
17.100000 0.093116
17.150000 0.267836
17.200000 0.425428
17.250000 0.555611
17.300000 0.675518
17.350000 0.737183
17.400000 0.709776
17.450000 0.617277
17.500000 0.469964
17.550000 0.260984
17.600000 0.007469
17.650000 -0.249474
17.700000 -0.523544
17.750000 -0.777060
17.800000 -0.968909
17.850000 -1.143631
17.900000 -1.318351
17.950000 -1.431405
18.000000 -1.451960
18.050000 -1.455386
18.100000 -1.438257
18.150000 -1.356035
18.200000 -1.253259
18.250000 -1.205296
18.300000 -1.150482
18.350000 -1.051132
18.400000 -0.948354
18.450000 -0.859281
18.500000 -0.735950
18.550000 -0.595488
18.600000 -0.475581
18.650000 -0.348824
18.700000 -0.208363
18.750000 -0.112437
18.800000 -0.047345
18.850000 0.007468
18.900000 0.017746
18.950000 -0.030216
19.000000 -0.102160
19.050000 -0.198085
19.100000 -0.304287
19.150000 -0.386508
19.200000 -0.437897
19.250000 -0.479008
19.300000 -0.506414
19.350000 -0.489286
19.400000 -0.451601
19.450000 -0.427619
19.500000 -0.407064
19.550000 -0.372805
19.600000 -0.328268
19.650000 -0.314565
19.700000 -0.348823
19.750000 -0.393360
19.800000 -0.444749
19.850000 -0.537248
19.900000 -0.650302
19.950000 -0.735950
20.000000 -0.780486
20.050000 -0.814745
20.100000 -0.835300
20.150000 -0.835300
20.200000 -0.797616
20.250000 -0.715394
20.300000 -0.633173
20.350000 -0.571507
20.400000 -0.499563
20.450000 -0.403638
20.500000 -0.314564
20.550000 -0.239196
20.600000 -0.174104
20.650000 -0.139845
20.700000 -0.136419
20.750000 -0.139845
20.800000 -0.122715
20.850000 -0.109011
20.900000 -0.115863
20.950000 -0.129567
21.000000 -0.132993
21.050000 -0.153548
21.100000 -0.187807
21.150000 -0.228918
21.200000 -0.249473
21.250000 -0.263177
21.300000 -0.300861
21.350000 -0.348824
21.400000 -0.376231
21.450000 -0.396787
21.500000 -0.417342
21.550000 -0.427620
21.600000 -0.424194
21.650000 -0.413915
21.700000 -0.386509
21.750000 -0.328269
21.800000 -0.270028
21.850000 -0.239196
21.900000 -0.228918
21.950000 -0.246047
22.000000 -0.283732
22.050000 -0.338546
22.100000 -0.427619
22.150000 -0.544099
22.200000 -0.660580
22.250000 -0.780486
22.300000 -0.890115
22.350000 -0.968910
22.400000 -1.013447
22.450000 -1.068260
22.500000 -1.109371
22.550000 -1.064834
22.600000 -0.962058
22.650000 -0.869559
22.700000 -0.759930
22.750000 -0.612618
22.800000 -0.489285
22.850000 -0.441323
22.900000 -0.413916
22.950000 -0.393360
23.000000 -0.424194
23.050000 -0.509841
23.100000 -0.605766
23.150000 -0.691413
23.200000 -0.777060
23.250000 -0.866133
23.300000 -0.972336
23.350000 -1.085390
23.400000 -1.164186
23.450000 -1.208722
23.500000 -1.263536
23.550000 -1.311499
23.600000 -1.308073
23.650000 -1.266963
23.700000 -1.236130
23.750000 -1.205296
23.800000 -1.123075
23.850000 -1.010021
23.900000 -0.910670
23.950000 -0.787338
24.000000 -0.585210
24.050000 -0.372806
24.100000 -0.218640
24.150000 -0.088457
24.200000 0.075986
24.250000 0.216448
24.300000 0.302095
24.350000 0.363762
24.400000 0.394594
24.450000 0.363761
24.500000 0.295244
24.550000 0.219874
24.600000 0.106820
24.650000 -0.074752
24.700000 -0.297436
24.750000 -0.523545
24.800000 -0.739375
24.850000 -0.920948
24.900000 -1.085391
24.950000 -1.225852
25.000000 -1.294369
25.050000 -1.266962
25.100000 -1.212149
25.150000 -1.140205
25.200000 -1.010021
25.250000 -0.849004
25.300000 -0.735950
25.350000 -0.653728
25.400000 -0.547526
25.450000 -0.451600
25.500000 -0.431045
25.550000 -0.451601
25.600000 -0.461878
25.650000 -0.489285
25.700000 -0.547525
25.750000 -0.605766
25.800000 -0.653728
25.850000 -0.694838
25.900000 -0.711968
25.950000 -0.691413
26.000000 -0.667432
26.050000 -0.657154
26.100000 -0.622896
26.150000 -0.561229
26.200000 -0.509841
26.250000 -0.468731
26.300000 -0.441323
26.350000 -0.437897
26.400000 -0.441323
26.450000 -0.424193
26.500000 -0.424193
26.550000 -0.451600
26.600000 -0.482434
26.650000 -0.516692
26.700000 -0.581785
26.750000 -0.650302
26.800000 -0.698264
26.850000 -0.763357
26.900000 -0.852429
26.950000 -0.917522
27.000000 -0.938077
27.050000 -0.962059
27.100000 -1.006595
27.150000 -1.037428
27.200000 -1.054558
27.250000 -1.099094
27.300000 -1.171038
27.350000 -1.242981
27.400000 -1.304648
27.450000 -1.362888
27.500000 -1.397146
27.550000 -1.376590
27.600000 -1.277240
27.650000 -1.126501
27.700000 -0.955207
27.750000 -0.763356
27.800000 -0.540673
27.850000 -0.324843
27.900000 -0.150122
27.950000 -0.016512
28.000000 0.065709
28.050000 0.045154
28.100000 -0.088456
28.150000 -0.297436
28.200000 -0.544099
28.250000 -0.814745
28.300000 -1.085390
28.350000 -1.335480
28.400000 -1.551311
28.450000 -1.688347
28.500000 -1.739735
28.550000 -1.722606
28.600000 -1.654088
28.650000 -1.541033
28.700000 -1.400572
28.750000 -1.242981
28.800000 -1.095668
28.850000 -0.975762
28.900000 -0.883263
28.950000 -0.814744
29.000000 -0.763356
29.050000 -0.722246
29.100000 -0.705117
29.150000 -0.694839
29.200000 -0.674283
29.250000 -0.650302
29.300000 -0.616044
29.350000 -0.561229
29.400000 -0.499563
29.450000 -0.455027
29.500000 -0.424194
29.550000 -0.386509
29.600000 -0.386509
29.650000 -0.424194
29.700000 -0.461878
29.750000 -0.496137
29.800000 -0.547526
29.850000 -0.605766
29.900000 -0.664006
29.950000 -0.708542
30.000000 -0.715394
30.050000 -0.698265
30.100000 -0.705117
30.150000 -0.718820
30.200000 -0.701690
30.250000 -0.660580
30.300000 -0.643450
30.350000 -0.664005
30.400000 -0.677709
30.450000 -0.674283
30.500000 -0.667431
30.550000 -0.681135
30.600000 -0.694839
30.650000 -0.684561
30.700000 -0.698264
30.750000 -0.749653
30.800000 -0.787338
30.850000 -0.818171
30.900000 -0.876411
30.950000 -0.934651
31.000000 -0.968910
31.050000 -1.003169
31.100000 -1.034002
31.150000 -1.040853
31.200000 -1.016872
31.250000 -0.962058
31.300000 -0.869559
31.350000 -0.773634
31.400000 -0.664006
31.450000 -0.547526
31.500000 -0.465304
31.550000 -0.424193
31.600000 -0.376231
31.650000 -0.352249
31.700000 -0.417341
31.750000 -0.506414
31.800000 -0.547525
31.850000 -0.598913
31.900000 -0.705116
31.950000 -0.797616
32.000000 -0.872985
32.050000 -0.951781
32.100000 -0.986039
32.150000 -0.975762
32.200000 -0.968910
32.250000 -0.958632
32.300000 -0.907244
32.350000 -0.855856
32.400000 -0.828449
32.450000 -0.811319
32.500000 -0.807893
32.550000 -0.821597
32.600000 -0.831874
32.650000 -0.842152
32.700000 -0.872985
32.750000 -0.907244
32.800000 -0.920947
32.850000 -0.920948
32.900000 -0.917522
32.950000 -0.917521
33.000000 -0.907244
33.050000 -0.869559
33.100000 -0.821597
33.150000 -0.780486
33.200000 -0.763357
33.250000 -0.725672
33.300000 -0.681136
33.350000 -0.670857
33.400000 -0.660579
33.450000 -0.640024
33.500000 -0.650302
33.550000 -0.722246
33.600000 -0.814745
33.650000 -0.903819
33.700000 -1.006595
33.750000 -1.088816
33.800000 -1.147056
33.850000 -1.198445
33.900000 -1.219000
33.950000 -1.174464
34.000000 -1.092242
34.050000 -1.023724
34.100000 -0.958632
34.150000 -0.872985
34.200000 -0.777060
34.250000 -0.718820
34.300000 -0.718820
34.350000 -0.742801
34.400000 -0.780486
34.450000 -0.876411
34.500000 -1.040854
34.550000 -1.195019
34.600000 -1.297796
34.650000 -1.397146
34.700000 -1.493072
34.750000 -1.544460
34.800000 -1.558163
34.850000 -1.534182
34.900000 -1.479368
34.950000 -1.414276
35.000000 -1.332054
35.050000 -1.212148
35.100000 -1.119649
35.150000 -1.075112
35.200000 -1.013447
35.250000 -0.944929
35.300000 -0.927800
35.350000 -0.927799
35.400000 -0.886689
35.450000 -0.838726
35.500000 -0.835300
35.550000 -0.821597
35.600000 -0.790764
35.650000 -0.783912
35.700000 -0.790764
35.750000 -0.787338
35.800000 -0.777060
35.850000 -0.804467
35.900000 -0.862708
35.950000 -0.934651
36.000000 -1.037428
36.050000 -1.188167
36.100000 -1.335480
36.150000 -1.445108
36.200000 -1.510201
36.250000 -1.547885
36.300000 -1.547885
36.350000 -1.513626
36.400000 -1.421128
36.450000 -1.304647
36.500000 -1.205296
36.550000 -1.092242
36.600000 -0.941502
36.650000 -0.804468
36.700000 -0.718820
36.750000 -0.653729
36.800000 -0.609191
36.850000 -0.598914
36.900000 -0.602340
36.950000 -0.640024
37.000000 -0.705116
37.050000 -0.770209
37.100000 -0.825022
37.150000 -0.907244
37.200000 -1.003169
37.250000 -1.075112
37.300000 -1.150482
37.350000 -1.232704
37.400000 -1.260111
37.450000 -1.256684
37.500000 -1.260111
37.550000 -1.232704
37.600000 -1.157334
37.650000 -1.061409
37.700000 -0.958632
37.750000 -0.825022
37.800000 -0.684561
37.850000 -0.564655
37.900000 -0.448174
37.950000 -0.345398
38.000000 -0.287157
38.050000 -0.294010
38.100000 -0.338546
38.150000 -0.413916
38.200000 -0.523544
38.250000 -0.633173
38.300000 -0.739375
38.350000 -0.831874
38.400000 -0.879837
38.450000 -0.876411
38.500000 -0.828448
38.550000 -0.739375
38.600000 -0.581785
38.650000 -0.420767
38.700000 -0.314565
38.750000 -0.242621
38.800000 -0.201510
38.850000 -0.235770
38.900000 -0.345398
38.950000 -0.475582
39.000000 -0.650302
39.050000 -0.893540
39.100000 -1.126501
39.150000 -1.297795
39.200000 -1.421128
39.250000 -1.489645
39.300000 -1.486219
39.350000 -1.417701
39.400000 -1.280666
39.450000 -1.112797
39.500000 -0.968910
39.550000 -0.842152
39.600000 -0.701690
39.650000 -0.612617
39.700000 -0.592062
39.750000 -0.595488
39.800000 -0.619469
39.850000 -0.698265
39.900000 -0.807893
39.950000 -0.920948
40.000000 -1.030576
40.050000 -1.136779
40.100000 -1.229278
40.150000 -1.290943
40.200000 -1.318350
40.250000 -1.328628
40.300000 -1.356035
40.350000 -1.373165
40.400000 -1.328629
40.450000 -1.260111
40.500000 -1.215574
40.550000 -1.164186
40.600000 -1.071686
40.650000 -0.996317
40.700000 -0.962058
40.750000 -0.914095
40.800000 -0.828448
40.850000 -0.773634
40.900000 -0.756504
40.950000 -0.729097
41.000000 -0.718820
41.050000 -0.763356
41.100000 -0.825022
41.150000 -0.866133
41.200000 -0.938077
41.250000 -1.044280
41.300000 -1.123075
41.350000 -1.171038
41.400000 -1.219000
41.450000 -1.249833
41.500000 -1.246407
41.550000 -1.236129
41.600000 -1.205296
41.650000 -1.153908
41.700000 -1.099094
41.750000 -1.057983
41.800000 -1.010020
41.850000 -0.979188
41.900000 -0.986039
41.950000 -1.006595
42.000000 -0.986040
42.050000 -0.944928
42.100000 -0.914096
42.150000 -0.883262
42.200000 -0.818171
42.250000 -0.732524
42.300000 -0.674284
42.350000 -0.612618
42.400000 -0.530396
42.450000 -0.499563
42.500000 -0.533822
42.550000 -0.588636
42.600000 -0.657154
42.650000 -0.790763
42.700000 -0.955207
42.750000 -1.088817
42.800000 -1.225851
42.850000 -1.393720
42.900000 -1.551311
42.950000 -1.667792
43.000000 -1.743161
43.050000 -1.791124
43.100000 -1.815105
43.150000 -1.821956
43.200000 -1.808253
43.250000 -1.760291
43.300000 -1.684921
43.350000 -1.595848
43.400000 -1.469090
43.450000 -1.318351
43.500000 -1.205296
43.550000 -1.123075
43.600000 -1.027150
43.650000 -0.944928
43.700000 -0.914096
43.750000 -0.934651
43.800000 -1.003169
43.850000 -1.109371
43.900000 -1.222426
43.950000 -1.345757
44.000000 -1.493071
44.050000 -1.619829
44.100000 -1.715754
44.150000 -1.794550
44.200000 -1.839086
44.250000 -1.825382
44.300000 -1.787698
44.350000 -1.726031
44.400000 -1.612978
44.450000 -1.472516
44.500000 -1.369740
44.550000 -1.277241
44.600000 -1.167612
44.650000 -1.081964
44.700000 -1.034002
44.750000 -1.013447
44.800000 -1.013446
44.850000 -1.057983
44.900000 -1.143631
44.950000 -1.242981
45.000000 -1.328629
45.050000 -1.414276
45.100000 -1.499923
45.150000 -1.544459
45.200000 -1.537608
45.250000 -1.513627
45.300000 -1.465664
45.350000 -1.366314
45.400000 -1.239555
45.450000 -1.109372
45.500000 -0.975761
45.550000 -0.825023
45.600000 -0.677709
45.650000 -0.571506
45.700000 -0.502989
45.750000 -0.468730
45.800000 -0.448174
45.850000 -0.448175
45.900000 -0.482434
45.950000 -0.550952
46.000000 -0.646877
46.050000 -0.753079
46.100000 -0.883263
46.150000 -0.999743
46.200000 -1.081965
46.250000 -1.153908
46.300000 -1.225852
46.350000 -1.277240
46.400000 -1.280666
46.450000 -1.270389
46.500000 -1.246407
46.550000 -1.198445
46.600000 -1.147056
46.650000 -1.109372
46.700000 -1.064834
46.750000 -1.010020
46.800000 -0.975762
46.850000 -0.962059
46.900000 -0.968910
46.950000 -1.003169
47.000000 -1.040854
47.050000 -1.064835
47.100000 -1.095668
47.150000 -1.133353
47.200000 -1.167612
47.250000 -1.208723
47.300000 -1.229278
47.350000 -1.212148
47.400000 -1.198445
47.450000 -1.212148
47.500000 -1.229278
47.550000 -1.236129
47.600000 -1.246407
47.650000 -1.260111
47.700000 -1.284092
47.750000 -1.335480
47.800000 -1.376591
47.850000 -1.366313
47.900000 -1.332054
47.950000 -1.277240
48.000000 -1.212148
48.050000 -1.153908
48.100000 -1.099093
48.150000 -1.016873
48.200000 -0.938077
48.250000 -0.914095
48.300000 -0.917521
48.350000 -0.914096
48.400000 -0.934651
48.450000 -0.999743
48.500000 -1.105945
48.550000 -1.208722
48.600000 -1.263537
48.650000 -1.280666
48.700000 -1.308073
48.750000 -1.311499
48.800000 -1.249833
48.850000 -1.164186
48.900000 -1.081964
48.950000 -0.979187
49.000000 -0.862707
49.050000 -0.783912
49.100000 -0.746227
49.150000 -0.725672
49.200000 -0.701690
49.250000 -0.725672
49.300000 -0.807893
49.350000 -0.886688
49.400000 -0.920948
49.450000 -0.951781
49.500000 -1.010020
49.550000 -1.040854
49.600000 -1.020298
49.650000 -0.989465
49.700000 -0.962058
49.750000 -0.917521
49.800000 -0.869559
49.850000 -0.842152
49.900000 -0.845578
49.950000 -0.855855
50.000000 -0.876411
50.050000 -0.931225
50.100000 -1.020299
50.150000 -1.140204
50.200000 -1.266963
50.250000 -1.376591
50.300000 -1.493072
50.350000 -1.619829
50.400000 -1.726031
50.450000 -1.777420
50.500000 -1.780846
50.550000 -1.750013
50.600000 -1.657514
50.650000 -1.506775
50.700000 -1.352610
50.750000 -1.188167
50.800000 -1.006595
50.850000 -0.845578
50.900000 -0.739375
50.950000 -0.664005
51.000000 -0.609191
51.050000 -0.616044
51.100000 -0.684561
51.150000 -0.773635
51.200000 -0.883262
51.250000 -1.010020
51.300000 -1.157334
51.350000 -1.290944
51.400000 -1.400572
51.450000 -1.486220
51.500000 -1.551311
51.550000 -1.568440
51.600000 -1.547885
51.650000 -1.510201
51.700000 -1.455386
51.750000 -1.369739
51.800000 -1.273814
51.850000 -1.201871
51.900000 -1.150482
51.950000 -1.112797
52.000000 -1.109372
52.050000 -1.129927
52.100000 -1.184741
52.150000 -1.273814
52.200000 -1.359461
52.250000 -1.434831
52.300000 -1.510200
52.350000 -1.578718
52.400000 -1.602700
52.450000 -1.612978
52.500000 -1.623255
52.550000 -1.606125
52.600000 -1.547885
52.650000 -1.499923
52.700000 -1.475942
52.750000 -1.451961
52.800000 -1.427979
52.850000 -1.417701
52.900000 -1.403998
52.950000 -1.410850
53.000000 -1.431405
53.050000 -1.455387
53.100000 -1.479367
53.150000 -1.506774
53.200000 -1.510201
53.250000 -1.489645
53.300000 -1.486219
53.350000 -1.479367
53.400000 -1.424553
53.450000 -1.383442
53.500000 -1.383443
53.550000 -1.373165
53.600000 -1.338906
53.650000 -1.335480
53.700000 -1.369739
53.750000 -1.397146
53.800000 -1.414275
53.850000 -1.441683
53.900000 -1.482794
53.950000 -1.506775
54.000000 -1.493071
54.050000 -1.465664
54.100000 -1.462238
54.150000 -1.462238
54.200000 -1.421128
54.250000 -1.380017
54.300000 -1.380017
54.350000 -1.390294
54.400000 -1.393720
54.450000 -1.438257
54.500000 -1.506775
54.550000 -1.523905
54.600000 -1.520478
54.650000 -1.547886
54.700000 -1.547885
54.750000 -1.486219
54.800000 -1.403998
54.850000 -1.318351
54.900000 -1.191593
54.950000 -1.054557
55.000000 -0.944929
55.050000 -0.852430
55.100000 -0.783912
55.150000 -0.759930
55.200000 -0.790764
55.250000 -0.855855
55.300000 -0.951781
55.350000 -1.078538
55.400000 -1.215574
55.450000 -1.345758
55.500000 -1.451960
55.550000 -1.523904
55.600000 -1.558164
55.650000 -1.565015
55.700000 -1.554737
55.750000 -1.513626
55.800000 -1.414276
55.850000 -1.308073
55.900000 -1.256685
55.950000 -1.205297
56.000000 -1.126500
56.050000 -1.081964
56.100000 -1.112797
56.150000 -1.181315
56.200000 -1.246407
56.250000 -1.338906
56.300000 -1.458813
56.350000 -1.575292
56.400000 -1.650662
56.450000 -1.671218
56.500000 -1.678069
56.550000 -1.671218
56.600000 -1.630107
56.650000 -1.565015
56.700000 -1.513627
56.750000 -1.458812
56.800000 -1.390294
56.850000 -1.338907
56.900000 -1.332054
56.950000 -1.328628
57.000000 -1.342332
57.050000 -1.397147
57.100000 -1.458812
57.150000 -1.489645
57.200000 -1.534182
57.250000 -1.592422
57.300000 -1.626681
57.350000 -1.640384
57.400000 -1.660940
57.450000 -1.671218
57.500000 -1.671218
57.550000 -1.674643
57.600000 -1.667792
57.650000 -1.660940
57.700000 -1.678069
57.750000 -1.688347
57.800000 -1.654088
57.850000 -1.630107
57.900000 -1.636959
57.950000 -1.606126
58.000000 -1.520478
58.050000 -1.438257
58.100000 -1.373165
58.150000 -1.311499
58.200000 -1.270389
58.250000 -1.260111
58.300000 -1.273814
58.350000 -1.318350
58.400000 -1.386868
58.450000 -1.462238
58.500000 -1.537608
58.550000 -1.619829
58.600000 -1.691773
58.650000 -1.726032
58.700000 -1.722606
58.750000 -1.688347
58.800000 -1.654088
58.850000 -1.626681
58.900000 -1.565015
58.950000 -1.475942
59.000000 -1.407424
59.050000 -1.380017
59.100000 -1.383443
59.150000 -1.421128
59.200000 -1.472516
59.250000 -1.537608
59.300000 -1.616403
59.350000 -1.678070
59.400000 -1.681495
59.450000 -1.654088
59.500000 -1.626681
59.550000 -1.568441
59.600000 -1.455387
59.650000 -1.349184
59.700000 -1.249833
59.750000 -1.140204
59.800000 -1.047706
59.850000 -1.023724
59.900000 -1.030576
59.950000 -1.030576
60.000000 -1.051131
60.050000 -1.123075
60.100000 -1.201870
60.150000 -1.273814
60.200000 -1.373165
60.250000 -1.489645
60.300000 -1.585571
60.350000 -1.654088
60.400000 -1.695199
60.450000 -1.719180
60.500000 -1.753439
60.550000 -1.777420
60.600000 -1.753439
60.650000 -1.678070
60.700000 -1.595848
60.750000 -1.517053
60.800000 -1.403998
60.850000 -1.284092
60.900000 -1.195019
60.950000 -1.143630
61.000000 -1.119649
61.050000 -1.147056
61.100000 -1.229278
61.150000 -1.342332
61.200000 -1.469090
61.250000 -1.585570
61.300000 -1.681495
61.350000 -1.736310
61.400000 -1.729458
61.450000 -1.715754
61.500000 -1.698625
61.550000 -1.650662
61.600000 -1.561589
61.650000 -1.513626
61.700000 -1.496497
61.750000 -1.458812
61.800000 -1.427980
61.850000 -1.458812
61.900000 -1.513626
61.950000 -1.523904
62.000000 -1.513626
62.050000 -1.520478
62.100000 -1.506775
62.150000 -1.441683
62.200000 -1.366313
62.250000 -1.328629
62.300000 -1.318351
62.350000 -1.301222
62.400000 -1.304648
62.450000 -1.366313
62.500000 -1.451961
62.550000 -1.537607
62.600000 -1.657514
62.650000 -1.808253
62.700000 -1.914455
62.750000 -1.972696
62.800000 -2.020658
62.850000 -2.030936
62.900000 -2.000103
62.950000 -1.952140
63.000000 -1.887049
63.050000 -1.777420
63.100000 -1.660939
63.150000 -1.582145
63.200000 -1.493071
63.250000 -1.400572
63.300000 -1.345758
63.350000 -1.301221
63.400000 -1.219000
63.450000 -1.160760
63.500000 -1.160759
63.550000 -1.136778
63.600000 -1.088816
63.650000 -1.075113
63.700000 -1.078539
63.750000 -1.071686
63.800000 -1.085390
63.850000 -1.109372
63.900000 -1.129927
63.950000 -1.181315
64.000000 -1.253258
64.050000 -1.308073
64.100000 -1.369739
64.150000 -1.469090
64.200000 -1.541034
64.250000 -1.588996
64.300000 -1.640385
64.350000 -1.654088
64.400000 -1.612978
64.450000 -1.599273
64.500000 -1.616403
64.550000 -1.571867
64.600000 -1.496497
64.650000 -1.472516
64.700000 -1.455387
64.750000 -1.417701
64.800000 -1.403998
64.850000 -1.424553
64.900000 -1.431406
64.950000 -1.431405
65.000000 -1.431405
65.050000 -1.421128
65.100000 -1.407424
65.150000 -1.400572
65.200000 -1.380017
65.250000 -1.356035
65.300000 -1.356036
65.350000 -1.356036
65.400000 -1.356036
65.450000 -1.383443
65.500000 -1.438257
65.550000 -1.493071
65.600000 -1.527330
65.650000 -1.565015
65.700000 -1.602699
65.750000 -1.636959
65.800000 -1.640385
65.850000 -1.619829
65.900000 -1.612978
65.950000 -1.602699
66.000000 -1.582145
66.050000 -1.571867
66.100000 -1.592422
66.150000 -1.619829
66.200000 -1.660940
66.250000 -1.732884
66.300000 -1.804827
66.350000 -1.825382
66.400000 -1.801401
66.450000 -1.750013
66.500000 -1.678070
66.550000 -1.554738
66.600000 -1.390295
66.650000 -1.229278
66.700000 -1.095668
66.750000 -0.962059
66.800000 -0.862708
66.850000 -0.821596
66.900000 -0.838726
66.950000 -0.907244
67.000000 -1.051131
67.050000 -1.263537
67.100000 -1.510200
67.150000 -1.750013
67.200000 -1.965844
67.250000 -2.137139
67.300000 -2.270748
67.350000 -2.352969
67.400000 -2.370099
67.450000 -2.305008
67.500000 -2.185101
67.550000 -2.030935
67.600000 -1.856216
67.650000 -1.674644
67.700000 -1.510201
67.750000 -1.373165
67.800000 -1.260111
67.850000 -1.198444
67.900000 -1.205296
67.950000 -1.253259
68.000000 -1.308074
68.050000 -1.356035
68.100000 -1.427979
68.150000 -1.482793
68.200000 -1.489645
68.250000 -1.482794
68.300000 -1.499923
68.350000 -1.506775
68.400000 -1.472516
68.450000 -1.441682
68.500000 -1.424554
68.550000 -1.376591
68.600000 -1.338906
68.650000 -1.352610
68.700000 -1.390295
68.750000 -1.386869
68.800000 -1.386869
68.850000 -1.407423
68.900000 -1.390294
68.950000 -1.318351
69.000000 -1.246407
69.050000 -1.160759
69.100000 -1.023724
69.150000 -0.862708
69.200000 -0.749653
69.250000 -0.670858
69.300000 -0.602339
69.350000 -0.585210
69.400000 -0.650302
69.450000 -0.770208
69.500000 -0.910670
69.550000 -1.061409
69.600000 -1.212149
69.650000 -1.352610
69.700000 -1.455386
69.750000 -1.479368
69.800000 -1.448534
69.850000 -1.397146
69.900000 -1.294369
69.950000 -1.143630
70.000000 -1.013446
70.050000 -0.944929
70.100000 -0.907244
70.150000 -0.903818
70.200000 -0.955206
70.250000 -1.068261
70.300000 -1.232704
70.350000 -1.421128
70.400000 -1.571867
70.450000 -1.684921
70.500000 -1.804827
70.550000 -1.890475
70.600000 -1.876771
70.650000 -1.818531
70.700000 -1.770569
70.750000 -1.691773
70.800000 -1.582144
70.850000 -1.472516
70.900000 -1.390294
70.950000 -1.308073
71.000000 -1.239555
71.050000 -1.195019
71.100000 -1.171037
71.150000 -1.157334
71.200000 -1.150482
71.250000 -1.147057
71.300000 -1.129927
71.350000 -1.092242
71.400000 -1.034002
71.450000 -0.975762
71.500000 -0.910670
71.550000 -0.835300
71.600000 -0.766782
71.650000 -0.725672
71.700000 -0.701691
71.750000 -0.667431
71.800000 -0.657154
71.850000 -0.687987
71.900000 -0.729098
71.950000 -0.773634
72.000000 -0.845578
72.050000 -0.934651
72.100000 -1.010021
72.150000 -1.085390
72.200000 -1.153908
72.250000 -1.215574
72.300000 -1.273815
72.350000 -1.328629
72.400000 -1.345758
72.450000 -1.349184
72.500000 -1.335480
72.550000 -1.284092
72.600000 -1.212148
72.650000 -1.171037
72.700000 -1.136779
72.750000 -1.071687
72.800000 -1.037427
72.850000 -1.057984
72.900000 -1.088816
72.950000 -1.133353
73.000000 -1.215574
73.050000 -1.284092
73.100000 -1.342332
73.150000 -1.434831
73.200000 -1.530756
73.250000 -1.582145
73.300000 -1.630107
73.350000 -1.667791
73.400000 -1.647236
73.450000 -1.602700
73.500000 -1.551311
73.550000 -1.472515
73.600000 -1.390294
73.650000 -1.338907
73.700000 -1.280666
73.750000 -1.195018
73.800000 -1.133353
73.850000 -1.116223
73.900000 -1.095668
73.950000 -1.061409
74.000000 -1.034001
74.050000 -1.027150
74.100000 -1.027150
74.150000 -1.040854
74.200000 -1.081965
74.250000 -1.105945
74.300000 -1.102520
74.350000 -1.112798
74.400000 -1.143631
74.450000 -1.164186
74.500000 -1.157334
74.550000 -1.136779
74.600000 -1.116223
74.650000 -1.105946
74.700000 -1.099094
74.750000 -1.102519
74.800000 -1.140205
74.850000 -1.219000
74.900000 -1.301222
74.950000 -1.366313
75.000000 -1.445109
75.050000 -1.544460
75.100000 -1.636959
75.150000 -1.702050
75.200000 -1.729457
75.250000 -1.715754
75.300000 -1.667792
75.350000 -1.588996
75.400000 -1.486219
75.450000 -1.369739
75.500000 -1.260111
75.550000 -1.171038
75.600000 -1.123075
75.650000 -1.109371
75.700000 -1.133352
75.750000 -1.195019
75.800000 -1.270388
75.850000 -1.342332
75.900000 -1.414276
75.950000 -1.455386
76.000000 -1.427980
76.050000 -1.386869
76.100000 -1.386868
76.150000 -1.345758
76.200000 -1.219000
76.250000 -1.088816
76.300000 -1.003169
76.350000 -0.927799
76.400000 -0.883262
76.450000 -0.886688
76.500000 -0.907244
76.550000 -0.938077
76.600000 -1.003169
76.650000 -1.092242
76.700000 -1.174463
76.750000 -1.236130
76.800000 -1.270388
76.850000 -1.290943
76.900000 -1.308073
76.950000 -1.308073
77.000000 -1.256685
77.050000 -1.164185
77.100000 -1.071686
77.150000 -0.986039
77.200000 -0.893541
77.250000 -0.777060
77.300000 -0.664006
77.350000 -0.588636
77.400000 -0.516692
77.450000 -0.451601
77.500000 -0.434471
77.550000 -0.475582
77.600000 -0.523545
77.650000 -0.605766
77.700000 -0.759930
77.750000 -0.934651
77.800000 -1.061409
77.850000 -1.188167
77.900000 -1.335480
77.950000 -1.417701
78.000000 -1.407424
78.050000 -1.393721
78.100000 -1.393720
78.150000 -1.356036
78.200000 -1.273815
78.250000 -1.201871
78.300000 -1.164186
78.350000 -1.157334
78.400000 -1.157334
78.450000 -1.195018
78.500000 -1.284092
78.550000 -1.400572
78.600000 -1.482793
78.650000 -1.551311
78.700000 -1.643811
78.750000 -1.698624
78.800000 -1.643810
78.850000 -1.547885
78.900000 -1.469090
78.950000 -1.342332
79.000000 -1.167611
79.050000 -1.044279
79.100000 -0.975762
79.150000 -0.907244
79.200000 -0.876411
79.250000 -0.931225
79.300000 -1.030576
79.350000 -1.133353
79.400000 -1.242981
79.450000 -1.366313
79.500000 -1.503349
79.550000 -1.609552
79.600000 -1.633533
79.650000 -1.630107
79.700000 -1.647236
79.750000 -1.616403
79.800000 -1.530756
79.850000 -1.455386
79.900000 -1.400572
79.950000 -1.335481
80.000000 -1.304647
80.050000 -1.308073
80.100000 -1.284091
80.150000 -1.239555
80.200000 -1.232703
80.250000 -1.236129
80.300000 -1.201870
80.350000 -1.157334
80.400000 -1.099093
80.450000 -1.020298
80.500000 -0.924374
80.550000 -0.849004
80.600000 -0.801042
80.650000 -0.773634
80.700000 -0.756505
80.750000 -0.753079
80.800000 -0.763356
80.850000 -0.770208
80.900000 -0.759930
80.950000 -0.746227
81.000000 -0.759930
81.050000 -0.773634
81.100000 -0.783912
81.150000 -0.794190
81.200000 -0.807893
81.250000 -0.835301
81.300000 -0.886689
81.350000 -0.948354
81.400000 -1.010021
81.450000 -1.064835
81.500000 -1.116223
81.550000 -1.150482
81.600000 -1.150482
81.650000 -1.147056
81.700000 -1.153908
81.750000 -1.119649
81.800000 -1.051132
81.850000 -0.975762
81.900000 -0.903818
81.950000 -0.825023
82.000000 -0.766783
82.050000 -0.722246
82.100000 -0.674284
82.150000 -0.640025
82.200000 -0.643450
82.250000 -0.657154
82.300000 -0.670857
82.350000 -0.684561
82.400000 -0.670858
82.450000 -0.629747
82.500000 -0.636599
82.550000 -0.711968
82.600000 -0.797616
82.650000 -0.893540
82.700000 -1.037428
82.750000 -1.191593
82.800000 -1.325203
82.850000 -1.465664
82.900000 -1.612978
82.950000 -1.698624
83.000000 -1.719180
83.050000 -1.708902
83.100000 -1.654088
83.150000 -1.517052
83.200000 -1.325203
83.250000 -1.133352
83.300000 -0.938077
83.350000 -0.746228
83.400000 -0.595488
83.450000 -0.520118
83.500000 -0.489285
83.550000 -0.499563
83.600000 -0.568081
83.650000 -0.715394
83.700000 -0.907243
83.750000 -1.109371
83.800000 -1.308073
83.850000 -1.510201
83.900000 -1.698624
83.950000 -1.842512
84.000000 -1.948714
84.050000 -2.044639
84.100000 -2.113157
84.150000 -2.120009
84.200000 -2.068621
84.250000 -1.996677
84.300000 -1.897326
84.350000 -1.780846
84.400000 -1.650662
84.450000 -1.517052
84.500000 -1.393720
84.550000 -1.290944
84.600000 -1.198445
84.650000 -1.129927
84.700000 -1.119649
84.750000 -1.140205
84.800000 -1.171038
84.850000 -1.232703
84.900000 -1.311499
84.950000 -1.356036
85.000000 -1.369739
85.050000 -1.376591
85.100000 -1.362887
85.150000 -1.311499
85.200000 -1.239556
85.250000 -1.164186
85.300000 -1.075112
85.350000 -1.003169
85.400000 -0.948355
85.450000 -0.903818
85.500000 -0.866134
85.550000 -0.869559
85.600000 -0.903818
85.650000 -0.941503
85.700000 -0.979187
85.750000 -1.023724
85.800000 -1.085390
85.850000 -1.177889
85.900000 -1.270388
85.950000 -1.352610
86.000000 -1.424553
86.050000 -1.479367
86.100000 -1.534182
86.150000 -1.578719
86.200000 -1.612977
86.250000 -1.626681
86.300000 -1.623255
86.350000 -1.606125
86.400000 -1.558163
86.450000 -1.506775
86.500000 -1.465664
86.550000 -1.417702
86.600000 -1.366313
86.650000 -1.318351
86.700000 -1.284092
86.750000 -1.260111
86.800000 -1.249833
86.850000 -1.260111
86.900000 -1.304647
86.950000 -1.383443
87.000000 -1.475942
87.050000 -1.568441
87.100000 -1.678069
87.150000 -1.760290
87.200000 -1.791124
87.250000 -1.784271
87.300000 -1.773994
87.350000 -1.736309
87.400000 -1.630107
87.450000 -1.499923
87.500000 -1.373165
87.550000 -1.232703
87.600000 -1.092242
87.650000 -1.010021
87.700000 -0.979188
87.750000 -0.962059
87.800000 -0.955206
87.850000 -0.972336
87.900000 -1.013447
87.950000 -1.054557
88.000000 -1.092242
88.050000 -1.157334
88.100000 -1.253259
88.150000 -1.356036
88.200000 -1.421128
88.250000 -1.475942
88.300000 -1.541033
88.350000 -1.595847
88.400000 -1.640385
88.450000 -1.684921
88.500000 -1.729457
88.550000 -1.732884
88.600000 -1.712328
88.650000 -1.681496
88.700000 -1.626681
88.750000 -1.530756
88.800000 -1.414276
88.850000 -1.294369
88.900000 -1.184741
88.950000 -1.112797
89.000000 -1.081965
89.050000 -1.057983
89.100000 -1.044280
89.150000 -1.078539
89.200000 -1.164186
89.250000 -1.253259
89.300000 -1.332054
89.350000 -1.407423
89.400000 -1.445109
89.450000 -1.448534
89.500000 -1.438257
89.550000 -1.393720
89.600000 -1.287518
89.650000 -1.167612
89.700000 -1.071687
89.750000 -0.975762
89.800000 -0.883263
89.850000 -0.849004
89.900000 -0.876411
89.950000 -0.914096
90.000000 -0.975761
90.050000 -1.071687
90.100000 -1.188167
90.150000 -1.284092
90.200000 -1.352610
90.250000 -1.417702
90.300000 -1.475942
90.350000 -1.486219
90.400000 -1.434831
90.450000 -1.359462
90.500000 -1.318351
90.550000 -1.287518
90.600000 -1.242981
90.650000 -1.212148
90.700000 -1.222426
90.750000 -1.242981
90.800000 -1.246407
90.850000 -1.242981
90.900000 -1.256684
90.950000 -1.253259
91.000000 -1.219000
91.050000 -1.188166
91.100000 -1.191593
91.150000 -1.191593
91.200000 -1.181316
91.250000 -1.219000
91.300000 -1.311499
91.350000 -1.407424
91.400000 -1.493072
91.450000 -1.599274
91.500000 -1.698625
91.550000 -1.777420
91.600000 -1.828808
91.650000 -1.842512
91.700000 -1.808253
91.750000 -1.708903
91.800000 -1.547886
91.850000 -1.359462
91.900000 -1.184741
91.950000 -1.003169
92.000000 -0.828448
92.050000 -0.708542
92.100000 -0.636598
92.150000 -0.568081
92.200000 -0.544099
92.250000 -0.605765
92.300000 -0.711969
92.350000 -0.807893
92.400000 -0.896966
92.450000 -0.982614
92.500000 -1.057983
92.550000 -1.099094
92.600000 -1.081964
92.650000 -1.047705
92.700000 -1.040854
92.750000 -0.999743
92.800000 -0.914096
92.850000 -0.866133
92.900000 -0.879836
92.950000 -0.883263
93.000000 -0.876411
93.050000 -0.907243
93.100000 -0.951781
93.150000 -0.996317
93.200000 -1.064835
93.250000 -1.143631
93.300000 -1.208722
93.350000 -1.253258
93.400000 -1.256684
93.450000 -1.242982
93.500000 -1.253259
93.550000 -1.260110
93.600000 -1.205296
93.650000 -1.167612
93.700000 -1.188167
93.750000 -1.181315
93.800000 -1.136778
93.850000 -1.136778
93.900000 -1.171038
93.950000 -1.167612
94.000000 -1.164185
94.050000 -1.219000
94.100000 -1.260111
94.150000 -1.239555
94.200000 -1.225851
94.250000 -1.260111
94.300000 -1.284092
94.350000 -1.260110
94.400000 -1.225852
94.450000 -1.195019
94.500000 -1.150482
94.550000 -1.081964
94.600000 -0.986039
94.650000 -0.872985
94.700000 -0.763357
94.750000 -0.629746
94.800000 -0.489286
94.850000 -0.396786
94.900000 -0.355676
94.950000 -0.324843
95.000000 -0.321416
95.050000 -0.372805
95.100000 -0.455026
95.150000 -0.550951
95.200000 -0.681135
95.250000 -0.814745
95.300000 -0.948355
95.350000 -1.081964
95.400000 -1.184741
95.450000 -1.260111
95.500000 -1.345758
95.550000 -1.400572
95.600000 -1.397147
95.650000 -1.397146
95.700000 -1.400572
95.750000 -1.376590
95.800000 -1.342332
95.850000 -1.332055
95.900000 -1.308073
95.950000 -1.263537
96.000000 -1.229277
96.050000 -1.177889
96.100000 -1.129927
96.150000 -1.126501
96.200000 -1.126501
96.250000 -1.095668
96.300000 -1.099094
96.350000 -1.140205
96.400000 -1.150482
96.450000 -1.171037
96.500000 -1.242981
96.550000 -1.280666
96.600000 -1.260111
96.650000 -1.246407
96.700000 -1.225852
96.750000 -1.174463
96.800000 -1.133353
96.850000 -1.105945
96.900000 -1.044280
96.950000 -0.955206
97.000000 -0.890115
97.050000 -0.842152
97.100000 -0.804467
97.150000 -0.763356
97.200000 -0.725672
97.250000 -0.711968
97.300000 -0.718820
97.350000 -0.705117
97.400000 -0.677710
97.450000 -0.684561
97.500000 -0.708542
97.550000 -0.715394
97.600000 -0.732523
97.650000 -0.790764
97.700000 -0.845578
97.750000 -0.876411
97.800000 -0.920948
97.850000 -0.996317
97.900000 -1.047706
97.950000 -1.078538
98.000000 -1.109371
98.050000 -1.116223
98.100000 -1.112797
98.150000 -1.116223
98.200000 -1.126501
98.250000 -1.116223
98.300000 -1.119649
98.350000 -1.129927
98.400000 -1.143631
98.450000 -1.160760
98.500000 -1.198444
98.550000 -1.229278
98.600000 -1.239556
98.650000 -1.253259
98.700000 -1.270388
98.750000 -1.277240
98.800000 -1.253259
98.850000 -1.212149
98.900000 -1.188167
98.950000 -1.195019
99.000000 -1.188167
99.050000 -1.157334
99.100000 -1.157334
99.150000 -1.177889
99.200000 -1.157334
99.250000 -1.123075
99.300000 -1.112797
99.350000 -1.092242
99.400000 -1.047705
99.450000 -1.016873
99.500000 -0.996317
99.550000 -0.958633
99.600000 -0.920948
99.650000 -0.896966
99.700000 -0.900392
99.750000 -0.910669
99.800000 -0.914096
99.850000 -0.914096
99.900000 -0.944929
99.950000 -0.989465
100.000000 -1.006595
100.050000 -1.023724
100.100000 -1.078538
100.150000 -1.129927
100.200000 -1.129926
100.250000 -1.123075
100.300000 -1.140204
100.350000 -1.136778
100.400000 -1.088816
100.450000 -1.057983
100.500000 -1.034002
100.550000 -0.972335
100.600000 -0.890115
100.650000 -0.835300
100.700000 -0.804468
100.750000 -0.777061
100.800000 -0.753079
100.850000 -0.735949
100.900000 -0.753079
100.950000 -0.814745
101.000000 -0.862708
101.050000 -0.883262
101.100000 -0.914095
101.150000 -0.951781
101.200000 -0.972335
101.250000 -0.999743
101.300000 -1.040853
101.350000 -1.047705
101.400000 -1.047705
101.450000 -1.075112
101.500000 -1.116223
101.550000 -1.143631
101.600000 -1.188167
101.650000 -1.256685
101.700000 -1.311499
101.750000 -1.362887
101.800000 -1.414276
101.850000 -1.438257
101.900000 -1.421127
101.950000 -1.397146
102.000000 -1.376591
102.050000 -1.335481
102.100000 -1.273814
102.150000 -1.198445
102.200000 -1.112797
102.250000 -1.054557
102.300000 -1.027150
102.350000 -0.986040
102.400000 -0.944929
102.450000 -0.965484
102.500000 -1.040854
102.550000 -1.095668
102.600000 -1.157333
102.650000 -1.280666
102.700000 -1.427980
102.750000 -1.530756
102.800000 -1.609551
102.850000 -1.671218
102.900000 -1.726031
102.950000 -1.767142
103.000000 -1.773994
103.050000 -1.746587
103.100000 -1.719180
103.150000 -1.695198
103.200000 -1.630107
103.250000 -1.558163
103.300000 -1.513626
103.350000 -1.465664
103.400000 -1.400572
103.450000 -1.373165
103.500000 -1.366313
103.550000 -1.335481
103.600000 -1.321777
103.650000 -1.352610
103.700000 -1.376591
103.750000 -1.362887
103.800000 -1.362887
103.850000 -1.376591
103.900000 -1.383443
103.950000 -1.386869
104.000000 -1.390295
104.050000 -1.407423
104.100000 -1.434831
104.150000 -1.455386
104.200000 -1.455387
104.250000 -1.469090
104.300000 -1.503349
104.350000 -1.513626
104.400000 -1.499923
104.450000 -1.482794
104.500000 -1.462238
104.550000 -1.414276
104.600000 -1.359461
104.650000 -1.297796
104.700000 -1.208722
104.750000 -1.109372
104.800000 -1.016872
104.850000 -0.955207
104.900000 -0.917522
104.950000 -0.890114
105.000000 -0.869559
105.050000 -0.883263
105.100000 -0.944929
105.150000 -1.020299
105.200000 -1.075112
105.250000 -1.150482
105.300000 -1.239555
105.350000 -1.318351
105.400000 -1.356036
105.450000 -1.373165
105.500000 -1.369739
105.550000 -1.332054
105.600000 -1.260110
105.650000 -1.171038
105.700000 -1.085390
105.750000 -0.992891
105.800000 -0.893540
105.850000 -0.783912
105.900000 -0.698265
105.950000 -0.640024
106.000000 -0.598914
106.050000 -0.595488
106.100000 -0.636599
106.150000 -0.694839
106.200000 -0.763357
106.250000 -0.876411
106.300000 -1.020299
106.350000 -1.147057
106.400000 -1.260111
106.450000 -1.366314
106.500000 -1.472516
106.550000 -1.547885
106.600000 -1.592422
106.650000 -1.633532
106.700000 -1.688347
106.750000 -1.719180
106.800000 -1.698624
106.850000 -1.667791
106.900000 -1.657514
106.950000 -1.612977
107.000000 -1.520479
107.050000 -1.427979
107.100000 -1.359462
107.150000 -1.253259
107.200000 -1.129927
107.250000 -1.051131
107.300000 -1.006594
107.350000 -0.975762
107.400000 -0.996317
107.450000 -1.078538
107.500000 -1.171037
107.550000 -1.280666
107.600000 -1.421128
107.650000 -1.561589
107.700000 -1.671218
107.750000 -1.777420
107.800000 -1.845938
107.850000 -1.852789
107.900000 -1.821956
107.950000 -1.760291
108.000000 -1.678069
108.050000 -1.599274
108.100000 -1.520479
108.150000 -1.414276
108.200000 -1.304647
108.250000 -1.260111
108.300000 -1.256685
108.350000 -1.242981
108.400000 -1.239556
108.450000 -1.273814
108.500000 -1.314924
108.550000 -1.332054
108.600000 -1.332054
108.650000 -1.332055
108.700000 -1.359462
108.750000 -1.393720
108.800000 -1.397146
108.850000 -1.380017
108.900000 -1.366313
108.950000 -1.349184
109.000000 -1.321776
109.050000 -1.332055
109.100000 -1.356036
109.150000 -1.345758
109.200000 -1.308073
109.250000 -1.308073
109.300000 -1.342332
109.350000 -1.386868
109.400000 -1.421127
109.450000 -1.441683
109.500000 -1.451960
109.550000 -1.458813
109.600000 -1.441683
109.650000 -1.393720
109.700000 -1.328629
109.750000 -1.239555
109.800000 -1.143630
109.850000 -1.075113
109.900000 -1.030576
109.950000 -0.975762
110.000000 -0.924374
110.050000 -0.931225
110.100000 -0.989465
110.150000 -1.057983
110.200000 -1.143630
110.250000 -1.249833
110.300000 -1.380016
110.350000 -1.496497
110.400000 -1.578718
110.450000 -1.630107
110.500000 -1.671217
110.550000 -1.681495
110.600000 -1.636959
110.650000 -1.582144
110.700000 -1.561589
110.750000 -1.537607
110.800000 -1.475941
110.850000 -1.417702
110.900000 -1.400572
110.950000 -1.386869
111.000000 -1.362887
111.050000 -1.349184
111.100000 -1.328628
111.150000 -1.287518
111.200000 -1.239555
111.250000 -1.184741
111.300000 -1.123075
111.350000 -1.057983
111.400000 -0.989465
111.450000 -0.931225
111.500000 -0.903818
111.550000 -0.903818
111.600000 -0.910670
111.650000 -0.958632
111.700000 -1.057984
111.750000 -1.157334
111.800000 -1.253259
111.850000 -1.383443
111.900000 -1.513626
111.950000 -1.578718
112.000000 -1.606125
112.050000 -1.626681
112.100000 -1.616403
112.150000 -1.547885
112.200000 -1.445109
112.250000 -1.338906
112.300000 -1.219000
112.350000 -1.075112
112.400000 -0.951781
112.450000 -0.872985
112.500000 -0.825023
112.550000 -0.787338
112.600000 -0.790763
112.650000 -0.855856
112.700000 -0.931226
112.750000 -0.999743
112.800000 -1.081965
112.850000 -1.157334
112.900000 -1.191593
112.950000 -1.201871
113.000000 -1.205296
113.050000 -1.160760
113.100000 -1.102519
113.150000 -1.040853
113.200000 -0.941503
113.250000 -0.814745
113.300000 -0.729098
113.350000 -0.650302
113.400000 -0.547525
113.450000 -0.492712
113.500000 -0.499563
113.550000 -0.492711
113.600000 -0.475582
113.650000 -0.513267
113.700000 -0.598914
113.750000 -0.687987
113.800000 -0.797615
113.850000 -0.934651
113.900000 -1.068261
113.950000 -1.181315
114.000000 -1.290943
114.050000 -1.380016
114.100000 -1.445109
114.150000 -1.458812
114.200000 -1.434831
114.250000 -1.410850
114.300000 -1.390294
114.350000 -1.332055
114.400000 -1.242981
114.450000 -1.171038
114.500000 -1.143630
114.550000 -1.167612
114.600000 -1.229278
114.650000 -1.304648
114.700000 -1.390294
114.750000 -1.517052
114.800000 -1.647237
114.850000 -1.732883
114.900000 -1.804827
114.950000 -1.900752
115.000000 -1.969270
115.050000 -1.976122
115.100000 -1.955566
115.150000 -1.893900
115.200000 -1.791123
115.250000 -1.678069
115.300000 -1.571867
115.350000 -1.455386
115.400000 -1.342332
115.450000 -1.277240
115.500000 -1.219000
115.550000 -1.153908
115.600000 -1.116223
115.650000 -1.136779
115.700000 -1.171037
115.750000 -1.188167
115.800000 -1.212148
115.850000 -1.249833
115.900000 -1.280666
115.950000 -1.308073
116.000000 -1.308073
116.050000 -1.263536
116.100000 -1.195018
116.150000 -1.126501
116.200000 -1.027150
116.250000 -0.914096
116.300000 -0.831875
116.350000 -0.783912
116.400000 -0.722246
116.450000 -0.694839
116.500000 -0.742801
116.550000 -0.821597
116.600000 -0.910670
116.650000 -1.037428
116.700000 -1.174463
116.750000 -1.294369
116.800000 -1.414276
116.850000 -1.561589
116.900000 -1.684921
116.950000 -1.773994
117.000000 -1.842512
117.050000 -1.866493
117.100000 -1.835660
117.150000 -1.773994
117.200000 -1.681495
117.250000 -1.568440
117.300000 -1.479367
117.350000 -1.390295
117.400000 -1.284092
117.450000 -1.222426
117.500000 -1.232704
117.550000 -1.256685
117.600000 -1.304648
117.650000 -1.417702
117.700000 -1.551311
117.750000 -1.654088
117.800000 -1.732883
117.850000 -1.791124
117.900000 -1.821956
117.950000 -1.839086
118.000000 -1.811679
118.050000 -1.708903
118.100000 -1.588996
118.150000 -1.489645
118.200000 -1.366314
118.250000 -1.232704
118.300000 -1.160760
118.350000 -1.116223
118.400000 -1.054558
118.450000 -1.010021
118.500000 -1.010021
118.550000 -1.003169
118.600000 -1.013446
118.650000 -1.040854
118.700000 -1.047706
118.750000 -1.075112
118.800000 -1.164186
118.850000 -1.253259
118.900000 -1.314925
118.950000 -1.414276
119.000000 -1.554737
119.050000 -1.654088
119.100000 -1.722606
119.150000 -1.787698
119.200000 -1.801401
119.250000 -1.746587
119.300000 -1.650662
119.350000 -1.527330
119.400000 -1.359462
119.450000 -1.181315
119.500000 -0.999743
119.550000 -0.814745
119.600000 -0.664006
119.650000 -0.581785
119.700000 -0.554377
119.750000 -0.568081
119.800000 -0.626321
119.850000 -0.729098
119.900000 -0.872985
119.950000 -1.020298
120.000000 -1.143631
120.050000 -1.229278
120.100000 -1.301222
120.150000 -1.345758
120.200000 -1.332055
120.250000 -1.273814
120.300000 -1.201870
120.350000 -1.092242
120.400000 -0.968910
120.450000 -0.866134
120.500000 -0.794190
120.550000 -0.715394
120.600000 -0.633172
120.650000 -0.602340
120.700000 -0.643450
120.750000 -0.687987
120.800000 -0.705117
120.850000 -0.749653
120.900000 -0.842152
120.950000 -0.941503
121.000000 -1.006594
121.050000 -1.051131
121.100000 -1.105945
121.150000 -1.167611
121.200000 -1.198445
121.250000 -1.191593
121.300000 -1.188167
121.350000 -1.215574
121.400000 -1.236129
121.450000 -1.232703
121.500000 -1.249833
121.550000 -1.284092
121.600000 -1.308073
121.650000 -1.359461
121.700000 -1.455387
121.750000 -1.520478
121.800000 -1.541034
121.850000 -1.575292
121.900000 -1.606125
121.950000 -1.588996
122.000000 -1.527330
122.050000 -1.448535
122.100000 -1.328629
122.150000 -1.177889
122.200000 -1.027150
122.250000 -0.893540
122.300000 -0.783912
122.350000 -0.711968
122.400000 -0.664006
122.450000 -0.643451
122.500000 -0.677710
122.550000 -0.756505
122.600000 -0.876411
122.650000 -1.010020
122.700000 -1.143631
122.750000 -1.266962
122.800000 -1.369739
122.850000 -1.438256
122.900000 -1.482793
122.950000 -1.523904
123.000000 -1.547885
123.050000 -1.520478
123.100000 -1.489645
123.150000 -1.506774
123.200000 -1.530755
123.250000 -1.534182
123.300000 -1.571867
123.350000 -1.633533
123.400000 -1.664366
123.450000 -1.695199
123.500000 -1.767142
123.550000 -1.801402
123.600000 -1.767142
123.650000 -1.715754
123.700000 -1.660940
123.750000 -1.547886
123.800000 -1.410850
123.850000 -1.308073
123.900000 -1.205296
123.950000 -1.071687
124.000000 -0.955207
124.050000 -0.890115
124.100000 -0.849004
124.150000 -0.838726
124.200000 -0.849003
124.250000 -0.862707
124.300000 -0.886689
124.350000 -0.924373
124.400000 -0.941503
124.450000 -0.931225
124.500000 -0.944929
124.550000 -0.982613
124.600000 -0.996317
124.650000 -1.027150
124.700000 -1.095668
124.750000 -1.164185
124.800000 -1.219000
124.850000 -1.294369
124.900000 -1.373165
124.950000 -1.434831
125.000000 -1.486219
125.050000 -1.499923
125.100000 -1.469090
125.150000 -1.417702
125.200000 -1.349184
125.250000 -1.256685
125.300000 -1.171038
125.350000 -1.109371
125.400000 -1.057983
125.450000 -1.044279
125.500000 -1.088817
125.550000 -1.157334
125.600000 -1.225851
125.650000 -1.311499
125.700000 -1.407424
125.750000 -1.458812
125.800000 -1.499923
125.850000 -1.558163
125.900000 -1.585570
125.950000 -1.565015
126.000000 -1.517052
126.050000 -1.441682
126.100000 -1.325203
126.150000 -1.177889
126.200000 -1.013446
126.250000 -0.835300
126.300000 -0.674283
126.350000 -0.530396
126.400000 -0.396787
126.450000 -0.300861
126.500000 -0.256325
126.550000 -0.232343
126.600000 -0.246047
126.650000 -0.328269
126.700000 -0.455027
126.750000 -0.585210
126.800000 -0.715394
126.850000 -0.845578
126.900000 -0.972336
126.950000 -1.085390
127.000000 -1.153908
127.050000 -1.198445
127.100000 -1.239556
127.150000 -1.277240
127.200000 -1.280666
127.250000 -1.273814
127.300000 -1.273815
127.350000 -1.273814
127.400000 -1.263537
127.450000 -1.246407
127.500000 -1.246407
127.550000 -1.256685
127.600000 -1.273814
127.650000 -1.318351
127.700000 -1.380017
127.750000 -1.438257
127.800000 -1.496497
127.850000 -1.554737
127.900000 -1.609552
127.950000 -1.647236
128.000000 -1.660940
128.050000 -1.643810
128.100000 -1.609552
128.150000 -1.554737
128.200000 -1.465664
128.250000 -1.380017
128.300000 -1.304647
128.350000 -1.208722
128.400000 -1.112797
128.450000 -1.061409
128.500000 -1.057983
128.550000 -1.078539
128.600000 -1.116223
128.650000 -1.164185
128.700000 -1.215574
128.750000 -1.263536
128.800000 -1.287518
128.850000 -1.284092
128.900000 -1.266962
128.950000 -1.253259
129.000000 -1.222426
129.050000 -1.177890
129.100000 -1.150482
129.150000 -1.126500
129.200000 -1.071687
129.250000 -1.020298
129.300000 -1.003169
129.350000 -0.996317
129.400000 -0.975762
129.450000 -0.972336
129.500000 -0.982613
129.550000 -0.979188
129.600000 -0.965484
129.650000 -0.951780
129.700000 -0.917522
129.750000 -0.862708
129.800000 -0.804467
129.850000 -0.749653
129.900000 -0.677709
129.950000 -0.581785
130.000000 -0.475582
130.050000 -0.386508
130.100000 -0.331694
130.150000 -0.300862
130.200000 -0.287158
130.250000 -0.324842
130.300000 -0.420768
130.350000 -0.516692
130.400000 -0.605766
130.450000 -0.732524
130.500000 -0.872985
130.550000 -0.965484
130.600000 -1.037428
130.650000 -1.112797
130.700000 -1.174463
130.750000 -1.195019
130.800000 -1.195019
130.850000 -1.174464
130.900000 -1.143630
130.950000 -1.112797
131.000000 -1.081964
131.050000 -1.068261
131.100000 -1.075112
131.150000 -1.099093
131.200000 -1.140204
131.250000 -1.198445
131.300000 -1.284092
131.350000 -1.376591
131.400000 -1.441683
131.450000 -1.472516
131.500000 -1.472515
131.550000 -1.465664
131.600000 -1.441683
131.650000 -1.383443
131.700000 -1.301221
131.750000 -1.215574
131.800000 -1.112797
131.850000 -0.989466
131.900000 -0.896966
131.950000 -0.855856
132.000000 -0.842152
132.050000 -0.845578
132.100000 -0.896966
132.150000 -0.968910
132.200000 -1.054557
132.250000 -1.157334
132.300000 -1.263537
132.350000 -1.335480
132.400000 -1.393720
132.450000 -1.458812
132.500000 -1.506775
132.550000 -1.493071
132.600000 -1.431405
132.650000 -1.376591
132.700000 -1.335480
132.750000 -1.284092
132.800000 -1.229278
132.850000 -1.195018
132.900000 -1.188167
132.950000 -1.195018
133.000000 -1.167612
133.050000 -1.129926
133.100000 -1.140204
133.150000 -1.167612
133.200000 -1.177889
133.250000 -1.191593
133.300000 -1.218999
133.350000 -1.236129
133.400000 -1.280666
133.450000 -1.393720
133.500000 -1.506774
133.550000 -1.582144
133.600000 -1.664365
133.650000 -1.777420
133.700000 -1.859641
133.750000 -1.893900
133.800000 -1.904178
133.850000 -1.893901
133.900000 -1.852790
133.950000 -1.756865
134.000000 -1.626681
134.050000 -1.486219
134.100000 -1.356035
134.150000 -1.242981
134.200000 -1.150483
134.250000 -1.092243
134.300000 -1.075112
134.350000 -1.109372
134.400000 -1.167611
134.450000 -1.242981
134.500000 -1.352610
134.550000 -1.486220
134.600000 -1.588996
134.650000 -1.654088
134.700000 -1.705476
134.750000 -1.726032
134.800000 -1.691773
134.850000 -1.609551
134.900000 -1.523904
134.950000 -1.421127
135.000000 -1.311498
135.050000 -1.225852
135.100000 -1.164186
135.150000 -1.105946
135.200000 -1.085390
135.250000 -1.119649
135.300000 -1.191593
135.350000 -1.273814
135.400000 -1.359462
135.450000 -1.451961
135.500000 -1.551312
135.550000 -1.626681
135.600000 -1.654088
135.650000 -1.654088
135.700000 -1.633532
135.750000 -1.582145
135.800000 -1.496497
135.850000 -1.407424
135.900000 -1.311499
135.950000 -1.229277
136.000000 -1.184741
136.050000 -1.167612
136.100000 -1.136778
136.150000 -1.119649
136.200000 -1.136778
136.250000 -1.160760
136.300000 -1.184741
136.350000 -1.219000
136.400000 -1.236129
136.450000 -1.198445
136.500000 -1.136778
136.550000 -1.102520
136.600000 -1.071687
136.650000 -1.037428
136.700000 -1.037428
136.750000 -1.075113
136.800000 -1.109372
136.850000 -1.140204
136.900000 -1.177889
136.950000 -1.219000
137.000000 -1.215574
137.050000 -1.167612
137.100000 -1.102520
137.150000 -1.013446
137.200000 -0.866133
137.250000 -0.705117
137.300000 -0.571507
137.350000 -0.475582
137.400000 -0.389935
137.450000 -0.341972
137.500000 -0.345398
137.550000 -0.393361
137.600000 -0.489285
137.650000 -0.633172
137.700000 -0.794189
137.750000 -0.948355
137.800000 -1.092242
137.850000 -1.225852
137.900000 -1.325202
137.950000 -1.386869
138.000000 -1.403998
138.050000 -1.403998
138.100000 -1.417702
138.150000 -1.448535
138.200000 -1.451961
138.250000 -1.434831
138.300000 -1.448535
138.350000 -1.479368
138.400000 -1.493071
138.450000 -1.496497
138.500000 -1.486219
138.550000 -1.438257
138.600000 -1.376591
138.650000 -1.311499
138.700000 -1.205297
138.750000 -1.078539
138.800000 -0.965484
138.850000 -0.869559
138.900000 -0.780486
138.950000 -0.742801
139.000000 -0.759931
139.050000 -0.794189
139.100000 -0.849003
139.150000 -0.927800
139.200000 -0.986040
139.250000 -1.013447
139.300000 -1.027150
139.350000 -1.023724
139.400000 -0.982613
139.450000 -0.927800
139.500000 -0.866133
139.550000 -0.801041
139.600000 -0.742801
139.650000 -0.705116
139.700000 -0.732524
139.750000 -0.831874
139.800000 -0.965484
139.850000 -1.112797
139.900000 -1.287518
139.950000 -1.472515
140.000000 -1.630107
140.050000 -1.756865
140.100000 -1.856216
140.150000 -1.880197
140.200000 -1.839086
140.250000 -1.791124
140.300000 -1.708902
140.350000 -1.582144
140.400000 -1.465664
140.450000 -1.369739
140.500000 -1.270389
140.550000 -1.184741
140.600000 -1.150482
140.650000 -1.147056
140.700000 -1.164186
140.750000 -1.212148
140.800000 -1.263536
140.850000 -1.321777
140.900000 -1.397147
140.950000 -1.472515
141.000000 -1.523904
141.050000 -1.571867
141.100000 -1.609551
141.150000 -1.609551
141.200000 -1.592422
141.250000 -1.571867
141.300000 -1.537608
141.350000 -1.499923
141.400000 -1.465665
141.450000 -1.438257
141.500000 -1.410850
141.550000 -1.400572
141.600000 -1.400572
141.650000 -1.417702
141.700000 -1.479367
141.750000 -1.554737
141.800000 -1.588996
141.850000 -1.609551
141.900000 -1.640385
141.950000 -1.623255
142.000000 -1.527330
142.050000 -1.390295
142.100000 -1.253259
142.150000 -1.099094
142.200000 -0.917521
142.250000 -0.749653
142.300000 -0.622895
142.350000 -0.523544
142.400000 -0.434471
142.450000 -0.396786
142.500000 -0.448174
142.550000 -0.533822
142.600000 -0.629747
142.650000 -0.773634
142.700000 -0.972336
142.750000 -1.177889
142.800000 -1.373165
142.850000 -1.568441
142.900000 -1.736310
142.950000 -1.873345
143.000000 -2.006954
143.050000 -2.116583
143.100000 -2.161120
143.150000 -2.126861
143.200000 -2.051491
143.250000 -1.952141
143.300000 -1.825382
143.350000 -1.664365
143.400000 -1.496497
143.450000 -1.349184
143.500000 -1.201871
143.550000 -1.051132
143.600000 -0.931225
143.650000 -0.869559
143.700000 -0.852430
143.750000 -0.855856
143.800000 -0.866133
143.850000 -0.890115
143.900000 -0.944929
143.950000 -0.982614
144.000000 -0.982613
144.050000 -1.003169
144.100000 -1.057983
144.150000 -1.081965
144.200000 -1.047706
144.250000 -1.037428
144.300000 -1.061409
144.350000 -1.047706
144.400000 -1.020299
144.450000 -1.030576
144.500000 -1.047705
144.550000 -1.068261
144.600000 -1.102520
144.650000 -1.129927
144.700000 -1.147056
144.750000 -1.177890
144.800000 -1.188167
144.850000 -1.157334
144.900000 -1.136779
144.950000 -1.119649
145.000000 -1.061409
145.050000 -0.999743
145.100000 -0.982613
145.150000 -0.958632
145.200000 -0.927799
145.250000 -0.958632
145.300000 -1.034002
145.350000 -1.088816
145.400000 -1.153908
145.450000 -1.253259
145.500000 -1.349184
145.550000 -1.427979
145.600000 -1.503349
145.650000 -1.547886
145.700000 -1.547885
145.750000 -1.561589
145.800000 -1.554737
145.850000 -1.506774
145.900000 -1.469090
145.950000 -1.451960
146.000000 -1.414275
146.050000 -1.373165
146.100000 -1.359461
146.150000 -1.335480
146.200000 -1.277240
146.250000 -1.229278
146.300000 -1.201871
146.350000 -1.160759
146.400000 -1.133353
146.450000 -1.143630
146.500000 -1.164185
146.550000 -1.198445
146.600000 -1.246407
146.650000 -1.304647
146.700000 -1.386868
146.750000 -1.448535
146.800000 -1.465664
146.850000 -1.451960
146.900000 -1.434831
146.950000 -1.366313
147.000000 -1.253258
147.050000 -1.177890
147.100000 -1.147056
147.150000 -1.105945
147.200000 -1.068261
147.250000 -1.085390
147.300000 -1.126501
147.350000 -1.184741
147.400000 -1.263537
147.450000 -1.335480
147.500000 -1.386869
147.550000 -1.438257
147.600000 -1.458813
147.650000 -1.417702
147.700000 -1.352610
147.750000 -1.277240
147.800000 -1.160760
147.850000 -1.057984
147.900000 -1.013447
147.950000 -0.972336
148.000000 -0.910670
148.050000 -0.903818
148.100000 -0.962059
148.150000 -1.020298
148.200000 -1.081964
148.250000 -1.177889
148.300000 -1.260111
148.350000 -1.328629
148.400000 -1.407424
148.450000 -1.451960
148.500000 -1.438257
148.550000 -1.380017
148.600000 -1.311499
148.650000 -1.236130
148.700000 -1.157334
148.750000 -1.078538
148.800000 -1.010021
148.850000 -0.938077
148.900000 -0.886688
148.950000 -0.879837
149.000000 -0.910670
149.050000 -0.951781
149.100000 -0.989466
149.150000 -1.057984
149.200000 -1.133352
149.250000 -1.177889
149.300000 -1.222426
149.350000 -1.277241
149.400000 -1.321777
149.450000 -1.332055
149.500000 -1.342332
149.550000 -1.362887
149.600000 -1.349184
149.650000 -1.311499
149.700000 -1.321776
149.750000 -1.362887
149.800000 -1.380017
149.850000 -1.400572
149.900000 -1.465664
149.950000 -1.537607
150.000000 -1.568441
150.050000 -1.585570
150.100000 -1.606125
150.150000 -1.609552
150.200000 -1.592422
150.250000 -1.558163
150.300000 -1.513627
150.350000 -1.472515
150.400000 -1.434831
150.450000 -1.380016
150.500000 -1.318351
150.550000 -1.256685
150.600000 -1.184741
150.650000 -1.102520
150.700000 -1.023725
150.750000 -0.965484
150.800000 -0.900393
150.850000 -0.825022
150.900000 -0.725672
150.950000 -0.612618
151.000000 -0.526970
151.050000 -0.468730
151.100000 -0.431046
151.150000 -0.427619
151.200000 -0.465304
151.250000 -0.544099
151.300000 -0.650303
151.350000 -0.797616
151.400000 -0.955206
151.450000 -1.133353
151.500000 -1.335480
151.550000 -1.510201
151.600000 -1.623255
151.650000 -1.708902
151.700000 -1.760291
151.750000 -1.746587
151.800000 -1.664366
151.850000 -1.561589
151.900000 -1.445109
151.950000 -1.297795
152.000000 -1.126501
152.050000 -0.958633
152.100000 -0.835300
152.150000 -0.749653
152.200000 -0.681135
152.250000 -0.660580
152.300000 -0.701691
152.350000 -0.749653
152.400000 -0.804468
152.450000 -0.944928
152.500000 -1.143630
152.550000 -1.284092
152.600000 -1.393720
152.650000 -1.534181
152.700000 -1.647236
152.750000 -1.678069
152.800000 -1.688347
152.850000 -1.695199
152.900000 -1.643810
152.950000 -1.530756
153.000000 -1.417701
153.050000 -1.311499
153.100000 -1.201871
153.150000 -1.088817
153.200000 -0.996317
153.250000 -0.948355
153.300000 -0.920948
153.350000 -0.907244
153.400000 -0.931225
153.450000 -0.992891
153.500000 -1.047705
153.550000 -1.075112
153.600000 -1.109371
153.650000 -1.153908
153.700000 -1.153908
153.750000 -1.105946
153.800000 -1.016872
153.850000 -0.893540
153.900000 -0.763356
153.950000 -0.653728
154.000000 -0.540674
154.050000 -0.448175
154.100000 -0.427619
154.150000 -0.444749
154.200000 -0.485859
154.250000 -0.592062
154.300000 -0.766783
154.350000 -0.934651
154.400000 -1.099094
154.450000 -1.284091
154.500000 -1.448535
154.550000 -1.527331
154.600000 -1.547885
154.650000 -1.499923
154.700000 -1.403998
154.750000 -1.284091
154.800000 -1.140205
154.850000 -0.982613
154.900000 -0.883263
154.950000 -0.849004
155.000000 -0.818171
155.050000 -0.814744
155.100000 -0.900392
155.150000 -0.996318
155.200000 -1.064835
155.250000 -1.167611
155.300000 -1.301222
155.350000 -1.407424
155.400000 -1.486219
155.450000 -1.547885
155.500000 -1.599274
155.550000 -1.650662
155.600000 -1.715754
155.650000 -1.763716
155.700000 -1.804827
155.750000 -1.869919
155.800000 -1.945288
155.850000 -1.996677
155.900000 -2.024084
155.950000 -2.024084
156.000000 -1.962418
156.050000 -1.873345
156.100000 -1.784271
156.150000 -1.660940
156.200000 -1.496497
156.250000 -1.373165
156.300000 -1.301221
156.350000 -1.256684
156.400000 -1.229277
156.450000 -1.242981
156.500000 -1.284092
156.550000 -1.332054
156.600000 -1.359461
156.650000 -1.369739
156.700000 -1.380016
156.750000 -1.366313
156.800000 -1.314925
156.850000 -1.263537
156.900000 -1.225852
156.950000 -1.167612
157.000000 -1.102520
157.050000 -1.092242
157.100000 -1.133352
157.150000 -1.188167
157.200000 -1.256685
157.250000 -1.321776
157.300000 -1.362888
157.350000 -1.376591
157.400000 -1.380016
157.450000 -1.311499
157.500000 -1.174463
157.550000 -1.006594
157.600000 -0.828449
157.650000 -0.657154
157.700000 -0.523545
157.750000 -0.455027
157.800000 -0.434471
157.850000 -0.482433
157.900000 -0.633172
157.950000 -0.869559
158.000000 -1.126501
158.050000 -1.386868
158.100000 -1.654088
158.150000 -1.873345
158.200000 -2.006955
158.250000 -2.061769
158.300000 -2.054917
158.350000 -1.948715
158.400000 -1.763716
158.450000 -1.537607
158.500000 -1.280666
158.550000 -1.006594
158.600000 -0.756505
158.650000 -0.571507
158.700000 -0.451600
158.750000 -0.386509
158.800000 -0.383082
158.850000 -0.431045
158.900000 -0.530396
158.950000 -0.667431
159.000000 -0.801041
159.050000 -0.927799
159.100000 -1.040853
159.150000 -1.150483
159.200000 -1.239556
159.250000 -1.311499
159.300000 -1.366313
159.350000 -1.410849
159.400000 -1.445108
159.450000 -1.472516
159.500000 -1.496497
159.550000 -1.503349
159.600000 -1.448535
159.650000 -1.362888
159.700000 -1.308073
159.750000 -1.256685
159.800000 -1.177889
159.850000 -1.105945
159.900000 -1.047705
159.950000 -0.989465
160.000000 -0.948354
160.050000 -0.951780
160.100000 -0.972336
160.150000 -0.982614
160.200000 -1.023724
160.250000 -1.078539
160.300000 -1.119649
160.350000 -1.119649
160.400000 -1.081964
160.450000 -1.013447
160.500000 -0.941503
160.550000 -0.876411
160.600000 -0.807894
160.650000 -0.742801
160.700000 -0.711968
160.750000 -0.705116
160.800000 -0.711968
160.850000 -0.756504
160.900000 -0.835300
160.950000 -0.907244
161.000000 -0.979188
161.050000 -1.095668
161.100000 -1.215574
161.150000 -1.294370
161.200000 -1.335480
161.250000 -1.380017
161.300000 -1.427979
161.350000 -1.434832
161.400000 -1.400572
161.450000 -1.345758
161.500000 -1.290944
161.550000 -1.225852
161.600000 -1.164186
161.650000 -1.133353
161.700000 -1.119649
161.750000 -1.109372
161.800000 -1.153908
161.850000 -1.270388
161.900000 -1.417702
161.950000 -1.537608
162.000000 -1.657514
162.050000 -1.794550
162.100000 -1.900752
162.150000 -1.952140
162.200000 -1.945289
162.250000 -1.883622
162.300000 -1.767143
162.350000 -1.630107
162.400000 -1.482793
162.450000 -1.321777
162.500000 -1.195018
162.550000 -1.123075
162.600000 -1.085391
162.650000 -1.075113
162.700000 -1.109372
162.750000 -1.126501
162.800000 -1.112797
162.850000 -1.102520
162.900000 -1.092242
162.950000 -1.064835
163.000000 -0.992891
163.050000 -0.903818
163.100000 -0.807894
163.150000 -0.722245
163.200000 -0.660579
163.250000 -0.626321
163.300000 -0.626321
163.350000 -0.646876
163.400000 -0.684561
163.450000 -0.735950
163.500000 -0.801042
163.550000 -0.859281
163.600000 -0.886688
163.650000 -0.893540
163.700000 -0.903818
163.750000 -0.917522
163.800000 -0.910670
163.850000 -0.914096
163.900000 -0.948355
163.950000 -0.999743
164.000000 -1.044280
164.050000 -1.085391
164.100000 -1.153908
164.150000 -1.222426
164.200000 -1.266963
164.250000 -1.284092
164.300000 -1.284091
164.350000 -1.249832
164.400000 -1.198445
164.450000 -1.147057
164.500000 -1.081965
164.550000 -1.006595
164.600000 -0.951781
164.650000 -0.910670
164.700000 -0.900393
164.750000 -0.927800
164.800000 -0.968910
164.850000 -1.016873
164.900000 -1.092242
164.950000 -1.191593
165.000000 -1.280666
165.050000 -1.349184
165.100000 -1.417701
165.150000 -1.462238
165.200000 -1.455386
165.250000 -1.434831
165.300000 -1.438257
165.350000 -1.424553
165.400000 -1.359462
165.450000 -1.280666
165.500000 -1.222426
165.550000 -1.181315
165.600000 -1.123075
165.650000 -1.061409
165.700000 -1.023724
165.750000 -0.999743
165.800000 -0.982614
165.850000 -0.979187
165.900000 -1.010020
165.950000 -1.064834
166.000000 -1.123075
166.050000 -1.198444
166.100000 -1.301221
166.150000 -1.410850
166.200000 -1.503349
166.250000 -1.565015
166.300000 -1.609552
166.350000 -1.640384
166.400000 -1.640384
166.450000 -1.619829
166.500000 -1.588996
166.550000 -1.544459
166.600000 -1.482793
166.650000 -1.421127
166.700000 -1.366313
166.750000 -1.290944
166.800000 -1.222426
166.850000 -1.208722
166.900000 -1.215574
166.950000 -1.212148
167.000000 -1.201870
167.050000 -1.198445
167.100000 -1.181315
167.150000 -1.153908
167.200000 -1.133352
167.250000 -1.112797
167.300000 -1.088817
167.350000 -1.075112
167.400000 -1.064835
167.450000 -1.040854
167.500000 -1.044279
167.550000 -1.068261
167.600000 -1.047706
167.650000 -1.020299
167.700000 -1.040853
167.750000 -1.054557
167.800000 -1.006594
167.850000 -0.972336
167.900000 -0.968910
167.950000 -0.927799
168.000000 -0.872985
168.050000 -0.879837
168.100000 -0.903818
168.150000 -0.907244
168.200000 -0.948354
168.250000 -1.013447
168.300000 -1.092242
168.350000 -1.198444
168.400000 -1.311499
168.450000 -1.373165
168.500000 -1.448534
168.550000 -1.561589
168.600000 -1.640384
168.650000 -1.681495
168.700000 -1.739735
168.750000 -1.797975
168.800000 -1.811679
168.850000 -1.818531
168.900000 -1.821957
168.950000 -1.773994
169.000000 -1.698625
169.050000 -1.623255
169.100000 -1.520478
169.150000 -1.393721
169.200000 -1.287518
169.250000 -1.205296
169.300000 -1.150482
169.350000 -1.126501
169.400000 -1.136779
169.450000 -1.181315
169.500000 -1.280666
169.550000 -1.403998
169.600000 -1.506775
169.650000 -1.592422
169.700000 -1.667791
169.750000 -1.715754
169.800000 -1.712328
169.850000 -1.647237
169.900000 -1.558163
169.950000 -1.479368
170.000000 -1.393721
170.050000 -1.294370
170.100000 -1.212148
170.150000 -1.188167
170.200000 -1.208722
170.250000 -1.270388
170.300000 -1.359461
170.350000 -1.462238
170.400000 -1.575292
170.450000 -1.671218
170.500000 -1.726031
170.550000 -1.732884
170.600000 -1.708902
170.650000 -1.654088
170.700000 -1.575293
170.750000 -1.496497
170.800000 -1.407424
170.850000 -1.308073
170.900000 -1.212149
170.950000 -1.143630
171.000000 -1.092242
171.050000 -1.075112
171.100000 -1.112798
171.150000 -1.174463
171.200000 -1.219000
171.250000 -1.263537
171.300000 -1.328629
171.350000 -1.349184
171.400000 -1.321777
171.450000 -1.314924
171.500000 -1.338906
171.550000 -1.321777
171.600000 -1.270388
171.650000 -1.256684
171.700000 -1.260111
171.750000 -1.232704
171.800000 -1.208722
171.850000 -1.229277
171.900000 -1.266963
171.950000 -1.301221
172.000000 -1.345758
172.050000 -1.424553
172.100000 -1.513626
172.150000 -1.568441
172.200000 -1.588996
172.250000 -1.623255
172.300000 -1.650662
172.350000 -1.612977
172.400000 -1.534182
172.450000 -1.451960
172.500000 -1.352610
172.550000 -1.239555
172.600000 -1.147057
172.650000 -1.078538
172.700000 -1.013446
172.750000 -0.975762
172.800000 -0.958633
172.850000 -0.944928
172.900000 -0.955207
172.950000 -0.989465
173.000000 -1.010021
173.050000 -1.034002
173.100000 -1.071686
173.150000 -1.075113
173.200000 -1.027150
173.250000 -0.972336
173.300000 -0.931225
173.350000 -0.890114
173.400000 -0.821597
173.450000 -0.746227
173.500000 -0.701690
173.550000 -0.691413
173.600000 -0.708543
173.650000 -0.763356
173.700000 -0.869560
173.750000 -0.979188
173.800000 -1.099094
173.850000 -1.263537
173.900000 -1.448535
173.950000 -1.592422
174.000000 -1.688347
174.050000 -1.760290
174.100000 -1.791123
174.150000 -1.760291
174.200000 -1.698625
174.250000 -1.623255
174.300000 -1.510200
174.350000 -1.369739
174.400000 -1.256685
174.450000 -1.181316
174.500000 -1.150482
174.550000 -1.160760
174.600000 -1.208722
174.650000 -1.266962
174.700000 -1.345758
174.750000 -1.431406
174.800000 -1.496497
174.850000 -1.537608
174.900000 -1.547886
174.950000 -1.544460
175.000000 -1.537608
175.050000 -1.510200
175.100000 -1.445108
175.150000 -1.373165
175.200000 -1.325202
175.250000 -1.284092
175.300000 -1.232703
175.350000 -1.201871
175.400000 -1.195019
175.450000 -1.177889
175.500000 -1.181315
175.550000 -1.236130
175.600000 -1.287517
175.650000 -1.314925
175.700000 -1.362888
175.750000 -1.414275
175.800000 -1.407424
175.850000 -1.376591
175.900000 -1.356036
175.950000 -1.335480
176.000000 -1.297795
176.050000 -1.253259
176.100000 -1.195018
176.150000 -1.143631
176.200000 -1.119649
176.250000 -1.119649
176.300000 -1.150482
176.350000 -1.201871
176.400000 -1.249833
176.450000 -1.280666
176.500000 -1.314925
176.550000 -1.342332
176.600000 -1.338907
176.650000 -1.304647
176.700000 -1.246407
176.750000 -1.164185
176.800000 -1.075112
176.850000 -1.003169
176.900000 -0.920947
176.950000 -0.869559
177.000000 -0.876411
177.050000 -0.910670
177.100000 -0.958632
177.150000 -1.057983
177.200000 -1.215574
177.250000 -1.393721
177.300000 -1.565014
177.350000 -1.708903
177.400000 -1.811679
177.450000 -1.883623
177.500000 -1.931585
177.550000 -1.911029
177.600000 -1.821957
177.650000 -1.695199
177.700000 -1.551311
177.750000 -1.393721
177.800000 -1.246407
177.850000 -1.109371
177.900000 -0.999743
177.950000 -0.944928
178.000000 -0.948354
178.050000 -0.982614
178.100000 -1.047706
178.150000 -1.133353
178.200000 -1.205296
178.250000 -1.280666
178.300000 -1.366313
178.350000 -1.438257
178.400000 -1.465664
178.450000 -1.465664
178.500000 -1.427979
178.550000 -1.356035
178.600000 -1.284092
178.650000 -1.232704
178.700000 -1.191593
178.750000 -1.147056
178.800000 -1.105945
178.850000 -1.078539
178.900000 -1.047706
178.950000 -1.027150
179.000000 -1.034002
179.050000 -1.057983
179.100000 -1.078539
179.150000 -1.102520
179.200000 -1.136779
179.250000 -1.177890
179.300000 -1.229277
179.350000 -1.287517
179.400000 -1.318351
179.450000 -1.328629
179.500000 -1.342332
179.550000 -1.335480
179.600000 -1.301222
179.650000 -1.270389
179.700000 -1.260110
179.750000 -1.232704
179.800000 -1.198445
179.850000 -1.177889
179.900000 -1.147056
179.950000 -1.116224
180.000000 -1.088816
180.050000 -1.054557
180.100000 -0.999743
180.150000 -0.962058
180.200000 -0.910670
180.250000 -0.838726
180.300000 -0.787337
180.350000 -0.756505
180.400000 -0.691413
180.450000 -0.646876
180.500000 -0.643451
180.550000 -0.646877
180.600000 -0.667432
180.650000 -0.746227
180.700000 -0.818171
180.750000 -0.845578
180.800000 -0.893540
180.850000 -0.955206
180.900000 -0.975762
180.950000 -0.982613
181.000000 -1.023724
181.050000 -1.051132
181.100000 -1.054557
181.150000 -1.071687
181.200000 -1.075113
181.250000 -1.051132
181.300000 -1.034002
181.350000 -1.040854
181.400000 -1.023725
181.450000 -0.982614
181.500000 -0.965485
181.550000 -0.968910
181.600000 -0.948355
181.650000 -0.938077
181.700000 -0.975762
181.750000 -1.013447
181.800000 -0.996318
181.850000 -0.968910
181.900000 -0.958632
181.950000 -0.931225
182.000000 -0.869559
182.050000 -0.818171
182.100000 -0.780486
182.150000 -0.746227
182.200000 -0.718820
182.250000 -0.708542
182.300000 -0.729097
182.350000 -0.780486
182.400000 -0.845578
182.450000 -0.917522
182.500000 -1.003169
182.550000 -1.099093
182.600000 -1.174463
182.650000 -1.205296
182.700000 -1.188167
182.750000 -1.147057
182.800000 -1.092242
182.850000 -1.030576
182.900000 -0.972336
182.950000 -0.914096
183.000000 -0.869560
183.050000 -0.845578
183.100000 -0.862707
183.150000 -0.910670
183.200000 -0.996317
183.250000 -1.112798
183.300000 -1.212148
183.350000 -1.260111
183.400000 -1.290943
183.450000 -1.332054
183.500000 -1.321777
183.550000 -1.242981
183.600000 -1.160760
183.650000 -1.112797
183.700000 -1.064835
183.750000 -1.030576
183.800000 -1.023724
183.850000 -1.027150
183.900000 -1.044279
183.950000 -1.085390
184.000000 -1.123075
184.050000 -1.177889
184.100000 -1.253259
184.150000 -1.287518
184.200000 -1.266962
184.250000 -1.249833
184.300000 -1.239555
184.350000 -1.184741
184.400000 -1.105945
184.450000 -1.040854
184.500000 -0.975762
184.550000 -0.931225
184.600000 -0.914095
184.650000 -0.886688
184.700000 -0.849004
184.750000 -0.814745
184.800000 -0.787338
184.850000 -0.759930
184.900000 -0.756505
184.950000 -0.770208
185.000000 -0.766782
185.050000 -0.773634
185.100000 -0.797615
185.150000 -0.818171
185.200000 -0.838726
185.250000 -0.907244
185.300000 -1.006594
185.350000 -1.071687
185.400000 -1.123075
185.450000 -1.171037
185.500000 -1.201870
185.550000 -1.215574
185.600000 -1.198445
185.650000 -1.123075
185.700000 -1.027150
185.750000 -0.975762
185.800000 -0.927799
185.850000 -0.849004
185.900000 -0.811319
185.950000 -0.842152
186.000000 -0.876411
186.050000 -0.931225
186.100000 -1.047705
186.150000 -1.181315
186.200000 -1.314925
186.250000 -1.479368
186.300000 -1.633533
186.350000 -1.712329
186.400000 -1.760291
186.450000 -1.811679
186.500000 -1.791124
186.550000 -1.688347
186.600000 -1.595848
186.650000 -1.513626
186.700000 -1.407424
186.750000 -1.318351
186.800000 -1.266962
186.850000 -1.225852
186.900000 -1.198445
186.950000 -1.205296
187.000000 -1.232703
187.050000 -1.277240
187.100000 -1.352610
187.150000 -1.441683
187.200000 -1.503348
187.250000 -1.544459
187.300000 -1.582144
187.350000 -1.626681
187.400000 -1.643810
187.450000 -1.616403
187.500000 -1.571867
187.550000 -1.541034
187.600000 -1.496497
187.650000 -1.427979
187.700000 -1.386868
187.750000 -1.356035
187.800000 -1.297795
187.850000 -1.239555
187.900000 -1.242981
187.950000 -1.253259
188.000000 -1.225851
188.050000 -1.219000
188.100000 -1.249833
188.150000 -1.270389
188.200000 -1.270389
188.250000 -1.273814
188.300000 -1.256685
188.350000 -1.188167
188.400000 -1.112797
188.450000 -1.064835
188.500000 -0.992891
188.550000 -0.893540
188.600000 -0.818171
188.650000 -0.777060
188.700000 -0.753079
188.750000 -0.739375
188.800000 -0.777060
