time[ns] Raw_signal[mV]
-11.150000 0.531013
-11.100000 0.414533
-11.050000 0.256941
-11.000000 0.085647
-10.950000 -0.116480
-10.900000 -0.366570
-10.850000 -0.596105
-10.800000 -0.784529
-10.750000 -0.993508
-10.700000 -1.199062
-10.650000 -1.288135
-10.600000 -1.294986
-10.550000 -1.277857
-10.500000 -1.195636
-10.450000 -1.031193
-10.400000 -0.822213
-10.350000 -0.578976
-10.300000 -0.301478
-10.250000 -0.023982
-10.200000 0.246664
-10.150000 0.489902
-10.100000 0.678326
-10.050000 0.794806
-10.000000 0.853046
-9.950000 0.839343
-9.900000 0.781102
-9.850000 0.729714
-9.800000 0.678327
-9.750000 0.606382
-9.700000 0.578975
-9.650000 0.613234
-9.600000 0.654345
-9.550000 0.685178
-9.500000 0.739993
-9.450000 0.791381
-9.400000 0.784529
-9.350000 0.733140
-9.300000 0.664623
-9.250000 0.551568
-9.200000 0.383699
-9.150000 0.174720
-9.100000 -0.058241
-9.050000 -0.263794
-9.000000 -0.431662
-8.950000 -0.585827
-8.900000 -0.671474
-8.850000 -0.613235
-8.800000 -0.469347
-8.750000 -0.304904
-8.700000 -0.071944
-8.650000 0.246664
-8.600000 0.527587
-8.550000 0.733140
-8.500000 0.935268
-8.450000 1.099711
-8.400000 1.140821
-8.350000 1.086007
-8.300000 0.990082
-8.250000 0.849621
-8.200000 0.647493
-8.150000 0.421385
-8.100000 0.212405
-8.050000 0.068517
-8.000000 0.017130
-7.950000 0.051389
-7.900000 0.164443
-7.850000 0.342589
-7.800000 0.548143
-7.750000 0.760547
-7.700000 0.972953
-7.650000 1.144248
-7.600000 1.216191
-7.550000 1.212766
-7.500000 1.151099
-7.450000 1.010637
-7.400000 0.808510
-7.350000 0.585827
-7.300000 0.366570
-7.250000 0.174720
-7.200000 0.047962
-7.150000 -0.023981
-7.100000 -0.034259
-7.050000 0.044536
-7.000000 0.184998
-6.950000 0.359718
-6.900000 0.541291
-6.850000 0.709159
-6.800000 0.846194
-6.750000 0.955824
-6.700000 1.017490
-6.650000 1.003786
-6.600000 0.945545
-6.550000 0.853047
-6.500000 0.733140
-6.450000 0.609808
-6.400000 0.476198
-6.350000 0.325459
-6.300000 0.202127
-6.250000 0.140461
-6.200000 0.116480
-6.150000 0.106203
-6.100000 0.130184
-6.050000 0.198702
-6.000000 0.287774
-5.950000 0.373422
-5.900000 0.452217
-5.850000 0.513883
-5.800000 0.558420
-5.750000 0.589253
-5.700000 0.596105
-5.650000 0.565272
-5.600000 0.493328
-5.550000 0.407681
-5.500000 0.322033
-5.450000 0.239812
-5.400000 0.154165
-5.350000 0.082221
-5.300000 0.054814
-5.250000 0.071944
-5.200000 0.123332
-5.150000 0.191850
-5.100000 0.280923
-5.050000 0.363144
-5.000000 0.435088
-4.950000 0.500180
-4.900000 0.568698
-4.850000 0.609809
-4.800000 0.620086
-4.750000 0.616660
-4.700000 0.626938
-4.650000 0.647493
-4.600000 0.657771
-4.550000 0.644067
-4.500000 0.647493
-4.450000 0.674900
-4.400000 0.681752
-4.350000 0.657771
-4.300000 0.630364
-4.250000 0.599531
-4.200000 0.537865
-4.150000 0.462495
-4.100000 0.387125
-4.050000 0.291201
-4.000000 0.157591
-3.950000 0.034259
-3.900000 -0.027407
-3.850000 -0.027407
-3.800000 0.003425
-3.750000 0.054814
-3.700000 0.150739
-3.650000 0.308330
-3.600000 0.479624
-3.550000 0.616660
-3.500000 0.746844
-3.450000 0.863324
-3.400000 0.921564
-3.350000 0.897583
-3.300000 0.781103
-3.250000 0.568698
-3.200000 0.380274
-3.150000 0.256942
-3.100000 0.030833
-3.050000 -0.291201
-3.000000 -0.438514
-2.950000 -0.397403
-2.900000 -0.421385
-2.850000 -0.431662
-2.800000 -0.284349
-2.750000 -0.147313
-2.700000 -0.013704
-2.650000 0.346015
-2.600000 0.702307
-2.550000 0.736566
-2.500000 0.746844
-2.450000 0.935268
-2.400000 0.911287
-2.350000 0.657771
-2.300000 0.589253
-2.250000 0.602957
-2.200000 0.383700
-2.150000 0.253516
-2.100000 0.435088
-2.050000 0.544717
-2.000000 0.435088
-1.950000 0.435088
-1.900000 0.626938
-1.850000 0.856473
-1.800000 1.062026
-1.750000 1.109989
-1.700000 0.952398
-1.650000 0.849621
-1.600000 0.832491
-1.550000 0.616660
-1.500000 0.325459
-1.450000 0.315182
-1.400000 0.417959
-1.350000 0.363145
-1.300000 0.328885
-1.250000 0.383700
-1.200000 0.332311
-1.150000 0.346015
-1.100000 0.554995
-1.050000 0.534439
-1.000000 0.181572
-0.950000 0.020555
-0.900000 0.092499
-0.850000 -0.034259
-0.800000 -0.236386
-0.750000 -0.239812
-0.700000 -0.287775
-0.650000 -0.500180
-0.600000 -0.568698
-0.550000 -0.513884
-0.500000 -0.596105
-0.450000 -0.698882
-0.400000 -0.647493
-0.350000 -0.561846
-0.300000 -0.513883
-0.250000 -0.411107
-0.200000 -0.270645
-0.150000 -0.137035
-0.100000 0.017129
-0.050000 0.178147
0.000000 0.356292
0.050000 0.534439
0.100000 0.596105
0.150000 0.531013
0.200000 0.531013
0.250000 0.589253
0.300000 0.459069
0.350000 0.212405
0.400000 0.164443
0.450000 0.291201
0.500000 0.349441
0.550000 0.383700
0.600000 0.534438
0.650000 0.705733
0.700000 0.870176
0.750000 1.140822
0.800000 1.545076
0.850000 2.045257
0.900000 2.788674
0.950000 3.929496
1.000000 5.519109
1.050000 7.656867
1.100000 10.531184
1.150000 14.241425
1.200000 18.767025
1.250000 24.077155
1.300000 30.127279
1.350000 36.807758
1.400000 43.902786
1.450000 51.258164
1.500000 58.801982
1.550000 66.455418
1.600000 74.026638
1.650000 81.368318
1.700000 88.418798
1.750000 95.058178
1.800000 101.077468
1.850000 106.349908
1.900000 110.875508
1.950000 114.643978
2.000000 117.532008
2.050000 119.426528
2.100000 120.372078
2.150000 120.491988
2.200000 119.745128
2.250000 118.049318
2.300000 115.503888
2.350000 112.328088
2.400000 108.590438
2.450000 104.325208
2.500000 99.645438
2.550000 94.671048
2.600000 89.449988
2.650000 84.016528
2.700000 78.497418
2.750000 72.954328
2.800000 67.335868
2.850000 61.683148
2.900000 56.235988
2.950000 51.165668
3.000000 46.485898
3.050000 42.326868
3.100000 38.959218
3.150000 36.437768
3.200000 34.687138
3.250000 33.789558
3.300000 33.768994
3.350000 34.375384
3.400000 35.440828
3.450000 36.975628
3.500000 38.856438
3.550000 40.819478
3.600000 42.731118
3.650000 44.529718
3.700000 46.105628
3.750000 47.383488
3.800000 48.359868
3.850000 48.990228
3.900000 49.281428
3.950000 49.277998
4.000000 48.990228
4.050000 48.397548
4.100000 47.475978
4.150000 46.222118
4.200000 44.656478
4.250000 42.813348
4.300000 40.679018
4.350000 38.219228
4.400000 35.533338
4.450000 32.768638
4.500000 29.935428
4.550000 27.067958
4.600000 24.303268
4.650000 21.744124
4.700000 19.424801
4.750000 17.441203
4.800000 15.861872
4.850000 14.666240
4.900000 13.857724
4.950000 13.453474
5.000000 13.360975
5.050000 13.528844
5.100000 13.981057
5.150000 14.666237
5.200000 15.474747
5.250000 16.379183
5.300000 17.345282
5.350000 18.335365
5.400000 19.304892
5.450000 20.202476
5.500000 20.993856
5.550000 21.706436
5.600000 22.292271
5.650000 22.662262
5.700000 22.860964
5.750000 22.939760
5.800000 22.830135
5.850000 22.487545
5.900000 21.977085
5.950000 21.333016
6.000000 20.514227
6.050000 19.541274
6.100000 18.455270
6.150000 17.269912
6.200000 16.022891
6.250000 14.745027
6.300000 13.419208
6.350000 12.110526
6.400000 10.877204
6.450000 9.695270
6.500000 8.561300
6.550000 7.574643
6.600000 6.755855
6.650000 6.039844
6.700000 5.436888
6.750000 5.029206
6.800000 4.796246
6.850000 4.686617
6.900000 4.710599
6.950000 4.878472
7.000000 5.162816
7.050000 5.512262
7.100000 5.937066
7.150000 6.464655
7.200000 7.053910
7.250000 7.619183
7.300000 8.163899
7.350000 8.725744
7.400000 9.219068
7.450000 9.568508
7.500000 9.832302
7.550000 10.068690
7.600000 10.229711
7.650000 10.260540
7.700000 10.188593
7.750000 10.034429
7.800000 9.791196
7.850000 9.452033
7.900000 9.027225
7.950000 8.540745
8.000000 8.002880
8.050000 7.406775
8.100000 6.776410
8.150000 6.163177
8.200000 5.570498
8.250000 4.929856
8.300000 4.285788
8.350000 3.720517
8.400000 3.223762
8.450000 2.747563
8.500000 2.319327
8.550000 1.969886
8.600000 1.682112
8.650000 1.445725
8.700000 1.281283
8.750000 1.164803
8.800000 1.123692
8.850000 1.205913
8.900000 1.387485
8.950000 1.647853
9.000000 1.997294
9.050000 2.422104
9.100000 2.888025
9.150000 3.398483
9.200000 3.915789
9.250000 4.368006
9.300000 4.738007
9.350000 5.056611
9.400000 5.269021
9.450000 5.316981
9.500000 5.269019
9.550000 5.155964
9.600000 4.950411
9.650000 4.642081
9.700000 4.285789
9.750000 3.915792
9.800000 3.532093
9.850000 3.158671
9.900000 2.798952
9.950000 2.456364
10.000000 2.130904
10.050000 1.815721
10.100000 1.524521
10.150000 1.253875
10.200000 0.990082
10.250000 0.712586
10.300000 0.448791
10.350000 0.215832
10.400000 0.000000
10.450000 -0.215831
10.500000 -0.397403
10.550000 -0.524162
10.600000 -0.572124
10.650000 -0.541291
10.700000 -0.459070
10.750000 -0.294627
10.800000 -0.034259
10.850000 0.304904
10.900000 0.695456
10.950000 1.099710
11.000000 1.442300
11.050000 1.730074
11.100000 2.024701
11.150000 2.281642
11.200000 2.425530
11.250000 2.483770
11.300000 2.497474
11.350000 2.439233
11.400000 2.295346
11.450000 2.113774
11.500000 1.908221
11.550000 1.671834
11.600000 1.428596
11.650000 1.168228
11.700000 0.866750
11.750000 0.578975
11.800000 0.315182
11.850000 0.006852
11.900000 -0.346015
11.950000 -0.661197
12.000000 -0.959249
12.050000 -1.267579
12.100000 -1.524521
12.150000 -1.712945
12.200000 -1.877388
12.250000 -1.993868
12.300000 -2.007572
12.350000 -1.939054
12.400000 -1.808870
12.450000 -1.610168
12.500000 -1.363504
12.550000 -1.092859
12.600000 -0.787955
12.650000 -0.496754
12.700000 -0.243238
12.750000 0.020555
12.800000 0.270646
12.850000 0.397403
12.900000 0.441940
12.950000 0.513883
13.000000 0.565271
13.050000 0.527587
13.100000 0.455644
13.150000 0.404255
13.200000 0.304904
13.250000 0.123332
13.300000 -0.051389
13.350000 -0.184999
13.400000 -0.322033
13.450000 -0.476198
13.500000 -0.623512
13.550000 -0.760547
13.600000 -0.911286
13.650000 -1.048323
13.700000 -1.157951
13.750000 -1.257302
13.800000 -1.342949
13.850000 -1.394337
13.900000 -1.432022
13.950000 -1.490262
14.000000 -1.534798
14.050000 -1.565632
14.100000 -1.606742
14.150000 -1.637575
14.200000 -1.630724
14.250000 -1.606743
14.300000 -1.586187
14.350000 -1.527947
14.400000 -1.456004
14.450000 -1.438874
14.500000 -1.438874
14.550000 -1.418319
14.600000 -1.449151
14.650000 -1.514243
14.700000 -1.551929
14.750000 -1.582762
14.800000 -1.651280
14.850000 -1.692390
14.900000 -1.668408
14.950000 -1.627297
15.000000 -1.562205
15.050000 -1.438873
15.100000 -1.281283
15.150000 -1.106563
15.200000 -0.921564
15.250000 -0.798233
15.300000 -0.726288
15.350000 -0.644067
15.400000 -0.616661
15.450000 -0.729715
15.500000 -0.887305
15.550000 -1.000360
15.600000 -1.144247
15.650000 -1.360079
15.700000 -1.531373
15.750000 -1.651280
15.800000 -1.784889
15.850000 -1.877388
15.900000 -1.891092
15.950000 -1.891091
16.000000 -1.894517
16.050000 -1.843129
16.100000 -1.774611
16.150000 -1.723223
16.200000 -1.685538
16.250000 -1.671834
16.300000 -1.658131
16.350000 -1.623872
16.400000 -1.610169
16.450000 -1.637575
16.500000 -1.644427
16.550000 -1.603317
16.600000 -1.582761
16.650000 -1.551928
16.700000 -1.497114
16.750000 -1.490262
16.800000 -1.541651
16.850000 -1.565632
16.900000 -1.565632
16.950000 -1.617020
17.000000 -1.699242
17.050000 -1.757482
17.100000 -1.798592
17.150000 -1.832851
17.200000 -1.849981
17.250000 -1.870536
17.300000 -1.904795
17.350000 -1.911647
17.400000 -1.904795
17.450000 -1.942480
17.500000 -1.969887
17.550000 -1.952757
17.600000 -1.925350
17.650000 -1.942479
17.700000 -1.990442
17.750000 -2.028127
17.800000 -2.058960
17.850000 -2.096645
17.900000 -2.161737
17.950000 -2.243958
18.000000 -2.298772
18.050000 -2.339883
18.100000 -2.377568
18.150000 -2.377568
18.200000 -2.322754
18.250000 -2.247384
18.300000 -2.154885
18.350000 -2.031553
18.400000 -1.891091
18.450000 -1.754055
18.500000 -1.613594
18.550000 -1.486836
18.600000 -1.411467
18.650000 -1.377207
18.700000 -1.363504
18.750000 -1.380634
18.800000 -1.432022
18.850000 -1.524521
18.900000 -1.647853
18.950000 -1.764333
19.000000 -1.860258
19.050000 -1.949332
19.100000 -2.028127
19.150000 -2.076089
19.200000 -2.120626
19.250000 -2.172015
19.300000 -2.195996
19.350000 -2.199422
19.400000 -2.247384
19.450000 -2.312476
19.500000 -2.322753
19.550000 -2.312476
19.600000 -2.319328
19.650000 -2.302198
19.700000 -2.261087
19.750000 -2.209699
19.800000 -2.120626
19.850000 -1.990443
19.900000 -1.826000
19.950000 -1.647853
20.000000 -1.459429
20.050000 -1.281283
20.100000 -1.089433
20.150000 -0.880453
20.200000 -0.705734
20.250000 -0.609808
20.300000 -0.541291
20.350000 -0.479625
20.400000 -0.472773
20.450000 -0.541291
20.500000 -0.606383
20.550000 -0.661196
20.600000 -0.787955
20.650000 -0.993508
20.700000 -1.192210
20.750000 -1.366930
20.800000 -1.569058
20.850000 -1.791741
20.900000 -1.976739
20.950000 -2.110348
21.000000 -2.226829
21.050000 -2.319327
21.100000 -2.346735
21.150000 -2.302198
21.200000 -2.230254
21.250000 -2.148034
21.300000 -2.028127
21.350000 -1.880814
21.400000 -1.757481
21.450000 -1.685538
21.500000 -1.675261
21.550000 -1.709519
21.600000 -1.757482
21.650000 -1.829426
21.700000 -1.935628
21.750000 -2.034979
21.800000 -2.082941
21.850000 -2.113774
21.900000 -2.127477
21.950000 -2.079515
22.000000 -1.976738
22.050000 -1.863684
22.100000 -1.709519
22.150000 -1.531373
22.200000 -1.401189
22.250000 -1.318968
22.300000 -1.240172
22.350000 -1.199062
22.400000 -1.236746
22.450000 -1.318968
22.500000 -1.414892
22.550000 -1.510817
22.600000 -1.593039
22.650000 -1.685538
22.700000 -1.788315
22.750000 -1.839703
22.800000 -1.846555
22.850000 -1.891091
22.900000 -1.928776
22.950000 -1.904795
23.000000 -1.894517
23.050000 -1.942479
23.100000 -1.963035
23.150000 -1.966461
23.200000 -2.034979
23.250000 -2.148034
23.300000 -2.219976
23.350000 -2.267940
23.400000 -2.309050
23.450000 -2.319328
23.500000 -2.305624
23.550000 -2.264514
23.600000 -2.175440
23.650000 -2.079515
23.700000 -1.983590
23.750000 -1.863684
23.800000 -1.754056
23.850000 -1.702668
23.900000 -1.661557
23.950000 -1.599891
24.000000 -1.586187
24.050000 -1.627298
24.100000 -1.692390
24.150000 -1.784888
24.200000 -1.911647
24.250000 -2.028127
24.300000 -2.106923
24.350000 -2.168588
24.400000 -2.216551
24.450000 -2.247384
24.500000 -2.247384
24.550000 -2.216551
24.600000 -2.185717
24.650000 -2.172014
24.700000 -2.141181
24.750000 -2.069238
24.800000 -2.007571
24.850000 -1.952757
24.900000 -1.891092
24.950000 -1.849980
25.000000 -1.863685
25.050000 -1.901369
25.100000 -1.949331
25.150000 -2.031553
25.200000 -2.130904
25.250000 -2.213125
25.300000 -2.274792
25.350000 -2.302198
25.400000 -2.298772
25.450000 -2.278216
25.500000 -2.254236
25.550000 -2.178866
25.600000 -2.052108
25.650000 -1.949331
25.700000 -1.867110
25.750000 -1.764333
25.800000 -1.654705
25.850000 -1.589613
25.900000 -1.551928
25.950000 -1.510817
26.000000 -1.500540
26.050000 -1.524521
26.100000 -1.551928
26.150000 -1.582761
26.200000 -1.599891
26.250000 -1.569057
26.300000 -1.538225
26.350000 -1.551929
26.400000 -1.579335
26.450000 -1.599891
26.500000 -1.664982
26.550000 -1.767760
26.600000 -1.870536
26.650000 -1.980165
26.700000 -2.103497
26.750000 -2.189144
26.800000 -2.250810
26.850000 -2.309050
26.900000 -2.329605
26.950000 -2.295347
27.000000 -2.247384
27.050000 -2.168588
27.100000 -2.038404
27.150000 -1.894517
27.200000 -1.764333
27.250000 -1.644428
27.300000 -1.545077
27.350000 -1.493688
27.400000 -1.469707
27.450000 -1.476559
27.500000 -1.510817
27.550000 -1.562206
27.600000 -1.623872
27.650000 -1.702667
27.700000 -1.747204
27.750000 -1.726649
27.800000 -1.702668
27.850000 -1.702668
27.900000 -1.664983
27.950000 -1.579336
28.000000 -1.503966
28.050000 -1.432022
28.100000 -1.353227
28.150000 -1.284709
28.200000 -1.236747
28.250000 -1.192209
28.300000 -1.151099
28.350000 -1.133970
28.400000 -1.123692
28.450000 -1.127118
28.500000 -1.130544
28.550000 -1.113414
28.600000 -1.082582
28.650000 -1.120266
28.700000 -1.199061
28.750000 -1.243598
28.800000 -1.294987
28.850000 -1.401189
28.900000 -1.514243
28.950000 -1.579336
29.000000 -1.651279
29.050000 -1.733500
29.100000 -1.771185
29.150000 -1.757482
29.200000 -1.743778
29.250000 -1.740353
29.300000 -1.719796
29.350000 -1.709519
29.400000 -1.743778
29.450000 -1.829425
29.500000 -1.901369
29.550000 -1.956183
29.600000 -2.048682
29.650000 -2.154885
29.700000 -2.165163
29.750000 -2.086367
29.800000 -2.004146
29.850000 -1.904795
29.900000 -1.723223
29.950000 -1.500540
30.000000 -1.288135
30.050000 -1.103137
30.100000 -0.969527
30.150000 -0.901009
30.200000 -0.880454
30.250000 -0.931842
30.300000 -1.051748
30.350000 -1.185358
30.400000 -1.346375
30.450000 -1.555354
30.500000 -1.750630
30.550000 -1.863684
30.600000 -1.959609
30.650000 -2.034979
30.700000 -2.052109
30.750000 -2.014423
30.800000 -1.969887
30.850000 -1.894517
30.900000 -1.791741
30.950000 -1.688963
31.000000 -1.593039
31.050000 -1.507392
31.100000 -1.438874
31.150000 -1.390911
31.200000 -1.342949
31.250000 -1.332672
31.300000 -1.370356
31.350000 -1.435448
31.400000 -1.510817
31.450000 -1.596465
31.500000 -1.706093
31.550000 -1.819148
31.600000 -1.915072
31.650000 -1.973312
31.700000 -2.021275
31.750000 -2.069238
31.800000 -2.089793
31.850000 -2.079516
31.900000 -2.069238
31.950000 -2.069238
32.000000 -2.093219
32.050000 -2.161737
32.100000 -2.257661
32.150000 -2.353587
32.200000 -2.452938
32.250000 -2.569417
32.300000 -2.675620
32.350000 -2.713305
32.400000 -2.665343
32.450000 -2.569418
32.500000 -2.463215
32.550000 -2.339883
32.600000 -2.178866
32.650000 -2.017849
32.700000 -1.904795
32.750000 -1.812296
32.800000 -1.740352
32.850000 -1.730075
32.900000 -1.784889
32.950000 -1.856832
33.000000 -1.952757
33.050000 -2.082942
33.100000 -2.185718
33.150000 -2.264514
33.200000 -2.357012
33.250000 -2.449512
33.300000 -2.504326
33.350000 -2.548862
33.400000 -2.593399
33.450000 -2.624232
33.500000 -2.658491
33.550000 -2.689324
33.600000 -2.679046
33.650000 -2.655065
33.700000 -2.651639
33.750000 -2.620806
33.800000 -2.579695
33.850000 -2.572844
33.900000 -2.562566
33.950000 -2.507752
34.000000 -2.466641
34.050000 -2.452937
34.100000 -2.422104
34.150000 -2.391272
34.200000 -2.404975
34.250000 -2.408400
34.300000 -2.384420
34.350000 -2.374142
34.400000 -2.377568
34.450000 -2.370716
34.500000 -2.350160
34.550000 -2.315902
34.600000 -2.281643
34.650000 -2.302198
34.700000 -2.360438
34.750000 -2.411827
34.800000 -2.480345
34.850000 -2.593398
34.900000 -2.692749
34.950000 -2.757842
35.000000 -2.826359
35.050000 -2.864044
35.100000 -2.802378
35.150000 -2.679046
35.200000 -2.538585
35.250000 -2.339883
35.300000 -2.110348
35.350000 -1.894517
35.400000 -1.712945
35.450000 -1.555354
35.500000 -1.445725
35.550000 -1.397763
35.600000 -1.421744
35.650000 -1.548503
35.700000 -1.716371
35.750000 -1.873962
35.800000 -2.038405
35.850000 -2.243958
35.900000 -2.411827
35.950000 -2.490622
36.000000 -2.524881
36.050000 -2.518029
36.100000 -2.415253
36.150000 -2.250809
36.200000 -2.065812
36.250000 -1.860258
36.300000 -1.627298
36.350000 -1.432022
36.400000 -1.291561
36.450000 -1.178506
36.500000 -1.106562
36.550000 -1.109988
36.600000 -1.151099
36.650000 -1.205913
36.700000 -1.298412
36.750000 -1.414893
36.800000 -1.527947
36.850000 -1.627298
36.900000 -1.706093
36.950000 -1.771185
37.000000 -1.849981
37.050000 -1.939054
37.100000 -2.021275
37.150000 -2.120626
37.200000 -2.274791
37.250000 -2.459790
37.300000 -2.610529
37.350000 -2.737286
37.400000 -2.857192
37.450000 -2.915433
37.500000 -2.891451
37.550000 -2.805804
37.600000 -2.661917
37.650000 -2.459789
37.700000 -2.261088
37.750000 -2.093219
37.800000 -1.925350
37.850000 -1.778037
37.900000 -1.702668
37.950000 -1.685538
38.000000 -1.712945
38.050000 -1.774611
38.100000 -1.849980
38.150000 -1.897944
38.200000 -1.928776
38.250000 -1.952757
38.300000 -1.945905
38.350000 -1.884240
38.400000 -1.808870
38.450000 -1.754056
38.500000 -1.712945
38.550000 -1.678686
38.600000 -1.685538
38.650000 -1.760907
38.700000 -1.873962
38.750000 -1.973313
38.800000 -2.089793
38.850000 -2.219977
38.900000 -2.315901
38.950000 -2.398123
39.000000 -2.497474
39.050000 -2.562566
39.100000 -2.559140
39.150000 -2.538584
39.200000 -2.559140
39.250000 -2.576269
39.300000 -2.548862
39.350000 -2.528306
39.400000 -2.542010
39.450000 -2.583121
39.500000 -2.620806
39.550000 -2.644787
39.600000 -2.665343
39.650000 -2.668768
39.700000 -2.627658
39.750000 -2.538585
39.800000 -2.449511
39.850000 -2.391271
39.900000 -2.309050
39.950000 -2.161737
40.000000 -2.017849
40.050000 -1.959609
40.100000 -1.973313
40.150000 -2.000720
40.200000 -2.031553
40.250000 -2.113774
40.300000 -2.226829
40.350000 -2.322754
40.400000 -2.387845
40.450000 -2.404975
40.500000 -2.336457
40.550000 -2.209699
40.600000 -2.069238
40.650000 -1.915073
40.700000 -1.760908
40.750000 -1.617021
40.800000 -1.503966
40.850000 -1.456004
40.900000 -1.483410
40.950000 -1.575910
41.000000 -1.730075
41.050000 -1.932202
41.100000 -2.148033
41.150000 -2.353587
41.200000 -2.552288
41.250000 -2.716731
41.300000 -2.792100
41.350000 -2.768119
41.400000 -2.713305
41.450000 -2.641361
41.500000 -2.514604
41.550000 -2.346735
41.600000 -2.202848
41.650000 -2.072664
41.700000 -1.935628
41.750000 -1.815722
41.800000 -1.750630
41.850000 -1.726649
41.900000 -1.733501
41.950000 -1.757482
42.000000 -1.795166
42.050000 -1.853407
42.100000 -1.932202
42.150000 -1.980164
42.200000 -2.017849
42.250000 -2.076089
42.300000 -2.137756
42.350000 -2.185718
42.400000 -2.237107
42.450000 -2.329605
42.500000 -2.432382
42.550000 -2.548862
42.600000 -2.661917
42.650000 -2.750989
42.700000 -2.792100
42.750000 -2.764694
42.800000 -2.696175
42.850000 -2.613955
42.900000 -2.497474
42.950000 -2.339883
43.000000 -2.178866
43.050000 -2.052108
43.100000 -1.942479
43.150000 -1.846555
43.200000 -1.805444
43.250000 -1.822573
43.300000 -1.853407
43.350000 -1.894518
43.400000 -1.966461
43.450000 -2.048682
43.500000 -2.086367
43.550000 -2.055534
43.600000 -1.980165
43.650000 -1.918499
43.700000 -1.887665
43.750000 -1.856833
43.800000 -1.836277
43.850000 -1.873962
43.900000 -1.952757
43.950000 -2.052108
44.000000 -2.199422
44.050000 -2.408400
44.100000 -2.603676
44.150000 -2.750990
44.200000 -2.881174
44.250000 -2.980525
44.300000 -3.004506
44.350000 -2.963395
44.400000 -2.888026
44.450000 -2.809230
44.500000 -2.703027
44.550000 -2.565992
44.600000 -2.449511
44.650000 -2.370716
44.700000 -2.295347
44.750000 -2.206273
44.800000 -2.172014
44.850000 -2.175440
44.900000 -2.165163
44.950000 -2.168589
45.000000 -2.206273
45.050000 -2.216551
45.100000 -2.189144
45.150000 -2.175440
45.200000 -2.172014
45.250000 -2.134329
45.300000 -2.076089
45.350000 -2.010998
45.400000 -1.935628
45.450000 -1.867110
45.500000 -1.819147
45.550000 -1.764333
45.600000 -1.685538
45.650000 -1.634149
45.700000 -1.623872
45.750000 -1.627297
45.800000 -1.630723
45.850000 -1.651279
45.900000 -1.688964
45.950000 -1.733500
46.000000 -1.771186
46.050000 -1.805444
46.100000 -1.863684
46.150000 -1.911646
46.200000 -1.928776
46.250000 -1.966460
46.300000 -2.031553
46.350000 -2.072663
46.400000 -2.093219
46.450000 -2.117201
46.500000 -2.106923
46.550000 -2.072663
46.600000 -2.031553
46.650000 -1.976739
46.700000 -1.894518
46.750000 -1.802018
46.800000 -1.726649
46.850000 -1.685538
46.900000 -1.675261
46.950000 -1.675260
47.000000 -1.712945
47.050000 -1.839703
47.100000 -1.980165
47.150000 -2.062385
47.200000 -2.120626
47.250000 -2.189144
47.300000 -2.202848
47.350000 -2.148034
47.400000 -2.079515
47.450000 -1.993868
47.500000 -1.849981
47.550000 -1.716371
47.600000 -1.641001
47.650000 -1.603316
47.700000 -1.586188
47.750000 -1.644427
47.800000 -1.778037
47.850000 -1.942480
47.900000 -2.127478
47.950000 -2.312476
48.000000 -2.470067
48.050000 -2.593399
48.100000 -2.661917
48.150000 -2.627657
48.200000 -2.531733
48.250000 -2.439234
48.300000 -2.336457
48.350000 -2.202848
48.400000 -2.082941
48.450000 -2.017849
48.500000 -1.987017
48.550000 -1.976739
48.600000 -2.010998
48.650000 -2.093219
48.700000 -2.202847
48.750000 -2.309050
48.800000 -2.394698
48.850000 -2.466641
48.900000 -2.494048
48.950000 -2.439234
49.000000 -2.315902
49.050000 -2.178866
49.100000 -2.034979
49.150000 -1.822573
49.200000 -1.596464
49.250000 -1.449152
49.300000 -1.366931
49.350000 -1.294986
49.400000 -1.291560
49.450000 -1.404615
49.500000 -1.599891
49.550000 -1.846554
49.600000 -2.141181
49.650000 -2.446086
49.700000 -2.720157
49.750000 -2.953118
49.800000 -3.120986
49.850000 -3.210059
49.900000 -3.189504
49.950000 -3.059320
50.000000 -2.860618
50.050000 -2.613954
50.100000 -2.336457
50.150000 -2.065812
50.200000 -1.825999
50.250000 -1.630724
50.300000 -1.524521
50.350000 -1.510818
50.400000 -1.545077
50.450000 -1.641002
50.500000 -1.826000
50.550000 -2.017850
50.600000 -2.182292
50.650000 -2.360438
50.700000 -2.521455
50.750000 -2.589973
50.800000 -2.610528
50.850000 -2.627658
50.900000 -2.583122
50.950000 -2.452937
51.000000 -2.333031
51.050000 -2.247384
51.100000 -2.144608
51.150000 -2.017850
51.200000 -1.918499
51.250000 -1.860258
51.300000 -1.822573
51.350000 -1.802018
51.400000 -1.812296
51.450000 -1.856832
51.500000 -1.918498
51.550000 -1.983591
51.600000 -2.038404
51.650000 -2.089793
51.700000 -2.165163
51.750000 -2.250810
51.800000 -2.339883
51.850000 -2.418679
51.900000 -2.494048
51.950000 -2.548862
52.000000 -2.569418
52.050000 -2.579696
52.100000 -2.589973
52.150000 -2.565992
52.200000 -2.504325
52.250000 -2.439233
52.300000 -2.377568
52.350000 -2.298772
52.400000 -2.226829
52.450000 -2.189144
52.500000 -2.158311
52.550000 -2.124052
52.600000 -2.127478
52.650000 -2.192570
52.700000 -2.271365
52.750000 -2.312476
52.800000 -2.370716
52.850000 -2.473493
52.900000 -2.545436
52.950000 -2.552288
53.000000 -2.548862
53.050000 -2.562566
53.100000 -2.507751
53.150000 -2.384419
53.200000 -2.257662
53.250000 -2.130904
53.300000 -1.980165
53.350000 -1.829425
53.400000 -1.695816
53.450000 -1.572483
53.500000 -1.459430
53.550000 -1.370357
53.600000 -1.301838
53.650000 -1.271005
53.700000 -1.298412
53.750000 -1.360078
53.800000 -1.442300
53.850000 -1.569058
53.900000 -1.716371
53.950000 -1.832852
54.000000 -1.969887
54.050000 -2.141181
54.100000 -2.274791
54.150000 -2.339883
54.200000 -2.380994
54.250000 -2.411827
54.300000 -2.404975
54.350000 -2.370716
54.400000 -2.312476
54.450000 -2.209700
54.500000 -2.103496
54.550000 -2.045257
54.600000 -1.997294
54.650000 -1.928776
54.700000 -1.880814
54.750000 -1.867110
54.800000 -1.870536
54.850000 -1.897944
54.900000 -1.942479
54.950000 -1.987017
55.000000 -2.045257
55.050000 -2.103497
55.100000 -2.165163
55.150000 -2.243958
55.200000 -2.339883
55.250000 -2.401549
55.300000 -2.446085
55.350000 -2.476919
55.400000 -2.466641
55.450000 -2.446085
55.500000 -2.466641
55.550000 -2.470067
55.600000 -2.425530
55.650000 -2.401549
55.700000 -2.411826
55.750000 -2.387846
55.800000 -2.350161
55.850000 -2.357013
55.900000 -2.363865
55.950000 -2.346735
56.000000 -2.336457
56.050000 -2.322753
56.100000 -2.274791
56.150000 -2.213125
56.200000 -2.161737
56.250000 -2.124052
56.300000 -2.134330
56.350000 -2.168588
56.400000 -2.172014
56.450000 -2.168588
56.500000 -2.185718
56.550000 -2.178866
56.600000 -2.154885
56.650000 -2.134329
56.700000 -2.079515
56.750000 -1.980165
56.800000 -1.915073
56.850000 -1.863684
56.900000 -1.784889
56.950000 -1.743779
57.000000 -1.784889
57.050000 -1.846555
57.100000 -1.925350
57.150000 -2.076089
57.200000 -2.254236
57.250000 -2.404975
57.300000 -2.562566
57.350000 -2.706454
57.400000 -2.792101
57.450000 -2.840063
57.500000 -2.867470
57.550000 -2.819507
57.600000 -2.713305
57.650000 -2.610529
57.700000 -2.504326
57.750000 -2.380993
57.800000 -2.274791
57.850000 -2.189144
57.900000 -2.117200
57.950000 -2.086367
58.000000 -2.089793
58.050000 -2.124052
58.100000 -2.206273
58.150000 -2.309050
58.200000 -2.377568
58.250000 -2.428956
58.300000 -2.494048
58.350000 -2.524881
58.400000 -2.531733
58.450000 -2.542011
58.500000 -2.514604
58.550000 -2.432382
58.600000 -2.391272
58.650000 -2.394697
58.700000 -2.363864
58.750000 -2.326179
58.800000 -2.329605
58.850000 -2.339883
58.900000 -2.309050
58.950000 -2.298772
59.000000 -2.309050
59.050000 -2.302199
59.100000 -2.261087
59.150000 -2.182292
59.200000 -2.076089
59.250000 -1.963035
59.300000 -1.849981
59.350000 -1.726649
59.400000 -1.654705
59.450000 -1.641001
59.500000 -1.644428
59.550000 -1.664983
59.600000 -1.760908
59.650000 -1.897944
59.700000 -2.024701
59.750000 -2.144607
59.800000 -2.261087
59.850000 -2.346735
59.900000 -2.425530
59.950000 -2.480344
60.000000 -2.476919
60.050000 -2.408401
60.100000 -2.329605
60.150000 -2.233680
60.200000 -2.110349
60.250000 -2.000720
60.300000 -1.901369
60.350000 -1.788314
60.400000 -1.688963
60.450000 -1.664983
60.500000 -1.682112
60.550000 -1.699242
60.600000 -1.743778
60.650000 -1.836277
60.700000 -1.939054
60.750000 -2.031553
60.800000 -2.130903
60.850000 -2.230255
60.900000 -2.298772
60.950000 -2.336457
61.000000 -2.367290
61.050000 -2.411826
61.100000 -2.470067
61.150000 -2.494048
61.200000 -2.494048
61.250000 -2.514603
61.300000 -2.535159
61.350000 -2.514603
61.400000 -2.487196
61.450000 -2.500899
61.500000 -2.480344
61.550000 -2.398123
61.600000 -2.315902
61.650000 -2.264513
61.700000 -2.199421
61.750000 -2.120626
61.800000 -2.072663
61.850000 -2.058960
61.900000 -2.058960
61.950000 -2.093219
62.000000 -2.137755
62.050000 -2.182292
62.100000 -2.233680
62.150000 -2.302198
62.200000 -2.377568
62.250000 -2.449512
62.300000 -2.500900
62.350000 -2.518029
62.400000 -2.535159
62.450000 -2.569418
62.500000 -2.600251
62.550000 -2.617380
62.600000 -2.631084
62.650000 -2.641361
62.700000 -2.665343
62.750000 -2.706453
62.800000 -2.727008
62.850000 -2.727008
62.900000 -2.740712
62.950000 -2.747564
63.000000 -2.727009
63.050000 -2.709879
63.100000 -2.685898
63.150000 -2.589973
63.200000 -2.476919
63.250000 -2.432382
63.300000 -2.422104
63.350000 -2.380993
63.400000 -2.394697
63.450000 -2.483770
63.500000 -2.583121
63.550000 -2.699601
63.600000 -2.884599
63.650000 -3.069598
63.700000 -3.206633
63.750000 -3.305984
63.800000 -3.374502
63.850000 -3.381353
63.900000 -3.347095
63.950000 -3.261447
64.000000 -3.110708
64.050000 -2.949692
64.100000 -2.816082
64.150000 -2.661916
64.200000 -2.476918
64.250000 -2.339883
64.300000 -2.254235
64.350000 -2.165163
64.400000 -2.079516
64.450000 -2.034978
64.500000 -1.990442
64.550000 -1.932202
64.600000 -1.897943
64.650000 -1.884239
64.700000 -1.884240
64.750000 -1.884240
64.800000 -1.891091
64.850000 -1.904795
64.900000 -1.921924
64.950000 -1.956183
65.000000 -2.014424
65.050000 -2.103497
65.100000 -2.178866
65.150000 -2.233681
65.200000 -2.315901
65.250000 -2.418678
65.300000 -2.483771
65.350000 -2.511178
65.400000 -2.507751
65.450000 -2.490622
65.500000 -2.452937
65.550000 -2.394698
65.600000 -2.329606
65.650000 -2.281643
65.700000 -2.254236
65.750000 -2.206273
65.800000 -2.158311
65.850000 -2.151459
65.900000 -2.168588
65.950000 -2.182292
66.000000 -2.233681
66.050000 -2.312476
66.100000 -2.339883
66.150000 -2.339883
66.200000 -2.377568
66.250000 -2.401549
66.300000 -2.380993
66.350000 -2.404975
66.400000 -2.470067
66.450000 -2.514603
66.500000 -2.562566
66.550000 -2.658490
66.600000 -2.737286
66.650000 -2.771545
66.700000 -2.788675
66.750000 -2.750990
66.800000 -2.620806
66.850000 -2.470067
66.900000 -2.309050
66.950000 -2.093219
67.000000 -1.877388
67.050000 -1.723222
67.100000 -1.599891
67.150000 -1.514244
67.200000 -1.527947
67.250000 -1.644427
67.300000 -1.805444
67.350000 -1.980164
67.400000 -2.178866
67.450000 -2.363864
67.500000 -2.507752
67.550000 -2.613954
67.600000 -2.661917
67.650000 -2.655065
67.700000 -2.603677
67.750000 -2.535158
67.800000 -2.446085
67.850000 -2.350161
67.900000 -2.271366
67.950000 -2.202848
68.000000 -2.158311
68.050000 -2.148034
68.100000 -2.161736
68.150000 -2.175440
68.200000 -2.182292
68.250000 -2.209699
68.300000 -2.254235
68.350000 -2.267939
68.400000 -2.247384
68.450000 -2.250810
68.500000 -2.271365
68.550000 -2.243958
68.600000 -2.189143
68.650000 -2.178866
68.700000 -2.182292
68.750000 -2.144607
68.800000 -2.089793
68.850000 -2.069238
68.900000 -2.052108
68.950000 -2.010998
69.000000 -1.980164
69.050000 -1.976739
69.100000 -1.973313
69.150000 -1.980164
69.200000 -2.045256
69.250000 -2.148033
69.300000 -2.233680
69.350000 -2.315901
69.400000 -2.425530
69.450000 -2.548862
69.500000 -2.655065
69.550000 -2.744138
69.600000 -2.812656
69.650000 -2.874322
69.700000 -2.915433
69.750000 -2.915433
69.800000 -2.874322
69.850000 -2.805804
69.900000 -2.703027
69.950000 -2.572844
70.000000 -2.439234
70.050000 -2.295347
70.100000 -2.137755
70.150000 -1.987016
70.200000 -1.860259
70.250000 -1.747204
70.300000 -1.651279
70.350000 -1.593039
70.400000 -1.579336
70.450000 -1.575909
70.500000 -1.589613
70.550000 -1.637575
70.600000 -1.692390
70.650000 -1.760908
70.700000 -1.849980
70.750000 -1.925351
70.800000 -1.990442
70.850000 -2.082941
70.900000 -2.175440
70.950000 -2.230255
71.000000 -2.309050
71.050000 -2.435808
71.100000 -2.524881
71.150000 -2.572843
71.200000 -2.658491
71.250000 -2.754415
71.300000 -2.781823
71.350000 -2.781823
71.400000 -2.805804
71.450000 -2.809230
71.500000 -2.750990
71.550000 -2.661917
71.600000 -2.586547
71.650000 -2.555714
71.700000 -2.542010
71.750000 -2.497474
71.800000 -2.439234
71.850000 -2.418678
71.900000 -2.418678
71.950000 -2.380994
72.000000 -2.326179
72.050000 -2.291920
72.100000 -2.250810
72.150000 -2.175441
72.200000 -2.086367
72.250000 -2.007572
72.300000 -1.925350
72.350000 -1.829426
72.400000 -1.740353
72.450000 -1.685538
72.500000 -1.678686
72.550000 -1.685538
72.600000 -1.706094
72.650000 -1.795167
72.700000 -1.911646
72.750000 -1.997294
72.800000 -2.076089
72.850000 -2.178866
72.900000 -2.261087
72.950000 -2.298772
73.000000 -2.309050
73.050000 -2.295347
73.100000 -2.233680
73.150000 -2.117200
73.200000 -1.983590
73.250000 -1.863684
73.300000 -1.740352
73.350000 -1.593039
73.400000 -1.476559
73.450000 -1.445726
73.500000 -1.466281
73.550000 -1.473132
73.600000 -1.517669
73.650000 -1.647853
73.700000 -1.795166
73.750000 -1.942480
73.800000 -2.134329
73.850000 -2.357012
73.900000 -2.528307
73.950000 -2.644787
74.000000 -2.771545
74.050000 -2.870896
74.100000 -2.901729
74.150000 -2.874322
74.200000 -2.816082
74.250000 -2.737286
74.300000 -2.596825
74.350000 -2.398123
74.400000 -2.178866
74.450000 -1.990442
74.500000 -1.819148
74.550000 -1.644427
74.600000 -1.514244
74.650000 -1.452578
74.700000 -1.411467
74.750000 -1.332671
74.800000 -1.281283
74.850000 -1.294987
74.900000 -1.332671
74.950000 -1.360079
75.000000 -1.394337
75.050000 -1.459429
75.100000 -1.541650
75.150000 -1.603317
75.200000 -1.658131
75.250000 -1.730074
75.300000 -1.825999
75.350000 -1.894517
75.400000 -1.921924
75.450000 -1.949332
75.500000 -1.956183
75.550000 -1.932202
75.600000 -1.928776
75.650000 -1.952758
75.700000 -1.935628
75.750000 -1.894517
75.800000 -1.904794
75.850000 -1.945906
75.900000 -1.969887
75.950000 -2.010997
76.000000 -2.086367
76.050000 -2.158310
76.100000 -2.209699
76.150000 -2.240532
76.200000 -2.261087
76.250000 -2.309050
76.300000 -2.357013
76.350000 -2.339883
76.400000 -2.302198
76.450000 -2.315902
76.500000 -2.326179
76.550000 -2.274791
76.600000 -2.240532
76.650000 -2.240533
76.700000 -2.219977
76.750000 -2.178866
76.800000 -2.175440
76.850000 -2.178866
76.900000 -2.148033
76.950000 -2.141181
77.000000 -2.178866
77.050000 -2.223403
77.100000 -2.271365
77.150000 -2.333031
77.200000 -2.425530
77.250000 -2.518030
77.300000 -2.576269
77.350000 -2.579695
77.400000 -2.572844
77.450000 -2.548862
77.500000 -2.473493
77.550000 -2.339883
77.600000 -2.185718
77.650000 -2.024701
77.700000 -1.849980
77.750000 -1.706093
77.800000 -1.575910
77.850000 -1.421745
77.900000 -1.301838
77.950000 -1.240172
78.000000 -1.192210
78.050000 -1.161376
78.100000 -1.175080
78.150000 -1.192209
78.200000 -1.195636
78.250000 -1.267580
78.300000 -1.380633
78.350000 -1.449152
78.400000 -1.521095
78.450000 -1.654705
78.500000 -1.767759
78.550000 -1.822573
78.600000 -1.887665
78.650000 -1.963035
78.700000 -1.987016
78.750000 -1.987017
78.800000 -1.993868
78.850000 -1.983591
78.900000 -1.976739
78.950000 -1.993868
79.000000 -2.000719
79.050000 -2.017849
79.100000 -2.086367
79.150000 -2.158311
79.200000 -2.233681
79.250000 -2.343309
79.300000 -2.442660
79.350000 -2.476919
79.400000 -2.504326
79.450000 -2.511178
79.500000 -2.446086
79.550000 -2.336457
79.600000 -2.250810
79.650000 -2.161736
79.700000 -2.058960
79.750000 -1.983590
79.800000 -1.935628
79.850000 -1.904795
79.900000 -1.911647
79.950000 -1.942480
80.000000 -1.966461
80.050000 -2.021275
80.100000 -2.093219
80.150000 -2.124052
80.200000 -2.130904
80.250000 -2.158311
80.300000 -2.175440
80.350000 -2.144607
80.400000 -2.110349
80.450000 -2.076090
80.500000 -2.024701
80.550000 -2.004146
80.600000 -2.041831
80.650000 -2.069238
80.700000 -2.055534
80.750000 -2.055534
80.800000 -2.100070
80.850000 -2.134329
80.900000 -2.168588
80.950000 -2.195996
81.000000 -2.202847
81.050000 -2.209699
81.100000 -2.240532
81.150000 -2.261088
81.200000 -2.257661
81.250000 -2.281643
81.300000 -2.312476
81.350000 -2.281643
81.400000 -2.233681
81.450000 -2.233680
81.500000 -2.243958
81.550000 -2.223403
81.600000 -2.202847
81.650000 -2.206273
81.700000 -2.233680
81.750000 -2.254236
81.800000 -2.243958
81.850000 -2.230254
81.900000 -2.254235
81.950000 -2.261088
82.000000 -2.213126
82.050000 -2.141182
82.100000 -2.079515
82.150000 -1.993868
82.200000 -1.887665
82.250000 -1.805444
82.300000 -1.730074
82.350000 -1.678686
82.400000 -1.699242
82.450000 -1.778037
82.500000 -1.849981
82.550000 -1.949332
82.600000 -2.117200
82.650000 -2.295346
82.700000 -2.432382
82.750000 -2.548862
82.800000 -2.641361
82.850000 -2.648213
82.900000 -2.593398
82.950000 -2.535159
83.000000 -2.463215
83.050000 -2.339883
83.100000 -2.182292
83.150000 -2.004145
83.200000 -1.829426
83.250000 -1.668409
83.300000 -1.517670
83.350000 -1.363505
83.400000 -1.233321
83.450000 -1.154525
83.500000 -1.089433
83.550000 -1.010638
83.600000 -0.962675
83.650000 -0.979805
83.700000 -1.020915
83.750000 -1.055174
83.800000 -1.127118
83.850000 -1.243598
83.900000 -1.373782
83.950000 -1.507392
84.000000 -1.661556
84.050000 -1.832852
84.100000 -1.949331
84.150000 -2.000720
84.200000 -2.038405
84.250000 -2.089793
84.300000 -2.106923
84.350000 -2.082941
84.400000 -2.058960
84.450000 -2.058960
84.500000 -2.069238
84.550000 -2.076090
84.600000 -2.079515
84.650000 -2.082941
84.700000 -2.079515
84.750000 -2.041831
84.800000 -1.959609
84.850000 -1.891091
84.900000 -1.832851
84.950000 -1.747204
85.000000 -1.651279
85.050000 -1.586187
85.100000 -1.531373
85.150000 -1.459429
85.200000 -1.401189
85.250000 -1.373782
85.300000 -1.349801
85.350000 -1.336098
85.400000 -1.360079
85.450000 -1.418318
85.500000 -1.466281
85.550000 -1.503966
85.600000 -1.562206
85.650000 -1.641002
85.700000 -1.733500
85.750000 -1.836277
85.800000 -1.959609
85.850000 -2.110348
85.900000 -2.243958
85.950000 -2.339883
86.000000 -2.425530
86.050000 -2.507751
86.100000 -2.524881
86.150000 -2.449512
86.200000 -2.343309
86.250000 -2.264513
86.300000 -2.192569
86.350000 -2.110348
86.400000 -2.062386
86.450000 -2.089793
86.500000 -2.158310
86.550000 -2.202847
86.600000 -2.257662
86.650000 -2.370716
86.700000 -2.507751
86.750000 -2.600251
86.800000 -2.637935
86.850000 -2.668769
86.900000 -2.696175
86.950000 -2.679046
87.000000 -2.613954
87.050000 -2.542011
87.100000 -2.473493
87.150000 -2.387845
87.200000 -2.315902
87.250000 -2.285069
87.300000 -2.271365
87.350000 -2.240533
87.400000 -2.216551
87.450000 -2.209699
87.500000 -2.185717
87.550000 -2.130903
87.600000 -2.052108
87.650000 -1.942480
87.700000 -1.795166
87.750000 -1.637575
87.800000 -1.483410
87.850000 -1.349801
87.900000 -1.226469
87.950000 -1.140822
88.000000 -1.113414
88.050000 -1.147674
88.100000 -1.205913
88.150000 -1.281283
88.200000 -1.401189
88.250000 -1.534799
88.300000 -1.630724
88.350000 -1.699242
88.400000 -1.750630
88.450000 -1.764333
88.500000 -1.723222
88.550000 -1.658131
88.600000 -1.586187
88.650000 -1.503966
88.700000 -1.442300
88.750000 -1.411467
88.800000 -1.401189
88.850000 -1.432022
88.900000 -1.531373
88.950000 -1.678686
89.000000 -1.826000
89.050000 -2.004145
89.100000 -2.206273
89.150000 -2.370716
89.200000 -2.473493
89.250000 -2.555714
89.300000 -2.586547
89.350000 -2.562565
89.400000 -2.538585
89.450000 -2.480345
89.500000 -2.360439
89.550000 -2.219977
89.600000 -2.100070
89.650000 -1.973313
89.700000 -1.843129
89.750000 -1.750630
89.800000 -1.682112
89.850000 -1.630723
89.900000 -1.620446
89.950000 -1.654705
90.000000 -1.678687
90.050000 -1.709519
90.100000 -1.774612
90.150000 -1.853406
90.200000 -1.932202
90.250000 -2.028127
90.300000 -2.110348
90.350000 -2.161737
90.400000 -2.213125
90.450000 -2.264514
90.500000 -2.285069
90.550000 -2.295346
90.600000 -2.315901
90.650000 -2.336457
90.700000 -2.346735
90.750000 -2.363864
90.800000 -2.384419
90.850000 -2.411826
90.900000 -2.476919
90.950000 -2.538585
91.000000 -2.569417
91.050000 -2.600251
91.100000 -2.651639
91.150000 -2.661917
91.200000 -2.607102
91.250000 -2.569417
91.300000 -2.521455
91.350000 -2.387846
91.400000 -2.219977
91.450000 -2.079515
91.500000 -1.921924
91.550000 -1.740352
91.600000 -1.613594
91.650000 -1.545077
91.700000 -1.479984
91.750000 -1.438873
91.800000 -1.432022
91.850000 -1.435448
91.900000 -1.466281
91.950000 -1.524521
92.000000 -1.569058
92.050000 -1.617020
92.100000 -1.685538
92.150000 -1.747204
92.200000 -1.795166
92.250000 -1.891091
92.300000 -2.000720
92.350000 -2.052108
92.400000 -2.103497
92.450000 -2.213125
92.500000 -2.319328
92.550000 -2.350161
92.600000 -2.353587
92.650000 -2.367290
92.700000 -2.353587
92.750000 -2.295347
92.800000 -2.213125
92.850000 -2.106922
92.900000 -1.993868
92.950000 -1.894517
93.000000 -1.805444
93.050000 -1.702667
93.100000 -1.593039
93.150000 -1.503966
93.200000 -1.452577
93.250000 -1.449152
93.300000 -1.462855
93.350000 -1.490263
93.400000 -1.551928
93.450000 -1.658131
93.500000 -1.802019
93.550000 -1.969887
93.600000 -2.151459
93.650000 -2.322754
93.700000 -2.446086
93.750000 -2.504326
93.800000 -2.521455
93.850000 -2.480345
93.900000 -2.350161
93.950000 -2.144607
94.000000 -1.911646
94.050000 -1.688963
94.100000 -1.493688
94.150000 -1.346375
94.200000 -1.257302
94.250000 -1.257302
94.300000 -1.336097
94.350000 -1.479985
94.400000 -1.668409
94.450000 -1.901369
94.500000 -2.130903
94.550000 -2.295346
94.600000 -2.408401
94.650000 -2.497474
94.700000 -2.531733
94.750000 -2.490622
94.800000 -2.384419
94.850000 -2.261088
94.900000 -2.137755
94.950000 -2.021275
95.000000 -1.932202
95.050000 -1.887665
95.100000 -1.894517
95.150000 -1.932203
95.200000 -1.987017
95.250000 -2.072664
95.300000 -2.175441
95.350000 -2.274791
95.400000 -2.353587
95.450000 -2.401549
95.500000 -2.401549
95.550000 -2.384420
95.600000 -2.367290
95.650000 -2.336457
95.700000 -2.298772
95.750000 -2.278217
95.800000 -2.264513
95.850000 -2.254236
95.900000 -2.261088
95.950000 -2.264514
96.000000 -2.240532
96.050000 -2.233680
96.100000 -2.250809
96.150000 -2.213125
96.200000 -2.148033
96.250000 -2.120626
96.300000 -2.086367
96.350000 -2.021275
96.400000 -1.993868
96.450000 -2.038405
96.500000 -2.058960
96.550000 -2.048682
96.600000 -2.079515
96.650000 -2.151459
96.700000 -2.189144
96.750000 -2.202847
96.800000 -2.250810
96.850000 -2.285069
96.900000 -2.271365
96.950000 -2.230254
97.000000 -2.202847
97.050000 -2.137755
97.100000 -2.038404
97.150000 -1.963035
97.200000 -1.897943
97.250000 -1.826000
97.300000 -1.760908
97.350000 -1.706094
97.400000 -1.651279
97.450000 -1.610168
97.500000 -1.565632
97.550000 -1.500539
97.600000 -1.438874
97.650000 -1.428596
97.700000 -1.459429
97.750000 -1.521095
97.800000 -1.630724
97.850000 -1.795166
97.900000 -1.976739
97.950000 -2.172014
98.000000 -2.374142
98.050000 -2.576269
98.100000 -2.727009
98.150000 -2.802378
98.200000 -2.816081
98.250000 -2.792100
98.300000 -2.709879
98.350000 -2.555714
98.400000 -2.363864
98.450000 -2.178866
98.500000 -2.010998
98.550000 -1.887665
98.600000 -1.849981
98.650000 -1.873962
98.700000 -1.939054
98.750000 -2.045257
98.800000 -2.192570
98.850000 -2.367291
98.900000 -2.538585
98.950000 -2.665342
99.000000 -2.740713
99.050000 -2.785249
99.100000 -2.761268
99.150000 -2.641361
99.200000 -2.476919
99.250000 -2.315902
99.300000 -2.120626
99.350000 -1.904795
99.400000 -1.736926
99.450000 -1.664983
99.500000 -1.664983
99.550000 -1.695816
99.600000 -1.788314
99.650000 -1.963036
99.700000 -2.178866
99.750000 -2.360438
99.800000 -2.518029
99.850000 -2.668769
99.900000 -2.754416
99.950000 -2.730434
100.000000 -2.620806
100.050000 -2.480345
100.100000 -2.302198
100.150000 -2.082941
100.200000 -1.867110
100.250000 -1.712945
100.300000 -1.623872
100.350000 -1.575909
100.400000 -1.565632
100.450000 -1.599891
100.500000 -1.688964
100.550000 -1.815721
100.600000 -1.952757
100.650000 -2.069238
100.700000 -2.151459
100.750000 -2.209699
100.800000 -2.237106
100.850000 -2.233681
100.900000 -2.175441
100.950000 -2.069238
101.000000 -1.963035
101.050000 -1.870536
101.100000 -1.791740
101.150000 -1.750630
101.200000 -1.757481
101.250000 -1.795167
101.300000 -1.873962
101.350000 -1.993868
101.400000 -2.117201
101.450000 -2.219976
101.500000 -2.305624
101.550000 -2.384420
101.600000 -2.446085
101.650000 -2.483770
101.700000 -2.459790
101.750000 -2.377568
101.800000 -2.295347
101.850000 -2.254236
101.900000 -2.219977
101.950000 -2.182292
102.000000 -2.195995
102.050000 -2.271365
102.100000 -2.350161
102.150000 -2.422104
102.200000 -2.507751
102.250000 -2.572844
102.300000 -2.583121
102.350000 -2.552288
102.400000 -2.490622
102.450000 -2.411827
102.500000 -2.329606
102.550000 -2.240533
102.600000 -2.148033
102.650000 -2.069238
102.700000 -2.014424
102.750000 -2.004145
102.800000 -2.052108
102.850000 -2.137756
102.900000 -2.206273
102.950000 -2.257661
103.000000 -2.319327
103.050000 -2.360438
103.100000 -2.339883
103.150000 -2.278217
103.200000 -2.192570
103.250000 -2.069237
103.300000 -1.911647
103.350000 -1.754056
103.400000 -1.641002
103.450000 -1.589613
103.500000 -1.569058
103.550000 -1.572483
103.600000 -1.634150
103.650000 -1.743778
103.700000 -1.853407
103.750000 -1.949331
103.800000 -2.058960
103.850000 -2.168588
103.900000 -2.237106
103.950000 -2.271366
104.000000 -2.285069
104.050000 -2.250810
104.100000 -2.178866
104.150000 -2.110348
104.200000 -2.065812
104.250000 -2.007572
104.300000 -1.952757
104.350000 -1.908221
104.400000 -1.870536
104.450000 -1.849981
104.500000 -1.867110
104.550000 -1.897944
104.600000 -1.915073
104.650000 -1.918498
104.700000 -1.935628
104.750000 -1.976739
104.800000 -2.031552
104.850000 -2.096645
104.900000 -2.161737
104.950000 -2.213125
105.000000 -2.264513
105.050000 -2.333031
105.100000 -2.380993
105.150000 -2.370716
105.200000 -2.353587
105.250000 -2.367290
105.300000 -2.339883
105.350000 -2.233680
105.400000 -2.106922
105.450000 -1.969886
105.500000 -1.784889
105.550000 -1.610168
105.600000 -1.483411
105.650000 -1.353226
105.700000 -1.226469
105.750000 -1.171654
105.800000 -1.202488
105.850000 -1.277857
105.900000 -1.387486
105.950000 -1.541651
106.000000 -1.719797
106.050000 -1.921924
106.100000 -2.127478
106.150000 -2.309050
106.200000 -2.456364
106.250000 -2.548863
106.300000 -2.589973
106.350000 -2.583121
106.400000 -2.538585
106.450000 -2.449512
106.500000 -2.360439
106.550000 -2.267940
106.600000 -2.165163
106.650000 -2.052108
106.700000 -1.980165
106.750000 -1.928776
106.800000 -1.908221
106.850000 -1.939054
106.900000 -1.976739
106.950000 -1.973313
107.000000 -1.973313
107.050000 -2.014423
107.100000 -2.045257
107.150000 -2.041831
107.200000 -2.041831
107.250000 -2.034978
107.300000 -1.973313
107.350000 -1.880814
107.400000 -1.802019
107.450000 -1.730075
107.500000 -1.617020
107.550000 -1.493688
107.600000 -1.414892
107.650000 -1.380634
107.700000 -1.336097
107.750000 -1.288134
107.800000 -1.291560
107.850000 -1.346374
107.900000 -1.373782
107.950000 -1.380634
108.000000 -1.401189
108.050000 -1.435448
108.100000 -1.456003
108.150000 -1.493688
108.200000 -1.565631
108.250000 -1.627298
108.300000 -1.688963
108.350000 -1.812296
108.400000 -1.952757
108.450000 -2.065811
108.500000 -2.172014
108.550000 -2.267940
108.600000 -2.322754
108.650000 -2.343309
108.700000 -2.360438
108.750000 -2.343309
108.800000 -2.309050
108.850000 -2.291920
108.900000 -2.243958
108.950000 -2.175441
109.000000 -2.148033
109.050000 -2.175440
109.100000 -2.206274
109.150000 -2.247384
109.200000 -2.315902
109.250000 -2.391272
109.300000 -2.442660
109.350000 -2.452937
109.400000 -2.408401
109.450000 -2.346735
109.500000 -2.271365
109.550000 -2.120626
109.600000 -1.932202
109.650000 -1.778037
109.700000 -1.630724
109.750000 -1.449152
109.800000 -1.308690
109.850000 -1.267580
109.900000 -1.260727
109.950000 -1.288135
110.000000 -1.394338
110.050000 -1.569058
110.100000 -1.747204
110.150000 -1.928776
110.200000 -2.113774
110.250000 -2.267939
110.300000 -2.367290
110.350000 -2.425531
110.400000 -2.442660
110.450000 -2.425530
110.500000 -2.380994
110.550000 -2.302198
110.600000 -2.206273
110.650000 -2.127478
110.700000 -2.069238
110.750000 -2.007572
110.800000 -1.925350
110.850000 -1.867110
110.900000 -1.829425
110.950000 -1.754056
111.000000 -1.641002
111.050000 -1.555354
111.100000 -1.473132
111.150000 -1.349801
111.200000 -1.240172
111.250000 -1.195636
111.300000 -1.188784
111.350000 -1.181932
111.400000 -1.216191
111.450000 -1.308690
111.500000 -1.418319
111.550000 -1.524521
111.600000 -1.630724
111.650000 -1.736926
111.700000 -1.819148
111.750000 -1.870536
111.800000 -1.908221
111.850000 -1.949331
111.900000 -1.976739
111.950000 -1.973313
112.000000 -1.932203
112.050000 -1.897943
112.100000 -1.887665
112.150000 -1.863684
112.200000 -1.822573
112.250000 -1.805444
112.300000 -1.788315
112.350000 -1.726649
112.400000 -1.664983
112.450000 -1.651279
112.500000 -1.634149
112.550000 -1.596465
112.600000 -1.593039
112.650000 -1.620446
112.700000 -1.641002
112.750000 -1.695815
112.800000 -1.778037
112.850000 -1.843129
112.900000 -1.880814
112.950000 -1.939054
113.000000 -2.000719
113.050000 -2.017849
113.100000 -2.000720
113.150000 -1.973312
113.200000 -1.939054
113.250000 -1.887665
113.300000 -1.853406
113.350000 -1.812296
113.400000 -1.767759
113.450000 -1.747204
113.500000 -1.743778
113.550000 -1.736926
113.600000 -1.764334
113.650000 -1.836277
113.700000 -1.894517
113.750000 -1.921924
113.800000 -1.969887
113.850000 -2.038405
113.900000 -2.096645
113.950000 -2.154885
114.000000 -2.233681
114.050000 -2.315902
114.100000 -2.370716
114.150000 -2.408400
114.200000 -2.470066
114.250000 -2.559140
114.300000 -2.617380
114.350000 -2.620806
114.400000 -2.610528
114.450000 -2.610529
114.500000 -2.579696
114.550000 -2.500900
114.600000 -2.415252
114.650000 -2.339883
114.700000 -2.247384
114.750000 -2.151459
114.800000 -2.062386
114.850000 -1.990442
114.900000 -1.921925
114.950000 -1.839703
115.000000 -1.740352
115.050000 -1.630724
115.100000 -1.534799
115.150000 -1.449152
115.200000 -1.377208
115.250000 -1.336097
115.300000 -1.308690
115.350000 -1.315542
115.400000 -1.397763
115.450000 -1.527947
115.500000 -1.675260
115.550000 -1.849980
115.600000 -2.052108
115.650000 -2.206274
115.700000 -2.315902
115.750000 -2.401549
115.800000 -2.446086
115.850000 -2.439234
115.900000 -2.363864
115.950000 -2.213125
116.000000 -2.024701
116.050000 -1.856832
116.100000 -1.702667
116.150000 -1.527947
116.200000 -1.380634
116.250000 -1.305264
116.300000 -1.288135
116.350000 -1.318968
116.400000 -1.408040
116.450000 -1.534799
116.500000 -1.695816
116.550000 -1.880813
116.600000 -2.079515
116.650000 -2.274791
116.700000 -2.442660
116.750000 -2.555714
116.800000 -2.613955
116.850000 -2.634509
116.900000 -2.607103
116.950000 -2.524881
117.000000 -2.442660
117.050000 -2.391271
117.100000 -2.333032
117.150000 -2.281643
117.200000 -2.295346
117.250000 -2.370716
117.300000 -2.442660
117.350000 -2.497474
117.400000 -2.562566
117.450000 -2.613954
117.500000 -2.613954
117.550000 -2.559140
117.600000 -2.466641
117.650000 -2.363865
117.700000 -2.261087
117.750000 -2.137755
117.800000 -2.021275
117.850000 -1.963035
117.900000 -1.935628
117.950000 -1.918499
118.000000 -1.959610
118.050000 -2.065812
118.100000 -2.168589
118.150000 -2.261087
118.200000 -2.391271
118.250000 -2.507751
118.300000 -2.562565
118.350000 -2.565992
118.400000 -2.538584
118.450000 -2.476919
118.500000 -2.374142
118.550000 -2.250810
118.600000 -2.117200
118.650000 -2.000720
118.700000 -1.918499
118.750000 -1.849981
118.800000 -1.802018
118.850000 -1.802018
118.900000 -1.825999
118.950000 -1.853407
119.000000 -1.904795
119.050000 -1.980164
119.100000 -2.021275
119.150000 -2.024701
119.200000 -2.024701
119.250000 -1.990442
119.300000 -1.873962
119.350000 -1.723223
119.400000 -1.596465
119.450000 -1.500540
119.500000 -1.411467
119.550000 -1.384060
119.600000 -1.462856
119.650000 -1.613594
119.700000 -1.788314
119.750000 -1.997294
119.800000 -2.230254
119.850000 -2.442659
119.900000 -2.617380
119.950000 -2.733861
120.000000 -2.768120
120.050000 -2.699602
120.100000 -2.548863
120.150000 -2.339883
120.200000 -2.103497
120.250000 -1.863684
120.300000 -1.630724
120.350000 -1.442300
120.400000 -1.315542
120.450000 -1.253876
120.500000 -1.226468
120.550000 -1.247024
120.600000 -1.339523
120.650000 -1.476559
120.700000 -1.586187
120.750000 -1.668408
120.800000 -1.767759
120.850000 -1.901369
120.900000 -2.021275
120.950000 -2.100071
121.000000 -2.175441
121.050000 -2.257661
121.100000 -2.319328
121.150000 -2.343309
121.200000 -2.343309
121.250000 -2.302198
121.300000 -2.219976
121.350000 -2.079515
121.400000 -1.897943
121.450000 -1.726648
121.500000 -1.565632
121.550000 -1.408041
121.600000 -1.281283
121.650000 -1.209339
121.700000 -1.175080
121.750000 -1.151099
121.800000 -1.185358
121.850000 -1.294987
121.900000 -1.425170
121.950000 -1.524521
122.000000 -1.617020
122.050000 -1.733501
122.100000 -1.836277
122.150000 -1.891091
122.200000 -1.932202
122.250000 -1.980165
122.300000 -2.024701
122.350000 -2.031552
122.400000 -2.021276
122.450000 -2.052108
122.500000 -2.100071
122.550000 -2.096644
122.600000 -2.100070
122.650000 -2.130904
122.700000 -2.134329
122.750000 -2.120626
122.800000 -2.154885
122.850000 -2.219977
122.900000 -2.233681
122.950000 -2.226829
123.000000 -2.237106
123.050000 -2.206274
123.100000 -2.134330
123.150000 -2.052108
123.200000 -1.952758
123.250000 -1.825999
123.300000 -1.695816
123.350000 -1.545077
123.400000 -1.363504
123.450000 -1.205913
123.500000 -1.116840
123.550000 -1.058600
123.600000 -1.048323
123.650000 -1.109988
123.700000 -1.202488
123.750000 -1.301838
123.800000 -1.462855
123.850000 -1.661557
123.900000 -1.822574
123.950000 -1.949331
124.000000 -2.058960
124.050000 -2.127478
124.100000 -2.148033
124.150000 -2.124052
124.200000 -2.089793
124.250000 -2.041831
124.300000 -1.966461
124.350000 -1.863684
124.400000 -1.805444
124.450000 -1.822574
124.500000 -1.839703
124.550000 -1.843129
124.600000 -1.887665
124.650000 -1.963035
124.700000 -2.034979
124.750000 -2.148033
124.800000 -2.288495
124.850000 -2.404975
124.900000 -2.487196
124.950000 -2.572843
125.000000 -2.631083
125.050000 -2.655065
125.100000 -2.668769
125.150000 -2.665343
125.200000 -2.637936
125.250000 -2.620806
125.300000 -2.610528
125.350000 -2.559140
125.400000 -2.483770
125.450000 -2.418678
125.500000 -2.336457
125.550000 -2.223402
125.600000 -2.113774
125.650000 -2.021276
125.700000 -1.925350
125.750000 -1.829425
125.800000 -1.760907
125.850000 -1.702667
125.900000 -1.630724
125.950000 -1.555354
126.000000 -1.497114
126.050000 -1.490262
126.100000 -1.510817
126.150000 -1.524521
126.200000 -1.548502
126.250000 -1.606742
126.300000 -1.661556
126.350000 -1.668409
126.400000 -1.647853
126.450000 -1.630724
126.500000 -1.613594
126.550000 -1.572484
126.600000 -1.507392
126.650000 -1.452578
126.700000 -1.411467
126.750000 -1.373782
126.800000 -1.353226
126.850000 -1.404615
126.900000 -1.503966
126.950000 -1.606742
127.000000 -1.754056
127.050000 -1.939054
127.100000 -2.117200
127.150000 -2.291921
127.200000 -2.504326
127.250000 -2.709879
127.300000 -2.833211
127.350000 -2.884599
127.400000 -2.925710
127.450000 -2.939413
127.500000 -2.874322
127.550000 -2.754416
127.600000 -2.620806
127.650000 -2.487196
127.700000 -2.367290
127.750000 -2.240532
127.800000 -2.124051
127.850000 -2.041831
127.900000 -1.973313
127.950000 -1.908221
128.000000 -1.901369
128.050000 -1.980164
128.100000 -2.034979
128.150000 -2.048683
128.200000 -2.100071
128.250000 -2.195995
128.300000 -2.237106
128.350000 -2.219977
128.400000 -2.182292
128.450000 -2.113774
128.500000 -2.004146
128.550000 -1.897943
128.600000 -1.784889
128.650000 -1.668408
128.700000 -1.586187
128.750000 -1.548502
128.800000 -1.545076
128.850000 -1.572483
128.900000 -1.647853
128.950000 -1.743778
129.000000 -1.860259
129.050000 -2.000720
129.100000 -2.141181
129.150000 -2.240532
129.200000 -2.291921
129.250000 -2.309050
129.300000 -2.309050
129.350000 -2.291921
129.400000 -2.257662
129.450000 -2.195996
129.500000 -2.117200
129.550000 -2.062386
129.600000 -2.031553
129.650000 -2.010998
129.700000 -1.987016
129.750000 -1.973312
129.800000 -1.983590
129.850000 -2.007572
129.900000 -2.024701
129.950000 -2.031552
130.000000 -2.038404
130.050000 -2.048683
130.100000 -2.062386
130.150000 -2.065812
130.200000 -2.055534
130.250000 -2.052108
130.300000 -2.069238
130.350000 -2.069238
130.400000 -2.021275
130.450000 -1.959609
130.500000 -1.911647
130.550000 -1.863684
130.600000 -1.798592
130.650000 -1.730075
130.700000 -1.675261
130.750000 -1.644427
130.800000 -1.641002
130.850000 -1.651279
130.900000 -1.671834
130.950000 -1.706093
131.000000 -1.771186
131.050000 -1.860258
131.100000 -1.963035
131.150000 -2.082941
131.200000 -2.202847
131.250000 -2.326179
131.300000 -2.470067
131.350000 -2.603677
131.400000 -2.699602
131.450000 -2.744138
131.500000 -2.727008
131.550000 -2.634510
131.600000 -2.500900
131.650000 -2.336457
131.700000 -2.110349
131.750000 -1.839703
131.800000 -1.582761
131.850000 -1.356653
131.900000 -1.168228
131.950000 -1.038044
132.000000 -0.966101
132.050000 -0.952398
132.100000 -1.007212
132.150000 -1.099711
132.200000 -1.202487
132.250000 -1.322394
132.300000 -1.425170
132.350000 -1.490263
132.400000 -1.569058
132.450000 -1.671834
132.500000 -1.747204
132.550000 -1.784889
132.600000 -1.826000
132.650000 -1.884240
132.700000 -1.935628
132.750000 -1.990442
132.800000 -2.058960
132.850000 -2.120626
132.900000 -2.158311
132.950000 -2.158310
133.000000 -2.127477
133.050000 -2.096645
133.100000 -2.062385
133.150000 -1.976739
133.200000 -1.870536
133.250000 -1.822574
133.300000 -1.805444
133.350000 -1.764333
133.400000 -1.747204
133.450000 -1.815722
133.500000 -1.904795
133.550000 -1.990443
133.600000 -2.117200
133.650000 -2.254236
133.700000 -2.353587
133.750000 -2.422104
133.800000 -2.470067
133.850000 -2.473492
133.900000 -2.435808
133.950000 -2.346735
134.000000 -2.209700
134.050000 -2.076089
134.100000 -1.966461
134.150000 -1.856832
134.200000 -1.760907
134.250000 -1.706094
134.300000 -1.685538
134.350000 -1.699242
134.400000 -1.764333
134.450000 -1.856833
134.500000 -1.921925
134.550000 -1.993868
134.600000 -2.072664
134.650000 -2.093219
134.700000 -2.045257
134.750000 -2.004145
134.800000 -1.976738
134.850000 -1.925350
134.900000 -1.853407
134.950000 -1.781463
135.000000 -1.723223
135.050000 -1.688964
135.100000 -1.644427
135.150000 -1.575909
135.200000 -1.521096
135.250000 -1.531373
135.300000 -1.534799
135.350000 -1.510817
135.400000 -1.521096
135.450000 -1.562206
135.500000 -1.589613
135.550000 -1.610169
135.600000 -1.685538
135.650000 -1.774611
135.700000 -1.832851
135.750000 -1.891091
135.800000 -1.932202
135.850000 -1.918499
135.900000 -1.877388
135.950000 -1.832851
136.000000 -1.747204
136.050000 -1.630724
136.100000 -1.527947
136.150000 -1.428596
136.200000 -1.301838
136.250000 -1.195636
136.300000 -1.144247
136.350000 -1.109988
136.400000 -1.103137
136.450000 -1.151099
136.500000 -1.209339
136.550000 -1.250450
136.600000 -1.291560
136.650000 -1.339523
136.700000 -1.384060
136.750000 -1.425171
136.800000 -1.479985
136.850000 -1.545076
136.900000 -1.599891
136.950000 -1.654705
137.000000 -1.754056
137.050000 -1.894518
137.100000 -2.045256
137.150000 -2.185718
137.200000 -2.336457
137.250000 -2.514603
137.300000 -2.699602
137.350000 -2.857192
137.400000 -2.973673
137.450000 -3.062745
137.500000 -3.107282
137.550000 -3.086727
137.600000 -2.994228
137.650000 -2.853766
137.700000 -2.685898
137.750000 -2.494048
137.800000 -2.274791
137.850000 -2.069238
137.900000 -1.901369
137.950000 -1.747204
138.000000 -1.627298
138.050000 -1.575910
138.100000 -1.579335
138.150000 -1.620446
138.200000 -1.723223
138.250000 -1.860259
138.300000 -2.007571
138.350000 -2.172015
138.400000 -2.357012
138.450000 -2.521455
138.500000 -2.658490
138.550000 -2.778397
138.600000 -2.891451
138.650000 -2.990802
138.700000 -3.083301
138.750000 -3.127837
138.800000 -3.127837
138.850000 -3.110708
138.900000 -3.052468
138.950000 -2.925710
139.000000 -2.754415
139.050000 -2.583121
139.100000 -2.370716
139.150000 -2.117200
139.200000 -1.884240
139.250000 -1.706093
139.300000 -1.548502
139.350000 -1.387486
139.400000 -1.264153
139.450000 -1.212765
139.500000 -1.219617
139.550000 -1.260728
139.600000 -1.332671
139.650000 -1.432022
139.700000 -1.531373
139.750000 -1.586188
139.800000 -1.627298
139.850000 -1.692389
139.900000 -1.750630
139.950000 -1.764333
140.000000 -1.760908
140.050000 -1.812296
140.100000 -1.911647
140.150000 -2.014423
140.200000 -2.113774
140.250000 -2.216550
140.300000 -2.326179
140.350000 -2.415253
140.400000 -2.452937
140.450000 -2.432382
140.500000 -2.367291
140.550000 -2.285069
140.600000 -2.185718
140.650000 -2.079516
140.700000 -1.969886
140.750000 -1.853407
140.800000 -1.750630
140.850000 -1.716371
140.900000 -1.736926
140.950000 -1.764333
141.000000 -1.805444
141.050000 -1.870536
141.100000 -1.894518
141.150000 -1.870536
141.200000 -1.829426
141.250000 -1.781463
141.300000 -1.695816
141.350000 -1.569058
141.400000 -1.469707
141.450000 -1.432022
141.500000 -1.442299
141.550000 -1.445726
141.600000 -1.473133
141.650000 -1.551928
141.700000 -1.644427
141.750000 -1.723222
141.800000 -1.808870
141.850000 -1.894518
141.900000 -1.969887
141.950000 -2.045257
142.000000 -2.106922
142.050000 -2.113774
142.100000 -2.069238
142.150000 -1.990442
142.200000 -1.894517
142.250000 -1.798592
142.300000 -1.709520
142.350000 -1.606743
142.400000 -1.503966
142.450000 -1.445726
142.500000 -1.428596
142.550000 -1.421744
142.600000 -1.421744
142.650000 -1.459429
142.700000 -1.538224
142.750000 -1.641001
142.800000 -1.750630
142.850000 -1.843129
142.900000 -1.894518
142.950000 -1.884239
143.000000 -1.832851
143.050000 -1.743778
143.100000 -1.599891
143.150000 -1.418318
143.200000 -1.240172
143.250000 -1.096285
143.300000 -0.993508
143.350000 -0.928417
143.400000 -0.894158
143.450000 -0.904435
143.500000 -0.955824
143.550000 -1.007211
143.600000 -1.058600
143.650000 -1.120266
143.700000 -1.157951
143.750000 -1.168228
143.800000 -1.192210
143.850000 -1.223043
143.900000 -1.199062
143.950000 -1.151099
144.000000 -1.157951
144.050000 -1.202487
144.100000 -1.257301
144.150000 -1.322394
144.200000 -1.408040
144.250000 -1.510817
144.300000 -1.623872
144.350000 -1.706093
144.400000 -1.754055
144.450000 -1.805445
144.500000 -1.839703
144.550000 -1.808870
144.600000 -1.760908
144.650000 -1.757481
144.700000 -1.754055
144.750000 -1.716371
144.800000 -1.695816
144.850000 -1.709519
144.900000 -1.706093
144.950000 -1.668409
145.000000 -1.661557
145.050000 -1.706093
145.100000 -1.730075
145.150000 -1.726648
145.200000 -1.743778
145.250000 -1.784889
145.300000 -1.819148
145.350000 -1.860258
145.400000 -1.925350
145.450000 -1.983590
145.500000 -2.000720
145.550000 -2.028127
145.600000 -2.065811
145.650000 -2.079516
145.700000 -2.065812
145.750000 -2.045256
145.800000 -1.997294
145.850000 -1.939054
145.900000 -1.887665
145.950000 -1.846555
146.000000 -1.812296
146.050000 -1.781463
146.100000 -1.764333
146.150000 -1.747204
146.200000 -1.754056
146.250000 -1.774611
146.300000 -1.781463
146.350000 -1.778037
146.400000 -1.795166
146.450000 -1.829425
146.500000 -1.849981
146.550000 -1.853406
146.600000 -1.887665
146.650000 -1.939054
146.700000 -1.963035
146.750000 -1.966461
146.800000 -1.969886
146.850000 -1.980164
146.900000 -1.976738
146.950000 -1.956183
147.000000 -1.949331
147.050000 -1.963035
147.100000 -1.966461
147.150000 -1.925350
147.200000 -1.904795
147.250000 -1.928776
147.300000 -1.949332
147.350000 -1.945906
147.400000 -1.966461
147.450000 -1.980165
147.500000 -1.956184
147.550000 -1.932202
147.600000 -1.911646
147.650000 -1.856833
147.700000 -1.760908
147.750000 -1.658131
147.800000 -1.589613
147.850000 -1.538224
147.900000 -1.527947
147.950000 -1.569057
148.000000 -1.647853
148.050000 -1.750630
148.100000 -1.880813
148.150000 -2.058960
148.200000 -2.223402
148.250000 -2.329605
148.300000 -2.387845
148.350000 -2.411827
148.400000 -2.367290
148.450000 -2.264513
148.500000 -2.117200
148.550000 -1.921924
148.600000 -1.712945
148.650000 -1.538225
148.700000 -1.397763
148.750000 -1.288135
148.800000 -1.247024
148.850000 -1.264153
148.900000 -1.305264
148.950000 -1.373782
149.000000 -1.473133
149.050000 -1.579336
149.100000 -1.692390
149.150000 -1.788315
149.200000 -1.826000
149.250000 -1.836278
149.300000 -1.877387
149.350000 -1.925351
149.400000 -1.939054
149.450000 -1.959610
149.500000 -1.990443
149.550000 -2.014424
149.600000 -2.062386
149.650000 -2.134330
149.700000 -2.185718
149.750000 -2.223402
149.800000 -2.285069
149.850000 -2.336457
149.900000 -2.350161
149.950000 -2.333031
150.000000 -2.312475
150.050000 -2.264513
150.100000 -2.175441
150.150000 -2.086367
150.200000 -1.997294
150.250000 -1.918498
150.300000 -1.856833
150.350000 -1.826000
150.400000 -1.812296
150.450000 -1.819148
150.500000 -1.867110
150.550000 -1.949332
150.600000 -2.045256
150.650000 -2.158311
150.700000 -2.257662
150.750000 -2.309050
150.800000 -2.319328
150.850000 -2.305624
150.900000 -2.254236
150.950000 -2.144607
151.000000 -1.990442
151.050000 -1.808870
151.100000 -1.630724
151.150000 -1.490262
151.200000 -1.373782
151.250000 -1.298413
151.300000 -1.291560
151.350000 -1.360079
151.400000 -1.476559
151.450000 -1.637576
151.500000 -1.808870
151.550000 -1.969887
151.600000 -2.127478
151.650000 -2.247384
151.700000 -2.295346
151.750000 -2.274791
151.800000 -2.209700
151.850000 -2.113774
151.900000 -1.973313
151.950000 -1.781463
152.000000 -1.586187
152.050000 -1.425171
152.100000 -1.298413
152.150000 -1.185358
152.200000 -1.123692
152.250000 -1.144247
152.300000 -1.199062
152.350000 -1.253876
152.400000 -1.305264
152.450000 -1.373782
152.500000 -1.428597
152.550000 -1.476559
152.600000 -1.541650
152.650000 -1.644427
152.700000 -1.760907
152.750000 -1.880813
152.800000 -1.997294
152.850000 -2.113775
152.900000 -2.233681
152.950000 -2.363864
153.000000 -2.511178
153.050000 -2.641361
153.100000 -2.720157
153.150000 -2.747564
153.200000 -2.744138
153.250000 -2.703027
153.300000 -2.617380
153.350000 -2.494048
153.400000 -2.367290
153.450000 -2.278216
153.500000 -2.209699
153.550000 -2.141182
153.600000 -2.093219
153.650000 -2.100070
153.700000 -2.148034
153.750000 -2.209699
153.800000 -2.298773
153.850000 -2.415252
153.900000 -2.538585
153.950000 -2.637935
154.000000 -2.713305
154.050000 -2.792101
154.100000 -2.853766
154.150000 -2.846914
154.200000 -2.785249
154.250000 -2.723583
154.300000 -2.620806
154.350000 -2.446086
154.400000 -2.261087
154.450000 -2.100071
154.500000 -1.911647
154.550000 -1.719797
154.600000 -1.593039
154.650000 -1.493689
154.700000 -1.401189
154.750000 -1.356652
154.800000 -1.349801
154.850000 -1.384060
154.900000 -1.476558
154.950000 -1.572483
155.000000 -1.627298
155.050000 -1.692390
155.100000 -1.778037
155.150000 -1.808870
155.200000 -1.791740
155.250000 -1.798592
155.300000 -1.795166
155.350000 -1.743778
155.400000 -1.719797
155.450000 -1.750630
155.500000 -1.754055
155.550000 -1.723222
155.600000 -1.730075
155.650000 -1.743778
155.700000 -1.723223
155.750000 -1.699242
155.800000 -1.668409
155.850000 -1.579335
155.900000 -1.476559
155.950000 -1.408041
156.000000 -1.342949
156.050000 -1.281283
156.100000 -1.236746
156.150000 -1.216191
156.200000 -1.229895
156.250000 -1.315542
156.300000 -1.452578
156.350000 -1.586187
156.400000 -1.733501
156.450000 -1.918498
156.500000 -2.096644
156.550000 -2.243958
156.600000 -2.387845
156.650000 -2.518029
156.700000 -2.603677
156.750000 -2.634509
156.800000 -2.610529
156.850000 -2.524881
156.900000 -2.408400
156.950000 -2.254236
157.000000 -2.062385
157.050000 -1.884240
157.100000 -1.740353
157.150000 -1.617020
157.200000 -1.524521
157.250000 -1.497114
157.300000 -1.486836
157.350000 -1.517669
157.400000 -1.620446
157.450000 -1.750630
157.500000 -1.839703
157.550000 -1.894517
157.600000 -1.942479
157.650000 -1.973313
157.700000 -1.987017
157.750000 -1.976738
157.800000 -1.949331
157.850000 -1.939054
157.900000 -1.939054
157.950000 -1.956183
158.000000 -2.000720
158.050000 -2.093219
158.100000 -2.182293
158.150000 -2.237107
158.200000 -2.281643
158.250000 -2.305624
158.300000 -2.285069
158.350000 -2.230255
158.400000 -2.151459
158.450000 -2.034979
158.500000 -1.884240
158.550000 -1.730075
158.600000 -1.613594
158.650000 -1.524521
158.700000 -1.428596
158.750000 -1.342949
158.800000 -1.312116
158.850000 -1.353226
158.900000 -1.404615
158.950000 -1.428596
159.000000 -1.459429
159.050000 -1.527947
159.100000 -1.610168
159.150000 -1.668409
159.200000 -1.716371
159.250000 -1.764333
159.300000 -1.795167
159.350000 -1.812296
159.400000 -1.836277
159.450000 -1.856832
159.500000 -1.856832
159.550000 -1.856833
159.600000 -1.860258
159.650000 -1.856833
159.700000 -1.860258
159.750000 -1.849981
159.800000 -1.846554
159.850000 -1.884239
159.900000 -1.908221
159.950000 -1.870536
160.000000 -1.822573
160.050000 -1.805444
160.100000 -1.767759
160.150000 -1.709519
160.200000 -1.671834
160.250000 -1.644428
160.300000 -1.596465
160.350000 -1.569057
160.400000 -1.572484
160.450000 -1.572484
160.500000 -1.572484
160.550000 -1.617020
160.600000 -1.695815
160.650000 -1.764334
160.700000 -1.829426
160.750000 -1.908221
160.800000 -1.987016
160.850000 -2.034978
160.900000 -2.028127
160.950000 -1.983591
161.000000 -1.932202
161.050000 -1.877388
161.100000 -1.825999
161.150000 -1.774611
161.200000 -1.730074
161.250000 -1.709519
161.300000 -1.702667
161.350000 -1.702668
161.400000 -1.740352
161.450000 -1.812296
161.500000 -1.856832
161.550000 -1.891092
161.600000 -1.976738
161.650000 -2.069237
161.700000 -2.082941
161.750000 -2.072663
161.800000 -2.079515
161.850000 -2.093219
161.900000 -2.113774
161.950000 -2.144607
162.000000 -2.165163
162.050000 -2.165163
162.100000 -2.172014
162.150000 -2.158311
162.200000 -2.110348
162.250000 -2.041831
162.300000 -1.949332
162.350000 -1.798592
162.400000 -1.603317
162.450000 -1.432023
162.500000 -1.298412
162.550000 -1.161376
162.600000 -1.038045
162.650000 -0.983230
162.700000 -1.003786
162.750000 -1.041471
162.800000 -1.092859
162.850000 -1.178507
162.900000 -1.274431
162.950000 -1.346375
163.000000 -1.401189
163.050000 -1.428596
163.100000 -1.394337
163.150000 -1.312116
163.200000 -1.243598
163.250000 -1.195635
163.300000 -1.120266
163.350000 -1.024341
163.400000 -0.969527
163.450000 -0.972953
163.500000 -0.996934
163.550000 -1.048323
163.600000 -1.151099
163.650000 -1.267580
163.700000 -1.373782
163.750000 -1.486837
163.800000 -1.610168
163.850000 -1.709519
163.900000 -1.788314
163.950000 -1.867111
164.000000 -1.942480
164.050000 -1.993868
164.100000 -2.028127
164.150000 -2.034979
164.200000 -2.028127
164.250000 -2.031553
164.300000 -2.028127
164.350000 -1.983590
164.400000 -1.918499
164.450000 -1.884239
164.500000 -1.867110
164.550000 -1.843129
164.600000 -1.832852
164.650000 -1.836277
164.700000 -1.877387
164.750000 -1.959609
164.800000 -2.082942
164.850000 -2.199421
164.900000 -2.312476
164.950000 -2.415253
165.000000 -2.494048
165.050000 -2.542011
165.100000 -2.555714
165.150000 -2.500900
165.200000 -2.391271
165.250000 -2.264514
165.300000 -2.110348
165.350000 -1.925350
165.400000 -1.754056
165.450000 -1.623872
165.500000 -1.531373
165.550000 -1.500540
165.600000 -1.538224
165.650000 -1.599891
165.700000 -1.702668
165.750000 -1.873962
165.800000 -2.072664
165.850000 -2.223402
165.900000 -2.322753
165.950000 -2.357012
166.000000 -2.285069
166.050000 -2.154885
166.100000 -1.997294
166.150000 -1.767759
166.200000 -1.500540
166.250000 -1.277857
166.300000 -1.116841
166.350000 -0.976379
166.400000 -0.924990
166.450000 -1.007212
166.500000 -1.178506
166.550000 -1.390912
166.600000 -1.654705
166.650000 -1.956183
166.700000 -2.223403
166.750000 -2.415252
166.800000 -2.531733
166.850000 -2.572844
166.900000 -2.514603
166.950000 -2.377568
167.000000 -2.199421
167.050000 -1.980164
167.100000 -1.750629
167.150000 -1.582761
167.200000 -1.483411
167.250000 -1.397764
167.300000 -1.349801
167.350000 -1.373782
167.400000 -1.438874
167.450000 -1.524521
167.500000 -1.627298
167.550000 -1.712945
167.600000 -1.760907
167.650000 -1.802019
167.700000 -1.860258
167.750000 -1.901369
167.800000 -1.915073
167.850000 -1.952757
167.900000 -2.041830
167.950000 -2.124052
168.000000 -2.182292
168.050000 -2.285068
168.100000 -2.422104
168.150000 -2.511177
168.200000 -2.542010
168.250000 -2.542011
168.300000 -2.507752
168.350000 -2.442660
168.400000 -2.343308
168.450000 -2.206273
168.500000 -2.048683
168.550000 -1.911647
168.600000 -1.805444
168.650000 -1.709519
168.700000 -1.634150
168.750000 -1.593039
168.800000 -1.579336
168.850000 -1.586188
168.900000 -1.613595
168.950000 -1.606743
169.000000 -1.562206
169.050000 -1.521095
169.100000 -1.493688
169.150000 -1.459429
169.200000 -1.456003
169.250000 -1.500540
169.300000 -1.551928
169.350000 -1.620447
169.400000 -1.767759
169.450000 -1.973313
169.500000 -2.154885
169.550000 -2.312476
169.600000 -2.494048
169.650000 -2.661917
169.700000 -2.750990
169.750000 -2.764693
169.800000 -2.740712
169.850000 -2.661916
169.900000 -2.494048
169.950000 -2.305624
170.000000 -2.168589
170.050000 -2.055534
170.100000 -1.932202
170.150000 -1.839703
170.200000 -1.808870
170.250000 -1.826000
170.300000 -1.887666
170.350000 -1.980164
170.400000 -2.069238
170.450000 -2.141182
170.500000 -2.226829
170.550000 -2.298772
170.600000 -2.319328
170.650000 -2.288495
170.700000 -2.237106
170.750000 -2.127478
170.800000 -1.932202
170.850000 -1.699242
170.900000 -1.483411
170.950000 -1.260728
171.000000 -1.058600
171.050000 -0.945546
171.100000 -0.890732
171.150000 -0.859899
171.200000 -0.921564
171.250000 -1.099711
171.300000 -1.305264
171.350000 -1.517670
171.400000 -1.781463
171.450000 -2.062386
171.500000 -2.298773
171.550000 -2.466641
171.600000 -2.548862
171.650000 -2.545436
171.700000 -2.466641
171.750000 -2.315902
171.800000 -2.117200
171.850000 -1.925351
171.900000 -1.730075
171.950000 -1.510817
172.000000 -1.342949
172.050000 -1.267580
172.100000 -1.229895
172.150000 -1.216191
172.200000 -1.277857
172.250000 -1.394337
172.300000 -1.503966
172.350000 -1.647853
172.400000 -1.826000
172.450000 -1.949332
172.500000 -2.031553
172.550000 -2.127477
172.600000 -2.213125
172.650000 -2.230255
172.700000 -2.195995
172.750000 -2.137756
172.800000 -2.055534
172.850000 -1.959609
172.900000 -1.887665
172.950000 -1.836277
173.000000 -1.798592
173.050000 -1.771185
173.100000 -1.757481
173.150000 -1.764333
173.200000 -1.819148
173.250000 -1.908221
173.300000 -1.997294
173.350000 -2.058960
173.400000 -2.093219
173.450000 -2.106923
173.500000 -2.089793
173.550000 -2.062385
173.600000 -2.045256
173.650000 -2.031553
173.700000 -1.993868
173.750000 -1.945905
173.800000 -1.942480
173.850000 -1.976739
173.900000 -2.024701
173.950000 -2.089793
174.000000 -2.165163
174.050000 -2.230255
174.100000 -2.278217
174.150000 -2.305624
174.200000 -2.298773
174.250000 -2.240532
174.300000 -2.130904
174.350000 -1.952757
174.400000 -1.743778
174.450000 -1.558780
174.500000 -1.404615
174.550000 -1.250450
174.600000 -1.113414
174.650000 -1.055174
174.700000 -1.038045
174.750000 -1.044897
174.800000 -1.106562
174.850000 -1.212765
174.900000 -1.325819
174.950000 -1.442300
175.000000 -1.545076
175.050000 -1.603317
175.100000 -1.651279
175.150000 -1.723222
175.200000 -1.771185
175.250000 -1.795166
175.300000 -1.819148
175.350000 -1.822574
175.400000 -1.798593
175.450000 -1.778037
175.500000 -1.757482
175.550000 -1.709520
175.600000 -1.678686
175.650000 -1.678686
175.700000 -1.654705
175.750000 -1.634149
175.800000 -1.664983
175.850000 -1.733500
175.900000 -1.781463
175.950000 -1.839704
176.000000 -1.921925
176.050000 -1.993868
176.100000 -2.048682
176.150000 -2.065811
176.200000 -2.034979
176.250000 -1.969887
176.300000 -1.880814
176.350000 -1.736927
176.400000 -1.579335
176.450000 -1.476559
176.500000 -1.421745
176.550000 -1.363504
176.600000 -1.336097
176.650000 -1.390911
176.700000 -1.483410
176.750000 -1.575909
176.800000 -1.706094
176.850000 -1.887666
176.900000 -2.086367
176.950000 -2.261087
177.000000 -2.408401
177.050000 -2.538585
177.100000 -2.658491
177.150000 -2.744138
177.200000 -2.781823
177.250000 -2.785249
177.300000 -2.754416
177.350000 -2.672194
177.400000 -2.555715
177.450000 -2.428956
177.500000 -2.285068
177.550000 -2.124052
177.600000 -1.959609
177.650000 -1.826000
177.700000 -1.712945
177.750000 -1.623872
177.800000 -1.606742
177.850000 -1.664982
177.900000 -1.764333
177.950000 -1.867110
178.000000 -2.000720
178.050000 -2.199422
178.100000 -2.411826
178.150000 -2.572844
178.200000 -2.699601
178.250000 -2.833211
178.300000 -2.925710
178.350000 -2.925710
178.400000 -2.870896
178.450000 -2.785248
178.500000 -2.641362
178.550000 -2.446085
178.600000 -2.226829
178.650000 -2.028127
178.700000 -1.873962
178.750000 -1.767759
178.800000 -1.675260
178.850000 -1.606742
178.900000 -1.579336
178.950000 -1.582761
179.000000 -1.593039
179.050000 -1.610168
179.100000 -1.606743
179.150000 -1.593039
179.200000 -1.569058
179.250000 -1.541651
179.300000 -1.510818
179.350000 -1.469707
179.400000 -1.418319
179.450000 -1.394337
179.500000 -1.411466
179.550000 -1.438874
179.600000 -1.469707
179.650000 -1.524521
179.700000 -1.582762
179.750000 -1.596465
179.800000 -1.610169
179.850000 -1.658131
179.900000 -1.688964
179.950000 -1.682112
180.000000 -1.675261
180.050000 -1.706093
180.100000 -1.736926
180.150000 -1.754056
180.200000 -1.795166
180.250000 -1.880813
180.300000 -1.987017
180.350000 -2.038405
180.400000 -2.045256
180.450000 -2.041831
180.500000 -2.041830
180.550000 -1.990442
180.600000 -1.918499
180.650000 -1.873962
180.700000 -1.856833
180.750000 -1.843129
180.800000 -1.873962
180.850000 -1.945906
180.900000 -2.021275
180.950000 -2.076090
181.000000 -2.168589
181.050000 -2.267940
181.100000 -2.298772
181.150000 -2.274791
181.200000 -2.247384
181.250000 -2.209699
181.300000 -2.113774
181.350000 -1.990442
181.400000 -1.897943
181.450000 -1.836277
181.500000 -1.798592
181.550000 -1.819148
181.600000 -1.894517
181.650000 -1.997294
181.700000 -2.127477
181.750000 -2.288495
181.800000 -2.422105
181.850000 -2.518030
181.900000 -2.572843
181.950000 -2.593399
182.000000 -2.548863
182.050000 -2.463215
182.100000 -2.350161
182.150000 -2.219977
182.200000 -2.069238
182.250000 -1.925350
182.300000 -1.802018
182.350000 -1.706093
182.400000 -1.630724
182.450000 -1.565632
182.500000 -1.521095
182.550000 -1.514243
182.600000 -1.534798
182.650000 -1.555354
182.700000 -1.589613
182.750000 -1.644427
182.800000 -1.699242
182.850000 -1.754056
182.900000 -1.808870
182.950000 -1.880814
183.000000 -1.980165
183.050000 -2.100071
183.100000 -2.182292
183.150000 -2.216551
183.200000 -2.281643
183.250000 -2.377567
183.300000 -2.418679
183.350000 -2.428956
183.400000 -2.459789
183.450000 -2.514603
183.500000 -2.555714
183.550000 -2.579696
183.600000 -2.583121
183.650000 -2.583121
183.700000 -2.579695
183.750000 -2.542011
183.800000 -2.497474
183.850000 -2.473493
183.900000 -2.422105
183.950000 -2.346735
184.000000 -2.329605
184.050000 -2.363864
184.100000 -2.360438
184.150000 -2.360439
184.200000 -2.401549
184.250000 -2.435808
184.300000 -2.449512
184.350000 -2.483771
184.400000 -2.494048
184.450000 -2.442660
184.500000 -2.391271
184.550000 -2.360438
184.600000 -2.298772
184.650000 -2.237106
184.700000 -2.209699
184.750000 -2.182292
184.800000 -2.151460
184.850000 -2.148033
184.900000 -2.137755
184.950000 -2.100070
185.000000 -2.065812
185.050000 -2.021275
185.100000 -1.952757
185.150000 -1.877388
185.200000 -1.819147
185.250000 -1.757482
185.300000 -1.702668
185.350000 -1.658131
185.400000 -1.654705
185.450000 -1.695816
185.500000 -1.716371
185.550000 -1.709519
185.600000 -1.760907
185.650000 -1.867110
185.700000 -1.918499
185.750000 -1.887666
185.800000 -1.877388
185.850000 -1.897943
185.900000 -1.921925
185.950000 -1.945905
186.000000 -1.966461
186.050000 -1.983590
186.100000 -2.000720
186.150000 -2.017849
186.200000 -2.014423
186.250000 -2.021275
186.300000 -2.048683
186.350000 -2.052109
186.400000 -2.024701
186.450000 -2.007571
186.500000 -1.976739
186.550000 -1.887666
186.600000 -1.795167
186.650000 -1.774611
186.700000 -1.757482
186.750000 -1.692390
186.800000 -1.661557
186.850000 -1.709520
186.900000 -1.767759
186.950000 -1.802018
187.000000 -1.849981
187.050000 -1.921925
187.100000 -1.983590
187.150000 -2.014423
187.200000 -2.024701
187.250000 -2.055534
187.300000 -2.089793
187.350000 -2.079515
187.400000 -2.021275
187.450000 -1.976739
187.500000 -1.918498
187.550000 -1.815722
187.600000 -1.733500
187.650000 -1.706093
187.700000 -1.654705
187.750000 -1.575910
187.800000 -1.555354
187.850000 -1.572484
187.900000 -1.565632
187.950000 -1.579335
188.000000 -1.668408
188.050000 -1.791740
188.100000 -1.884240
188.150000 -1.966461
188.200000 -2.069238
188.250000 -2.175440
188.300000 -2.226829
188.350000 -2.216551
188.400000 -2.185718
188.450000 -2.168588
188.500000 -2.144608
188.550000 -2.110349
188.600000 -2.076090
188.650000 -2.052108
188.700000 -2.038405
188.750000 -2.014423
188.800000 -1.987017
188.850000 -2.000719
