fit_time[ns] Functional_fit[mV] Thermal_fit[mV]
3.650000 21.732782 21.306545
3.700000 21.461234 20.855063
3.750000 21.182970 20.412980
3.800000 20.893955 19.980091
3.850000 20.590669 19.556193
3.900000 20.270190 19.141092
3.950000 19.930247 18.734596
4.000000 19.569272 18.336517
4.050000 19.186423 17.946674
4.100000 18.781597 17.564888
4.150000 18.355420 17.190984
4.200000 17.909221 16.824793
4.250000 17.444994 16.466148
4.300000 16.965336 16.114886
4.350000 16.473379 15.770848
4.400000 15.972700 15.433880
4.450000 15.467236 15.103830
4.500000 14.961175 14.780550
4.550000 14.458850 14.463894
4.600000 13.964634 14.153722
4.650000 13.482825 13.849894
4.700000 13.017542 13.552277
4.750000 12.572625 13.260737
4.800000 12.151536 12.975145
4.850000 11.757282 12.695376
4.900000 11.392338 12.421306
4.950000 11.058587 12.152813
5.000000 10.757284 11.889781
5.050000 10.489020 11.632093
5.100000 10.253714 11.379638
5.150000 10.050616 11.132304
5.200000 9.878329 10.889984
5.250000 9.734846 10.652573
5.300000 9.617599 10.419967
5.350000 9.523524 10.192065
5.400000 9.449137 9.968770
5.450000 9.390620 9.749984
5.500000 9.343910 9.535613
5.550000 9.304800 9.325565
5.600000 9.269042 9.119750
5.650000 9.232442 8.918080
5.700000 9.190962 8.720468
5.750000 9.140815 8.526830
5.800000 9.078552 8.337083
5.850000 9.001137 8.151146
5.900000 8.906022 7.968940
5.950000 8.791198 7.790389
6.000000 8.655235 7.615416
6.050000 8.497318 7.443948
6.100000 8.317252 7.275911
6.150000 8.115465 7.111235
6.200000 7.892987 6.949852
6.250000 7.651422 6.791692
6.300000 7.392902 6.636689
6.350000 7.120026 6.484780
6.400000 6.835798 6.335899
6.450000 6.543546 6.189985
6.500000 6.246834 6.046977
6.550000 5.949381 5.906816
6.600000 5.654959 5.769442
6.650000 5.367309 5.634800
6.700000 5.090040 5.502832
6.750000 4.826550 5.373486
6.800000 4.579938 5.246706
6.850000 4.352933 5.122441
6.900000 4.147831 5.000639
6.950000 3.966437 4.881250
7.000000 3.810030 4.764226
7.050000 3.679331 4.649517
7.100000 3.574489 4.537078
7.150000 3.495085 4.426861
7.200000 3.440140 4.318822
7.250000 3.408145 4.212917
7.300000 3.397103 4.109102
7.350000 3.404574 4.007335
7.400000 3.427742 3.907575
7.450000 3.463483 3.809781
7.500000 3.508444 3.713913
7.550000 3.559120 3.619933
7.600000 3.611945 3.527802
7.650000 3.663374 3.437483
7.700000 3.709968 3.348940
7.750000 3.748479 3.262137
7.800000 3.775920 3.177038
7.850000 3.789640 3.093610
7.900000 3.787379 3.011819
7.950000 3.767326 2.931632
8.000000 3.728150 2.853017
8.050000 3.669034 2.775943
8.100000 3.589687 2.700377
8.150000 3.490346 2.626292
8.200000 3.371766 2.553656
8.250000 3.235196 2.482440
8.300000 3.082346 2.412617
8.350000 2.915338 2.344158
8.400000 2.736653 2.277037
8.450000 2.549069 2.211226
8.500000 2.355586 2.146699
8.550000 2.159354 2.083432
8.600000 1.963597 2.021398
8.650000 1.771529 1.960573
8.700000 1.586280 1.900933
8.750000 1.410818 1.842455
8.800000 1.247879 1.785115
8.850000 1.099900 1.728891
8.900000 0.968968 1.673760
8.950000 0.856763 1.619702
9.000000 0.764528 1.566694
9.050000 0.693037 1.514716
9.100000 0.642582 1.463748
9.150000 0.612969 1.413769
9.200000 0.603524 1.364759
9.250000 0.613116 1.316701
9.300000 0.640187 1.269575
9.350000 0.682789 1.223362
9.400000 0.738640 1.178044
9.450000 0.805173 1.133604
9.500000 0.879611 1.090025
9.550000 0.959024 1.047289
9.600000 1.040410 1.005380
9.650000 1.120761 0.964282
9.700000 1.197140 0.923978
9.750000 1.266748 0.884453
9.800000 1.326992 0.845692
9.850000 1.375545 0.807680
9.900000 1.410400 0.770401
9.950000 1.429915 0.733842
10.000000 1.432850 0.697988
10.050000 1.418393 0.662826
10.100000 1.386177 0.628342
10.150000 1.336282 0.594522
10.200000 1.269233 0.561354
10.250000 1.185980 0.528825
10.300000 1.087874 0.496922
10.350000 0.976629 0.465633
10.400000 0.854276 0.434947
10.450000 0.723117 0.404850
10.500000 0.585659 0.375333
10.550000 0.444556 0.346382
10.600000 0.302544 0.317989
10.650000 0.162370 0.290140
10.700000 0.026730 0.262827
10.750000 -0.101799 0.236038
10.800000 -0.220822 0.209763
10.850000 -0.328178 0.183992
10.900000 -0.421994 0.158716
10.950000 -0.500729 0.133924
11.000000 -0.563206 0.109608
11.050000 -0.608639 0.085758
11.100000 -0.636650 0.062364
11.150000 -0.647272 0.039419
11.200000 -0.640951 0.016913
11.250000 -0.618525 -0.005162
11.300000 -0.581205 -0.026815
11.350000 -0.530543 -0.048053
11.400000 -0.468390 -0.068886
11.450000 -0.396850 -0.089319
11.500000 -0.318228 -0.109363
11.550000 -0.234971 -0.129023
11.600000 -0.149611 -0.148308
11.650000 -0.064697 -0.167224
11.700000 0.017258 -0.185779
11.750000 0.093844 -0.203980
11.800000 0.162808 -0.221834
11.850000 0.222110 -0.239347
11.900000 0.269965 -0.256526
11.950000 0.304891 -0.273377
12.000000 0.325736 -0.289907
12.050000 0.331707 -0.306122
12.100000 0.322384 -0.322029
12.150000 0.297729 -0.337632
12.200000 0.258081 -0.352938
12.250000 0.204146 -0.367952
12.300000 0.136979 -0.382681
12.350000 0.057951 -0.397130
12.400000 -0.031283 -0.411303
12.450000 -0.128829 -0.425207
12.500000 -0.232600 -0.438847
12.550000 -0.340369 -0.452228
12.600000 -0.449825 -0.465354
12.650000 -0.558626 -0.478230
12.700000 -0.664463 -0.490863
12.750000 -0.765107 -0.503255
12.800000 -0.858470 -0.515412
12.850000 -0.942650 -0.527338
12.900000 -1.015975 -0.539038
12.950000 -1.077048 -0.550515
13.000000 -1.124769 -0.561776
13.050000 -1.158368 -0.572822
13.100000 -1.177417 -0.583659
13.150000 -1.181836 -0.594291
13.200000 -1.171897 -0.604721
13.250000 -1.148210 -0.614954
13.300000 -1.111710 -0.624992
13.350000 -1.063628 -0.634841
13.400000 -1.005460 -0.644503
13.450000 -0.938930 -0.653983
13.500000 -0.865946 -0.663282
13.550000 -0.788551 -0.672406
13.600000 -0.708876 -0.681358
13.650000 -0.629084 -0.690139
13.700000 -0.551319 -0.698755
13.750000 -0.477655 -0.707208
13.800000 -0.410048 -0.715502
13.850000 -0.350284 -0.723638
13.900000 -0.299944 -0.731621
13.950000 -0.260363 -0.739453
14.000000 -0.232603 -0.747137
14.050000 -0.217426 -0.754676
14.100000 -0.215282 -0.762073
14.150000 -0.226298 -0.769330
14.200000 -0.250276 -0.776450
14.250000 -0.286707 -0.783436
14.300000 -0.334779 -0.790290
14.350000 -0.393402 -0.797015
14.400000 -0.461238 -0.803613
14.450000 -0.536733 -0.810086
14.500000 -0.618157 -0.816438
14.550000 -0.703647 -0.822670
14.600000 -0.791257 -0.828785
14.650000 -0.878999 -0.834784
14.700000 -0.964897 -0.840670
14.750000 -1.047033 -0.846446
14.800000 -1.123592 -0.852113
14.850000 -1.192905 -0.857673
14.900000 -1.253492 -0.863128
14.950000 -1.304091 -0.868481
15.000000 -1.343689 -0.873734
15.050000 -1.371547 -0.878887
15.100000 -1.387211 -0.883943
15.150000 -1.390525 -0.888905
15.200000 -1.381630 -0.893773
15.250000 -1.360959 -0.898550
15.300000 -1.329222 -0.903237
15.350000 -1.287391 -0.907836
15.400000 -1.236673 -0.912348
15.450000 -1.178474 -0.916776
15.500000 -1.114371 -0.921121
15.550000 -1.046068 -0.925384
15.600000 -0.975355 -0.929567
15.650000 -0.904062 -0.933671
15.700000 -0.834018 -0.937699
15.750000 -0.767005 -0.941651
15.800000 -0.704716 -0.945529
15.850000 -0.648713 -0.949334
15.900000 -0.600392 -0.953068
15.950000 -0.560950 -0.956732
16.000000 -0.531358 -0.960327
16.050000 -0.512341 -0.963855
16.100000 -0.504357 -0.967316
16.150000 -0.507596 -0.970713
16.200000 -0.521971 -0.974046
16.250000 -0.547126 -0.977317
16.300000 -0.582444 -0.980527
16.350000 -0.627068 -0.983676
16.400000 -0.679921 -0.986767
16.450000 -0.739732 -0.989799
16.500000 -0.805074 -0.992775
16.550000 -0.874394 -0.995695
16.600000 -0.946054 -0.998561
16.650000 -1.018374 -1.001373
16.700000 -1.089668 -1.004132
16.750000 -1.158286 -1.006840
16.800000 -1.222659 -1.009497
16.850000 -1.281327 -1.012105
16.900000 -1.332984 -1.014664
16.950000 -1.376498 -1.017175
17.000000 -1.410944 -1.019639
17.050000 -1.435624 -1.022057
17.100000 -1.450078 -1.024430
17.150000 -1.454097 -1.026758
17.200000 -1.447726 -1.029043
17.250000 -1.431259 -1.031286
17.300000 -1.405229 -1.033486
17.350000 -1.370399 -1.035646
17.400000 -1.327733 -1.037765
17.450000 -1.278378 -1.039845
17.500000 -1.223633 -1.041886
17.550000 -1.164915 -1.043888
17.600000 -1.103725 -1.045854
17.650000 -1.041610 -1.047783
17.700000 -0.980127 -1.049675
17.750000 -0.920804 -1.051533
17.800000 -0.865102 -1.053356
17.850000 -0.814384 -1.055145
17.900000 -0.769879 -1.056901
17.950000 -0.732657 -1.058623
18.000000 -0.703599 -1.060314
18.050000 -0.683385 -1.061974
18.100000 -0.672471 -1.063602
18.150000 -0.671087 -1.065200
18.200000 -0.679226 -1.066769
18.250000 -0.696654 -1.068308
18.300000 -0.722912 -1.069818
18.350000 -0.757329 -1.071301
18.400000 -0.799044 -1.072755
18.450000 -0.847025 -1.074183
18.500000 -0.900095 -1.075584
18.550000 -0.956964 -1.076960
18.600000 -1.016259 -1.078309
18.650000 -1.076561 -1.079634
18.700000 -1.136435 -1.080933
18.750000 -1.194469 -1.082209
18.800000 -1.249305 -1.083461
18.850000 -1.299674 -1.084690
18.900000 -1.344423 -1.085896
18.950000 -1.382547 -1.087079
19.000000 -1.413205 -1.088241
19.050000 -1.435744 -1.089381
19.100000 -1.449714 -1.090499
19.150000 -1.454874 -1.091597
19.200000 -1.451196 -1.092675
19.250000 -1.438867 -1.093732
19.300000 -1.418281 -1.094770
19.350000 -1.390029 -1.095789
19.400000 -1.354879 -1.096789
19.450000 -1.313764 -1.097770
19.500000 -1.267747 -1.098733
19.550000 -1.218007 -1.099678
19.600000 -1.165798 -1.100606
19.650000 -1.112426 -1.101516
19.700000 -1.059212 -1.102410
19.750000 -1.007465 -1.103287
19.800000 -0.958444 -1.104147
19.850000 -0.913334 -1.104992
19.900000 -0.873215 -1.105821
19.950000 -0.839037 -1.106635
20.000000 -0.811597 -1.107433
20.050000 -0.791525 -1.108217
20.100000 -0.779265 -1.108986
20.150000 -0.775069 -1.109742
20.200000 -0.778991 -1.110483
20.250000 -0.790890 -1.111210
20.300000 -0.810430 -1.111924
20.350000 -0.837095 -1.112624
20.400000 -0.870199 -1.113312
20.450000 -0.908906 -1.113987
20.500000 -0.952252 -1.114650
20.550000 -0.999167 -1.115300
20.600000 -1.048504 -1.115938
20.650000 -1.099065 -1.116564
20.700000 -1.149633 -1.117179
20.750000 -1.199001 -1.117782
20.800000 -1.245999 -1.118375
20.850000 -1.289525 -1.118956
20.900000 -1.328567 -1.119527
20.950000 -1.362233 -1.120086
21.000000 -1.389765 -1.120636
21.050000 -1.410561 -1.121176
21.100000 -1.424186 -1.121705
21.150000 -1.430380 -1.122225
21.200000 -1.429068 -1.122735
21.250000 -1.420354 -1.123236
21.300000 -1.404520 -1.123727
21.350000 -1.382021 -1.124209
21.400000 -1.353464 -1.124683
21.450000 -1.319601 -1.125147
21.500000 -1.281306 -1.125604
21.550000 -1.239551 -1.126051
21.600000 -1.195385 -1.126491
21.650000 -1.149907 -1.126922
21.700000 -1.104236 -1.127345
21.750000 -1.059489 -1.127761
21.800000 -1.016751 -1.128169
21.850000 -0.977049 -1.128569
21.900000 -0.941328 -1.128962
21.950000 -0.910429 -1.129348
22.000000 -0.885070 -1.129726
22.050000 -0.865828 -1.130098
22.100000 -0.853129 -1.130463
22.150000 -0.847234 -1.130821
22.200000 -0.848241 -1.131172
22.250000 -0.856077 -1.131517
22.300000 -0.870506 -1.131855
22.350000 -0.891135 -1.132188
22.400000 -0.917422 -1.132514
22.450000 -0.948694 -1.132834
22.500000 -0.984162 -1.133148
22.550000 -1.022942 -1.133457
22.600000 -1.064077 -1.133760
22.650000 -1.106561 -1.134057
22.700000 -1.149363 -1.134349
22.750000 -1.191453 -1.134635
22.800000 -1.231824 -1.134916
22.850000 -1.269523 -1.135192
22.900000 -1.303666 -1.135463
22.950000 -1.333462 -1.135729
23.000000 -1.358232 -1.135990
23.050000 -1.377426 -1.136246
23.100000 -1.390630 -1.136497
23.150000 -1.397579 -1.136744
23.200000 -1.398163 -1.136986
23.250000 -1.392423 -1.137224
23.300000 -1.380557 -1.137458
23.350000 -1.362907 -1.137687
23.400000 -1.339951 -1.137912
23.450000 -1.312293 -1.138132
23.500000 -1.280645 -1.138349
23.550000 -1.245811 -1.138562
23.600000 -1.208663 -1.138771
23.650000 -1.170124 -1.138976
23.700000 -1.131141 -1.139177
23.750000 -1.092667 -1.139374
23.800000 -1.055631 -1.139568
23.850000 -1.020922 -1.139758
23.900000 -0.989366 -1.139945
23.950000 -0.961705 -1.140129
24.000000 -0.938580 -1.140309
24.050000 -0.920519 -1.140485
24.100000 -0.907920 -1.140659
24.150000 -0.901050 -1.140829
24.200000 -0.900031 -1.140996
24.250000 -0.904846 -1.141160
24.300000 -0.915334 -1.141321
24.350000 -0.931200 -1.141479
24.400000 -0.952021 -1.141634
24.450000 -0.977256 -1.141787
24.500000 -1.006264 -1.141936
24.550000 -1.038316 -1.142083
24.600000 -1.072616 -1.142227
24.650000 -1.108321 -1.142369
24.700000 -1.144558 -1.142508
24.750000 -1.180451 -1.142644
24.800000 -1.215137 -1.142778
24.850000 -1.247792 -1.142909
24.900000 -1.277645 -1.143038
24.950000 -1.304000 -1.143164
25.000000 -1.326251 -1.143289
25.050000 -1.343897 -1.143411
25.100000 -1.356551 -1.143530
25.150000 -1.363950 -1.143648
25.200000 -1.365961 -1.143763
25.250000 -1.362582 -1.143877
25.300000 -1.353941 -1.143988
25.350000 -1.340292 -1.144097
25.400000 -1.322008 -1.144204
25.450000 -1.299571 -1.144309
25.500000 -1.273561 -1.144412
25.550000 -1.244637 -1.144514
25.600000 -1.213526 -1.144613
25.650000 -1.180999 -1.144711
25.700000 -1.147857 -1.144807
25.750000 -1.114909 -1.144901
25.800000 -1.082951 -1.144993
25.850000 -1.052752 -1.145084
25.900000 -1.025028 -1.145173
25.950000 -1.000434 -1.145261
26.000000 -0.979539 -1.145346
26.050000 -0.962822 -1.145431
26.100000 -0.950656 -1.145513
26.150000 -0.943298 -1.145594
26.200000 -0.940891 -1.145674
26.250000 -0.943454 -1.145752
26.300000 -0.950888 -1.145829
26.350000 -0.962974 -1.145905
26.400000 -0.979385 -1.145979
26.450000 -0.999691 -1.146051
26.500000 -1.023370 -1.146123
26.550000 -1.049826 -1.146193
26.600000 -1.078396 -1.146261
26.650000 -1.108376 -1.146329
26.700000 -1.139030 -1.146395
26.750000 -1.169613 -1.146460
26.800000 -1.199388 -1.146524
26.850000 -1.227643 -1.146587
26.900000 -1.253709 -1.146648
26.950000 -1.276974 -1.146709
27.000000 -1.296901 -1.146768
27.050000 -1.313035 -1.146826
27.100000 -1.325019 -1.146883
27.150000 -1.332598 -1.146939
27.200000 -1.335626 -1.146994
27.250000 -1.334068 -1.147049
27.300000 -1.327999 -1.147102
27.350000 -1.317605 -1.147154
27.400000 -1.303173 -1.147205
27.450000 -1.285086 -1.147255
27.500000 -1.263812 -1.147304
27.550000 -1.239892 -1.147353
27.600000 -1.213928 -1.147400
27.650000 -1.186565 -1.147447
27.700000 -1.158477 -1.147493
27.750000 -1.130351 -1.147538
27.800000 -1.102867 -1.147582
27.850000 -1.076687 -1.147625
27.900000 -1.052433 -1.147668
27.950000 -1.030678 -1.147710
28.000000 -1.011929 -1.147751
28.050000 -0.996615 -1.147791
28.100000 -0.985081 -1.147830
28.150000 -0.977574 -1.147869
28.200000 -0.974246 -1.147907
28.250000 -0.975144 -1.147945
28.300000 -0.980212 -1.147981
28.350000 -0.989296 -1.148017
28.400000 -1.002144 -1.148053
28.450000 -1.018415 -1.148087
28.500000 -1.037690 -1.148122
28.550000 -1.059479 -1.148155
28.600000 -1.083235 -1.148188
28.650000 -1.108370 -1.148220
28.700000 -1.134264 -1.148252
28.750000 -1.160286 -1.148283
28.800000 -1.185807 -1.148313
28.850000 -1.210215 -1.148343
28.900000 -1.232928 -1.148373
28.950000 -1.253413 -1.148402
29.000000 -1.271193 -1.148430
29.050000 -1.285859 -1.148458
29.100000 -1.297085 -1.148485
29.150000 -1.304626 -1.148512
29.200000 -1.308331 -1.148538
29.250000 -1.308141 -1.148564
29.300000 -1.304094 -1.148590
29.350000 -1.296320 -1.148615
29.400000 -1.285037 -1.148639
29.450000 -1.270547 -1.148663
29.500000 -1.253226 -1.148687
29.550000 -1.233518 -1.148710
29.600000 -1.211918 -1.148733
29.650000 -1.188965 -1.148755
29.700000 -1.165226 -1.148777
29.750000 -1.141280 -1.148798
29.800000 -1.117711 -1.148820
29.850000 -1.095083 -1.148840
29.900000 -1.073939 -1.148861
29.950000 -1.054778 -1.148881
30.000000 -1.038046 -1.148900
30.050000 -1.024131 -1.148920
30.100000 -1.013345 -1.148939
30.150000 -1.005925 -1.148957
30.200000 -1.002024 -1.148975
30.250000 -1.001708 -1.148993
30.300000 -1.004955 -1.149011
30.350000 -1.011659 -1.149028
30.400000 -1.021630 -1.149045
30.450000 -1.034602 -1.149062
30.500000 -1.050235 -1.149078
30.550000 -1.068133 -1.149094
30.600000 -1.087842 -1.149110
30.650000 -1.108874 -1.149125
30.700000 -1.130708 -1.149140
30.750000 -1.152812 -1.149155
30.800000 -1.174647 -1.149170
30.850000 -1.195690 -1.149184
30.900000 -1.215438 -1.149198
30.950000 -1.233424 -1.149212
31.000000 -1.249228 -1.149226
31.050000 -1.262485 -1.149239
31.100000 -1.272897 -1.149252
31.150000 -1.280235 -1.149265
31.200000 -1.284347 -1.149278
31.250000 -1.285158 -1.149290
31.300000 -1.282678 -1.149302
31.350000 -1.276993 -1.149314
31.400000 -1.268266 -1.149326
31.450000 -1.256734 -1.149338
31.500000 -1.242698 -1.149349
31.550000 -1.226519 -1.149360
31.600000 -1.208604 -1.149371
31.650000 -1.189402 -1.149382
31.700000 -1.169388 -1.149392
31.750000 -1.149052 -1.149402
31.800000 -1.128890 -1.149413
31.850000 -1.109386 -1.149422
31.900000 -1.091009 -1.149432
31.950000 -1.074193 -1.149442
32.000000 -1.059332 -1.149451
32.050000 -1.046771 -1.149461
32.100000 -1.036794 -1.149470
32.150000 -1.029623 -1.149478
32.200000 -1.025408 -1.149487
32.250000 -1.024227 -1.149496
32.300000 -1.026085 -1.149504
32.350000 -1.030912 -1.149513
32.400000 -1.038567 -1.149521
32.450000 -1.048844 -1.149529
32.500000 -1.061471 -1.149536
32.550000 -1.076126 -1.149544
32.600000 -1.092438 -1.149552
32.650000 -1.109998 -1.149559
32.700000 -1.128373 -1.149566
32.750000 -1.147111 -1.149574
32.800000 -1.165757 -1.149581
32.850000 -1.183861 -1.149588
32.900000 -1.200990 -1.149594
32.950000 -1.216737 -1.149601
33.000000 -1.230733 -1.149607
33.050000 -1.242654 -1.149614
33.100000 -1.252229 -1.149620
33.150000 -1.259245 -1.149626
33.200000 -1.263553 -1.149632
33.250000 -1.265072 -1.149638
33.300000 -1.263788 -1.149644
33.350000 -1.259754 -1.149650
33.400000 -1.253090 -1.149656
33.450000 -1.243978 -1.149661
33.500000 -1.232660 -1.149667
33.550000 -1.219427 -1.149672
33.600000 -1.204614 -1.149677
33.650000 -1.188592 -1.149682
33.700000 -1.171759 -1.149687
33.750000 -1.154529 -1.149692
33.800000 -1.137321 -1.149697
33.850000 -1.120552 -1.149702
33.900000 -1.104624 -1.149707
33.950000 -1.089914 -1.149711
34.000000 -1.076769 -1.149716
34.050000 -1.065495 -1.149720
34.100000 -1.056348 -1.149724
34.150000 -1.049533 -1.149729
34.200000 -1.045197 -1.149733
34.250000 -1.043423 -1.149737
34.300000 -1.044234 -1.149741
34.350000 -1.047589 -1.149745
34.400000 -1.053388 -1.149749
34.450000 -1.061469 -1.149753
34.500000 -1.071620 -1.149757
34.550000 -1.083579 -1.149760
34.600000 -1.097040 -1.149764
34.650000 -1.111667 -1.149768
34.700000 -1.127098 -1.149771
34.750000 -1.142951 -1.149774
34.800000 -1.158841 -1.149778
34.850000 -1.174384 -1.149781
34.900000 -1.189205 -1.149784
34.950000 -1.202954 -1.149788
35.000000 -1.215305 -1.149791
35.050000 -1.225972 -1.149794
35.100000 -1.234711 -1.149797
35.150000 -1.241326 -1.149800
35.200000 -1.245674 -1.149803
35.250000 -1.247668 -1.149806
35.300000 -1.247280 -1.149808
35.350000 -1.244539 -1.149811
35.400000 -1.239529 -1.149814
35.450000 -1.232390 -1.149817
35.500000 -1.223312 -1.149819
35.550000 -1.212530 -1.149822
35.600000 -1.200320 -1.149824
35.650000 -1.186987 -1.149827
35.700000 -1.172864 -1.149829
35.750000 -1.158298 -1.149832
35.800000 -1.143645 -1.149834
35.850000 -1.129261 -1.149836
35.900000 -1.115490 -1.149838
35.950000 -1.102661 -1.149841
36.000000 -1.091077 -1.149843
36.050000 -1.081008 -1.149845
36.100000 -1.072685 -1.149847
36.150000 -1.066295 -1.149849
36.200000 -1.061977 -1.149851
36.250000 -1.059819 -1.149853
36.300000 -1.059855 -1.149855
36.350000 -1.062067 -1.149857
36.400000 -1.066384 -1.149859
36.450000 -1.072685 -1.149861
36.500000 -1.080801 -1.149863
36.550000 -1.090521 -1.149864
36.600000 -1.101597 -1.149866
36.650000 -1.113751 -1.149868
36.700000 -1.126679 -1.149869
36.750000 -1.140064 -1.149871
36.800000 -1.153577 -1.149873
36.850000 -1.166892 -1.149874
36.900000 -1.179687 -1.149876
36.950000 -1.191657 -1.149877
37.000000 -1.202521 -1.149879
37.050000 -1.212024 -1.149880
37.100000 -1.219947 -1.149882
37.150000 -1.226111 -1.149883
37.200000 -1.230383 -1.149885
37.250000 -1.232673 -1.149886
37.300000 -1.232943 -1.149887
37.350000 -1.231203 -1.149889
37.400000 -1.227510 -1.149890
37.450000 -1.221971 -1.149891
37.500000 -1.214733 -1.149893
37.550000 -1.205986 -1.149894
37.600000 -1.195954 -1.149895
37.650000 -1.184889 -1.149896
37.700000 -1.173067 -1.149897
37.750000 -1.160781 -1.149899
37.800000 -1.148331 -1.149900
37.850000 -1.136020 -1.149901
37.900000 -1.124144 -1.149902
37.950000 -1.112987 -1.149903
38.000000 -1.102813 -1.149904
38.050000 -1.093861 -1.149905
38.100000 -1.086335 -1.149906
38.150000 -1.080408 -1.149907
38.200000 -1.076210 -1.149908
38.250000 -1.073827 -1.149909
38.300000 -1.073303 -1.149910
38.350000 -1.074636 -1.149911
38.400000 -1.077779 -1.149912
38.450000 -1.082640 -1.149913
38.500000 -1.089088 -1.149913
38.550000 -1.096955 -1.149914
38.600000 -1.106039 -1.149915
38.650000 -1.116110 -1.149916
38.700000 -1.126917 -1.149917
38.750000 -1.138193 -1.149918
38.800000 -1.149661 -1.149918
38.850000 -1.161043 -1.149919
38.900000 -1.172063 -1.149920
38.950000 -1.182458 -1.149921
39.000000 -1.191983 -1.149921
39.050000 -1.200414 -1.149922
39.100000 -1.207555 -1.149923
39.150000 -1.213245 -1.149923
39.200000 -1.217358 -1.149924
39.250000 -1.219806 -1.149925
39.300000 -1.220546 -1.149925
39.350000 -1.219571 -1.149926
39.400000 -1.216921 -1.149927
39.450000 -1.212672 -1.149927
39.500000 -1.206940 -1.149928
39.550000 -1.199876 -1.149929
39.600000 -1.191661 -1.149929
39.650000 -1.182504 -1.149930
39.700000 -1.172633 -1.149930
39.750000 -1.162294 -1.149931
39.800000 -1.151739 -1.149931
39.850000 -1.141225 -1.149932
39.900000 -1.131008 -1.149932
39.950000 -1.121330 -1.149933
40.000000 -1.112423 -1.149933
40.050000 -1.104495 -1.149934
40.100000 -1.097730 -1.149934
40.150000 -1.092281 -1.149935
40.200000 -1.088271 -1.149935
40.250000 -1.085785 -1.149936
40.300000 -1.084870 -1.149936
40.350000 -1.085535 -1.149937
40.400000 -1.087753 -1.149937
40.450000 -1.091456 -1.149938
40.500000 -1.096543 -1.149938
40.550000 -1.102880 -1.149938
40.600000 -1.110304 -1.149939
40.650000 -1.118626 -1.149939
40.700000 -1.127638 -1.149940
40.750000 -1.137116 -1.149940
40.800000 -1.146828 -1.149940
40.850000 -1.156536 -1.149941
40.900000 -1.166006 -1.149941
40.950000 -1.175011 -1.149942
41.000000 -1.183337 -1.149942
41.050000 -1.190787 -1.149942
41.100000 -1.197190 -1.149943
41.150000 -1.202399 -1.149943
41.200000 -1.206297 -1.149943
41.250000 -1.208801 -1.149944
41.300000 -1.209861 -1.149944
41.350000 -1.209464 -1.149944
41.400000 -1.207631 -1.149944
41.450000 -1.204418 -1.149945
41.500000 -1.199914 -1.149945
41.550000 -1.194238 -1.149945
41.600000 -1.187537 -1.149946
41.650000 -1.179981 -1.149946
41.700000 -1.171760 -1.149946
41.750000 -1.163078 -1.149946
41.800000 -1.154149 -1.149947
41.850000 -1.145190 -1.149947
41.900000 -1.136419 -1.149947
41.950000 -1.128047 -1.149947
42.000000 -1.120271 -1.149948
42.050000 -1.113276 -1.149948
42.100000 -1.107225 -1.149948
42.150000 -1.102255 -1.149948
42.200000 -1.098479 -1.149949
42.250000 -1.095978 -1.149949
42.300000 -1.094803 -1.149949
42.350000 -1.094970 -1.149949
42.400000 -1.096466 -1.149949
42.450000 -1.099242 -1.149950
42.500000 -1.103222 -1.149950
42.550000 -1.108300 -1.149950
42.600000 -1.114344 -1.149950
42.650000 -1.121200 -1.149950
42.700000 -1.128696 -1.149951
42.750000 -1.136645 -1.149951
42.800000 -1.144851 -1.149951
42.850000 -1.153114 -1.149951
42.900000 -1.161234 -1.149951
42.950000 -1.169015 -1.149952
43.000000 -1.176272 -1.149952
43.050000 -1.182835 -1.149952
43.100000 -1.188548 -1.149952
43.150000 -1.193283 -1.149952
43.200000 -1.196931 -1.149952
43.250000 -1.199414 -1.149953
43.300000 -1.200680 -1.149953
43.350000 -1.200710 -1.149953
43.400000 -1.199512 -1.149953
43.450000 -1.197126 -1.149953
43.500000 -1.193618 -1.149953
43.550000 -1.189083 -1.149953
43.600000 -1.183638 -1.149954
43.650000 -1.177423 -1.149954
43.700000 -1.170594 -1.149954
43.750000 -1.163321 -1.149954
43.800000 -1.155784 -1.149954
43.850000 -1.148167 -1.149954
43.900000 -1.140655 -1.149954
43.950000 -1.133428 -1.149954
44.000000 -1.126660 -1.149955
44.050000 -1.120509 -1.149955
44.100000 -1.115121 -1.149955
44.150000 -1.110618 -1.149955
44.200000 -1.107103 -1.149955
44.250000 -1.104653 -1.149955
44.300000 -1.103318 -1.149955
44.350000 -1.103121 -1.149955
44.400000 -1.104058 -1.149955
44.450000 -1.106098 -1.149956
44.500000 -1.109182 -1.149956
44.550000 -1.113227 -1.149956
44.600000 -1.118127 -1.149956
44.650000 -1.123757 -1.149956
44.700000 -1.129974 -1.149956
44.750000 -1.136625 -1.149956
44.800000 -1.143544 -1.149956
44.850000 -1.150563 -1.149956
44.900000 -1.157510 -1.149956
44.950000 -1.164217 -1.149956
45.000000 -1.170526 -1.149957
45.050000 -1.176287 -1.149957
45.100000 -1.181364 -1.149957
45.150000 -1.185640 -1.149957
45.200000 -1.189019 -1.149957
45.250000 -1.191426 -1.149957
45.300000 -1.192811 -1.149957
45.350000 -1.193148 -1.149957
45.400000 -1.192439 -1.149957
45.450000 -1.190708 -1.149957
45.500000 -1.188005 -1.149957
45.550000 -1.184404 -1.149957
45.600000 -1.180000 -1.149957
45.650000 -1.174905 -1.149957
45.700000 -1.169248 -1.149958
45.750000 -1.163170 -1.149958
45.800000 -1.156822 -1.149958
45.850000 -1.150359 -1.149958
45.900000 -1.143939 -1.149958
45.950000 -1.137716 -1.149958
46.000000 -1.131840 -1.149958
46.050000 -1.126450 -1.149958
46.100000 -1.121671 -1.149958
46.150000 -1.117615 -1.149958
46.200000 -1.114374 -1.149958
46.250000 -1.112020 -1.149958
46.300000 -1.110602 -1.149958
46.350000 -1.110148 -1.149958
46.400000 -1.110659 -1.149958
46.450000 -1.112117 -1.149958
46.500000 -1.114478 -1.149958
46.550000 -1.117678 -1.149958
46.600000 -1.121632 -1.149958
46.650000 -1.126240 -1.149959
46.700000 -1.131383 -1.149959
46.750000 -1.136934 -1.149959
46.800000 -1.142756 -1.149959
46.850000 -1.148704 -1.149959
46.900000 -1.154634 -1.149959
46.950000 -1.160403 -1.149959
47.000000 -1.165873 -1.149959
47.050000 -1.170914 -1.149959
47.100000 -1.175408 -1.149959
47.150000 -1.179249 -1.149959
47.200000 -1.182352 -1.149959
47.250000 -1.184646 -1.149959
47.300000 -1.186082 -1.149959
47.350000 -1.186634 -1.149959
47.400000 -1.186294 -1.149959
47.450000 -1.185078 -1.149959
47.500000 -1.183023 -1.149959
47.550000 -1.180186 -1.149959
47.600000 -1.176640 -1.149959
47.650000 -1.172478 -1.149959
47.700000 -1.167805 -1.149959
47.750000 -1.162738 -1.149959
47.800000 -1.157403 -1.149959
47.850000 -1.151932 -1.149959
47.900000 -1.146457 -1.149959
47.950000 -1.141111 -1.149959
48.000000 -1.136023 -1.149959
48.050000 -1.131312 -1.149960
48.100000 -1.127091 -1.149960
48.150000 -1.123457 -1.149960
48.200000 -1.120493 -1.149960
48.250000 -1.118265 -1.149960
48.300000 -1.116822 -1.149960
48.350000 -1.116192 -1.149960
48.400000 -1.116384 -1.149960
48.450000 -1.117386 -1.149960
48.500000 -1.119167 -1.149960
48.550000 -1.121679 -1.149960
48.600000 -1.124854 -1.149960
48.650000 -1.128610 -1.149960
48.700000 -1.132853 -1.149960
48.750000 -1.137474 -1.149960
48.800000 -1.142360 -1.149960
48.850000 -1.147391 -1.149960
48.900000 -1.152442 -1.149960
48.950000 -1.157393 -1.149960
49.000000 -1.162124 -1.149960
49.050000 -1.166523 -1.149960
49.100000 -1.170485 -1.149960
49.150000 -1.173919 -1.149960
49.200000 -1.176746 -1.149960
49.250000 -1.178902 -1.149960
49.300000 -1.180341 -1.149960
49.350000 -1.181034 -1.149960
49.400000 -1.180970 -1.149960
49.450000 -1.180156 -1.149960
49.500000 -1.178619 -1.149960
49.550000 -1.176402 -1.149960
49.600000 -1.173562 -1.149960
49.650000 -1.170176 -1.149960
49.700000 -1.166327 -1.149960
49.750000 -1.162115 -1.149960
49.800000 -1.157642 -1.149960
49.850000 -1.153020 -1.149960
49.900000 -1.148361 -1.149960
49.950000 -1.143779 -1.149960
50.000000 -1.139383 -1.149960
50.050000 -1.135279 -1.149960
50.100000 -1.131562 -1.149960
50.150000 -1.128321 -1.149960
50.200000 -1.125629 -1.149960
50.250000 -1.123548 -1.149960
50.300000 -1.122122 -1.149960
50.350000 -1.121380 -1.149960
50.400000 -1.121336 -1.149960
50.450000 -1.121984 -1.149960
50.500000 -1.123304 -1.149960
50.550000 -1.125257 -1.149960
50.600000 -1.127792 -1.149960
50.650000 -1.130842 -1.149960
50.700000 -1.134330 -1.149960
50.750000 -1.138168 -1.149960
50.800000 -1.142259 -1.149960
50.850000 -1.146504 -1.149960
50.900000 -1.150798 -1.149960
50.950000 -1.155037 -1.149960
51.000000 -1.159119 -1.149960
51.050000 -1.162947 -1.149960
51.100000 -1.166429 -1.149961
51.150000 -1.169485 -1.149961
51.200000 -1.172044 -1.149961
51.250000 -1.174049 -1.149961
51.300000 -1.175455 -1.149961
51.350000 -1.176233 -1.149961
51.400000 -1.176369 -1.149961
51.450000 -1.175866 -1.149961
51.500000 -1.174740 -1.149961
51.550000 -1.173024 -1.149961
51.600000 -1.170765 -1.149961
51.650000 -1.168021 -1.149961
51.700000 -1.164862 -1.149961
51.750000 -1.161368 -1.149961
51.800000 -1.157627 -1.149961
51.850000 -1.153731 -1.149961
51.900000 -1.149775 -1.149961
51.950000 -1.145856 -1.149961
52.000000 -1.142068 -1.149961
52.050000 -1.138501 -1.149961
52.100000 -1.135240 -1.149961
52.150000 -1.132362 -1.149961
52.200000 -1.129932 -1.149961
52.250000 -1.128007 -1.149961
52.300000 -1.126627 -1.149961
52.350000 -1.125824 -1.149961
52.400000 -1.125610 -1.149961
52.450000 -1.125987 -1.149961
52.500000 -1.126940 -1.149961
52.550000 -1.128443 -1.149961
52.600000 -1.130453 -1.149961
52.650000 -1.132919 -1.149961
52.700000 -1.135778 -1.149961
52.750000 -1.138955 -1.149961
52.800000 -1.142374 -1.149961
52.850000 -1.145948 -1.149961
52.900000 -1.149590 -1.149961
52.950000 -1.153212 -1.149961
53.000000 -1.156726 -1.149961
53.050000 -1.160047 -1.149961
53.100000 -1.163098 -1.149961
53.150000 -1.165807 -1.149961
53.200000 -1.168110 -1.149961
53.250000 -1.169956 -1.149961
53.300000 -1.171304 -1.149961
53.350000 -1.172124 -1.149961
53.400000 -1.172402 -1.149961
53.450000 -1.172135 -1.149961
53.500000 -1.171334 -1.149961
53.550000 -1.170023 -1.149961
53.600000 -1.168237 -1.149961
53.650000 -1.166024 -1.149961
53.700000 -1.163440 -1.149961
53.750000 -1.160551 -1.149961
53.800000 -1.157430 -1.149961
53.850000 -1.154153 -1.149961
53.900000 -1.150801 -1.149961
53.950000 -1.147457 -1.149961
54.000000 -1.144199 -1.149961
54.050000 -1.141108 -1.149961
54.100000 -1.138255 -1.149961
54.150000 -1.135709 -1.149961
54.200000 -1.133528 -1.149961
54.250000 -1.131762 -1.149961
54.300000 -1.130450 -1.149961
54.350000 -1.129621 -1.149961
54.400000 -1.129290 -1.149961
54.450000 -1.129462 -1.149961
54.500000 -1.130128 -1.149961
54.550000 -1.131268 -1.149961
54.600000 -1.132851 -1.149961
54.650000 -1.134835 -1.149961
54.700000 -1.137168 -1.149961
54.750000 -1.139792 -1.149961
54.800000 -1.142641 -1.149961
54.850000 -1.145644 -1.149961
54.900000 -1.148726 -1.149961
54.950000 -1.151814 -1.149961
55.000000 -1.154832 -1.149961
55.050000 -1.157707 -1.149961
55.100000 -1.160372 -1.149961
55.150000 -1.162764 -1.149961
55.200000 -1.164826 -1.149961
55.250000 -1.166513 -1.149961
55.300000 -1.167786 -1.149961
55.350000 -1.168617 -1.149961
55.400000 -1.168990 -1.149961
55.450000 -1.168901 -1.149961
55.500000 -1.168354 -1.149961
55.550000 -1.167367 -1.149961
55.600000 -1.165966 -1.149961
55.650000 -1.164191 -1.149961
55.700000 -1.162085 -1.149961
55.750000 -1.159704 -1.149961
55.800000 -1.157106 -1.149961
55.850000 -1.154356 -1.149961
55.900000 -1.151522 -1.149961
55.950000 -1.148674 -1.149961
56.000000 -1.145879 -1.149961
56.050000 -1.143206 -1.149961
56.100000 -1.140718 -1.149961
56.150000 -1.138474 -1.149961
56.200000 -1.136526 -1.149961
56.250000 -1.134918 -1.149961
56.300000 -1.133687 -1.149961
56.350000 -1.132859 -1.149961
56.400000 -1.132452 -1.149961
56.450000 -1.132471 -1.149961
56.500000 -1.132913 -1.149961
56.550000 -1.133764 -1.149961
56.600000 -1.134999 -1.149961
56.650000 -1.136587 -1.149961
56.700000 -1.138485 -1.149961
56.750000 -1.140644 -1.149961
56.800000 -1.143012 -1.149961
56.850000 -1.145529 -1.149961
56.900000 -1.148132 -1.149961
56.950000 -1.150759 -1.149961
57.000000 -1.153345 -1.149961
57.050000 -1.155828 -1.149961
57.100000 -1.158149 -1.149961
57.150000 -1.160254 -1.149961
57.200000 -1.162092 -1.149961
57.250000 -1.163623 -1.149961
57.300000 -1.164810 -1.149961
57.350000 -1.165629 -1.149961
57.400000 -1.166062 -1.149961
57.450000 -1.166103 -1.149961
57.500000 -1.165753 -1.149961
57.550000 -1.165024 -1.149961
57.600000 -1.163936 -1.149961
57.650000 -1.162520 -1.149961
57.700000 -1.160811 -1.149961
57.750000 -1.158854 -1.149961
57.800000 -1.156697 -1.149961
57.850000 -1.154395 -1.149961
57.900000 -1.152005 -1.149961
57.950000 -1.149584 -1.149961
58.000000 -1.147192 -1.149961
58.050000 -1.144887 -1.149961
58.100000 -1.142723 -1.149961
58.150000 -1.140751 -1.149961
58.200000 -1.139018 -1.149961
58.250000 -1.137564 -1.149961
58.300000 -1.136421 -1.149961
58.350000 -1.135615 -1.149961
58.400000 -1.135162 -1.149961
58.450000 -1.135071 -1.149961
58.500000 -1.135340 -1.149961
58.550000 -1.135961 -1.149961
58.600000 -1.136916 -1.149961
58.650000 -1.138178 -1.149961
58.700000 -1.139715 -1.149961
58.750000 -1.141487 -1.149961
58.800000 -1.143449 -1.149961
58.850000 -1.145554 -1.149961
58.900000 -1.147748 -1.149961
58.950000 -1.149977 -1.149961
59.000000 -1.152188 -1.149961
59.050000 -1.154328 -1.149961
59.100000 -1.156344 -1.149961
59.150000 -1.158190 -1.149961
59.200000 -1.159822 -1.149961
59.250000 -1.161202 -1.149961
59.300000 -1.162299 -1.149961
59.350000 -1.163089 -1.149961
59.400000 -1.163555 -1.149961
59.450000 -1.163689 -1.149961
59.500000 -1.163490 -1.149961
59.550000 -1.162965 -1.149961
59.600000 -1.162130 -1.149961
59.650000 -1.161007 -1.149961
59.700000 -1.159627 -1.149961
59.750000 -1.158024 -1.149961
59.800000 -1.156238 -1.149961
59.850000 -1.154316 -1.149961
59.900000 -1.152304 -1.149961
59.950000 -1.150251 -1.149961
60.000000 -1.148208 -1.149961
60.050000 -1.146224 -1.149961
60.100000 -1.144347 -1.149961
60.150000 -1.142620 -1.149961
60.200000 -1.141085 -1.149961
60.250000 -1.139777 -1.149961
60.300000 -1.138726 -1.149961
60.350000 -1.137954 -1.149961
60.400000 -1.137480 -1.149961
60.450000 -1.137311 -1.149961
60.500000 -1.137449 -1.149961
60.550000 -1.137889 -1.149961
60.600000 -1.138617 -1.149961
60.650000 -1.139614 -1.149961
60.700000 -1.140853 -1.149961
60.750000 -1.142301 -1.149961
60.800000 -1.143924 -1.149961
60.850000 -1.145679 -1.149961
60.900000 -1.147523 -1.149961
60.950000 -1.149412 -1.149961
61.000000 -1.151299 -1.149961
61.050000 -1.153137 -1.149961
61.100000 -1.154885 -1.149961
61.150000 -1.156499 -1.149961
61.200000 -1.157942 -1.149961
61.250000 -1.159180 -1.149961
61.300000 -1.160185 -1.149961
61.350000 -1.160935 -1.149961
61.400000 -1.161413 -1.149961
61.450000 -1.161611 -1.149961
61.500000 -1.161525 -1.149961
61.550000 -1.161161 -1.149961
61.600000 -1.160528 -1.149961
61.650000 -1.159646 -1.149961
61.700000 -1.158536 -1.149961
61.750000 -1.157228 -1.149961
61.800000 -1.155754 -1.149961
61.850000 -1.154153 -1.149961
61.900000 -1.152463 -1.149961
61.950000 -1.150726 -1.149961
62.000000 -1.148985 -1.149961
62.050000 -1.147282 -1.149961
62.100000 -1.145657 -1.149961
62.150000 -1.144149 -1.149961
62.200000 -1.142794 -1.149961
62.250000 -1.141624 -1.149961
62.300000 -1.140664 -1.149961
62.350000 -1.139937 -1.149961
62.400000 -1.139458 -1.149961
62.450000 -1.139237 -1.149961
62.500000 -1.139278 -1.149961
62.550000 -1.139576 -1.149961
62.600000 -1.140123 -1.149961
62.650000 -1.140903 -1.149961
62.700000 -1.141896 -1.149961
62.750000 -1.143076 -1.149961
62.800000 -1.144413 -1.149961
62.850000 -1.145874 -1.149961
62.900000 -1.147421 -1.149961
62.950000 -1.149017 -1.149961
63.000000 -1.150623 -1.149961
63.050000 -1.152200 -1.149961
63.100000 -1.153711 -1.149961
63.150000 -1.155118 -1.149961
63.200000 -1.156389 -1.149961
63.250000 -1.157494 -1.149961
63.300000 -1.158409 -1.149961
63.350000 -1.159112 -1.149961
63.400000 -1.159587 -1.149961
63.450000 -1.159826 -1.149961
63.500000 -1.159825 -1.149961
63.550000 -1.159585 -1.149961
63.600000 -1.159114 -1.149961
63.650000 -1.158426 -1.149961
63.700000 -1.157539 -1.149961
63.750000 -1.156476 -1.149961
63.800000 -1.155263 -1.149961
63.850000 -1.153933 -1.149961
63.900000 -1.152517 -1.149961
63.950000 -1.151050 -1.149961
64.000000 -1.149570 -1.149961
64.050000 -1.148110 -1.149961
64.100000 -1.146708 -1.149961
64.150000 -1.145395 -1.149961
64.200000 -1.144203 -1.149961
64.250000 -1.143161 -1.149961
64.300000 -1.142291 -1.149961
64.350000 -1.141613 -1.149961
64.400000 -1.141143 -1.149961
64.450000 -1.140890 -1.149961
64.500000 -1.140858 -1.149961
64.550000 -1.141047 -1.149961
64.600000 -1.141450 -1.149961
64.650000 -1.142055 -1.149961
64.700000 -1.142847 -1.149961
64.750000 -1.143804 -1.149961
64.800000 -1.144902 -1.149961
64.850000 -1.146114 -1.149961
64.900000 -1.147409 -1.149961
64.950000 -1.148755 -1.149961
65.000000 -1.150119 -1.149961
65.050000 -1.151469 -1.149961
65.100000 -1.152771 -1.149961
65.150000 -1.153995 -1.149961
65.200000 -1.155111 -1.149961
65.250000 -1.156094 -1.149961
65.300000 -1.156920 -1.149961
65.350000 -1.157572 -1.149961
65.400000 -1.158034 -1.149961
65.450000 -1.158297 -1.149961
65.500000 -1.158356 -1.149961
65.550000 -1.158213 -1.149961
65.600000 -1.157870 -1.149961
65.650000 -1.157339 -1.149961
65.700000 -1.156634 -1.149961
65.750000 -1.155774 -1.149961
65.800000 -1.154780 -1.149961
65.850000 -1.153677 -1.149961
65.900000 -1.152494 -1.149961
65.950000 -1.151258 -1.149961
66.000000 -1.150002 -1.149961
66.050000 -1.148754 -1.149961
66.100000 -1.147546 -1.149961
66.150000 -1.146406 -1.149961
66.200000 -1.145361 -1.149961
66.250000 -1.144436 -1.149961
66.300000 -1.143652 -1.149961
66.350000 -1.143027 -1.149961
66.400000 -1.142575 -1.149961
66.450000 -1.142305 -1.149961
66.500000 -1.142222 -1.149961
66.550000 -1.142327 -1.149961
66.600000 -1.142616 -1.149961
66.650000 -1.143080 -1.149961
66.700000 -1.143706 -1.149961
66.750000 -1.144479 -1.149961
66.800000 -1.145378 -1.149961
66.850000 -1.146381 -1.149961
66.900000 -1.147462 -1.149961
66.950000 -1.148595 -1.149961
67.000000 -1.149751 -1.149961
67.050000 -1.150904 -1.149961
67.100000 -1.152024 -1.149961
67.150000 -1.153085 -1.149961
67.200000 -1.154062 -1.149961
67.250000 -1.154932 -1.149961
67.300000 -1.155675 -1.149961
67.350000 -1.156274 -1.149961
67.400000 -1.156715 -1.149961
67.450000 -1.156989 -1.149961
67.500000 -1.157091 -1.149961
67.550000 -1.157020 -1.149961
67.600000 -1.156779 -1.149961
67.650000 -1.156375 -1.149961
67.700000 -1.155819 -1.149961
67.750000 -1.155125 -1.149961
67.800000 -1.154313 -1.149961
67.850000 -1.153402 -1.149961
67.900000 -1.152415 -1.149961
67.950000 -1.151377 -1.149961
68.000000 -1.150313 -1.149961
68.050000 -1.149249 -1.149961
68.100000 -1.148211 -1.149961
68.150000 -1.147223 -1.149961
68.200000 -1.146310 -1.149961
68.250000 -1.145493 -1.149961
68.300000 -1.144790 -1.149961
68.350000 -1.144218 -1.149961
68.400000 -1.143789 -1.149961
68.450000 -1.143513 -1.149961
68.500000 -1.143395 -1.149961
68.550000 -1.143437 -1.149961
68.600000 -1.143637 -1.149961
68.650000 -1.143987 -1.149961
68.700000 -1.144480 -1.149961
68.750000 -1.145100 -1.149961
68.800000 -1.145834 -1.149961
68.850000 -1.146661 -1.149961
68.900000 -1.147561 -1.149961
68.950000 -1.148512 -1.149961
69.000000 -1.149491 -1.149961
69.050000 -1.150473 -1.149961
69.100000 -1.151434 -1.149961
69.150000 -1.152352 -1.149961
69.200000 -1.153205 -1.149961
69.250000 -1.153973 -1.149961
69.300000 -1.154637 -1.149961
69.350000 -1.155183 -1.149961
69.400000 -1.155598 -1.149961
69.450000 -1.155873 -1.149961
69.500000 -1.156004 -1.149961
69.550000 -1.155987 -1.149961
69.600000 -1.155824 -1.149961
69.650000 -1.155522 -1.149961
69.700000 -1.155087 -1.149961
69.750000 -1.154531 -1.149961
69.800000 -1.153870 -1.149961
69.850000 -1.153120 -1.149961
69.900000 -1.152299 -1.149961
69.950000 -1.151428 -1.149961
70.000000 -1.150529 -1.149961
70.050000 -1.149623 -1.149961
70.100000 -1.148733 -1.149961
70.150000 -1.147880 -1.149961
70.200000 -1.147084 -1.149961
70.250000 -1.146364 -1.149961
70.300000 -1.145737 -1.149961
70.350000 -1.145217 -1.149961
70.400000 -1.144816 -1.149961
70.450000 -1.144543 -1.149961
70.500000 -1.144403 -1.149961
70.550000 -1.144398 -1.149961
70.600000 -1.144528 -1.149961
70.650000 -1.144788 -1.149961
70.700000 -1.145172 -1.149961
70.750000 -1.145667 -1.149961
70.800000 -1.146263 -1.149961
70.850000 -1.146944 -1.149961
70.900000 -1.147691 -1.149961
70.950000 -1.148488 -1.149961
71.000000 -1.149314 -1.149961
71.050000 -1.150149 -1.149961
71.100000 -1.150972 -1.149961
71.150000 -1.151764 -1.149961
71.200000 -1.152507 -1.149961
71.250000 -1.153181 -1.149961
71.300000 -1.153773 -1.149961
71.350000 -1.154267 -1.149961
71.400000 -1.154654 -1.149961
71.450000 -1.154923 -1.149961
71.500000 -1.155071 -1.149961
71.550000 -1.155094 -1.149961
71.600000 -1.154992 -1.149961
71.650000 -1.154770 -1.149961
71.700000 -1.154433 -1.149961
71.750000 -1.153991 -1.149961
71.800000 -1.153455 -1.149961
71.850000 -1.152839 -1.149961
71.900000 -1.152158 -1.149961
71.950000 -1.151429 -1.149961
72.000000 -1.150671 -1.149961
72.050000 -1.149902 -1.149961
72.100000 -1.149141 -1.149961
72.150000 -1.148405 -1.149961
72.200000 -1.147713 -1.149961
72.250000 -1.147082 -1.149961
72.300000 -1.146524 -1.149961
72.350000 -1.146055 -1.149961
72.400000 -1.145683 -1.149961
72.450000 -1.145419 -1.149961
72.500000 -1.145266 -1.149961
72.550000 -1.145228 -1.149961
72.600000 -1.145304 -1.149961
72.650000 -1.145493 -1.149961
72.700000 -1.145788 -1.149961
72.750000 -1.146182 -1.149961
72.800000 -1.146664 -1.149961
72.850000 -1.147221 -1.149961
72.900000 -1.147841 -1.149961
72.950000 -1.148506 -1.149961
73.000000 -1.149202 -1.149961
73.050000 -1.149910 -1.149961
73.100000 -1.150614 -1.149961
73.150000 -1.151296 -1.149961
73.200000 -1.151940 -1.149961
73.250000 -1.152532 -1.149961
73.300000 -1.153056 -1.149961
73.350000 -1.153501 -1.149961
73.400000 -1.153857 -1.149961
73.450000 -1.154116 -1.149961
73.500000 -1.154273 -1.149961
73.550000 -1.154324 -1.149961
73.600000 -1.154269 -1.149961
73.650000 -1.154110 -1.149961
73.700000 -1.153852 -1.149961
73.750000 -1.153502 -1.149961
73.800000 -1.153070 -1.149961
73.850000 -1.152566 -1.149961
73.900000 -1.152002 -1.149961
73.950000 -1.151395 -1.149961
74.000000 -1.150757 -1.149961
74.050000 -1.150105 -1.149961
74.100000 -1.149455 -1.149961
74.150000 -1.148823 -1.149961
74.200000 -1.148223 -1.149961
74.250000 -1.147670 -1.149961
74.300000 -1.147177 -1.149961
74.350000 -1.146755 -1.149961
74.400000 -1.146414 -1.149961
74.450000 -1.146162 -1.149961
74.500000 -1.146003 -1.149961
74.550000 -1.145942 -1.149961
74.600000 -1.145978 -1.149961
74.650000 -1.146111 -1.149961
74.700000 -1.146335 -1.149961
74.750000 -1.146645 -1.149961
74.800000 -1.147033 -1.149961
74.850000 -1.147488 -1.149961
74.900000 -1.148000 -1.149961
74.950000 -1.148555 -1.149961
75.000000 -1.149139 -1.149961
75.050000 -1.149739 -1.149961
75.100000 -1.150339 -1.149961
75.150000 -1.150925 -1.149961
75.200000 -1.151483 -1.149961
75.250000 -1.152000 -1.149961
75.300000 -1.152463 -1.149961
75.350000 -1.152862 -1.149961
75.400000 -1.153187 -1.149961
75.450000 -1.153432 -1.149961
75.500000 -1.153591 -1.149961
75.550000 -1.153661 -1.149961
75.600000 -1.153641 -1.149961
75.650000 -1.153532 -1.149961
75.700000 -1.153338 -1.149961
75.750000 -1.153063 -1.149961
75.800000 -1.152716 -1.149961
75.850000 -1.152305 -1.149961
75.900000 -1.151841 -1.149961
75.950000 -1.151334 -1.149961
76.000000 -1.150799 -1.149961
76.050000 -1.150248 -1.149961
76.100000 -1.149694 -1.149961
76.150000 -1.149152 -1.149961
76.200000 -1.148633 -1.149961
76.250000 -1.148151 -1.149961
76.300000 -1.147716 -1.149961
76.350000 -1.147339 -1.149961
76.400000 -1.147028 -1.149961
76.450000 -1.146791 -1.149961
76.500000 -1.146633 -1.149961
76.550000 -1.146556 -1.149961
76.600000 -1.146562 -1.149961
76.650000 -1.146651 -1.149961
76.700000 -1.146818 -1.149961
76.750000 -1.147061 -1.149961
76.800000 -1.147371 -1.149961
76.850000 -1.147742 -1.149961
76.900000 -1.148163 -1.149961
76.950000 -1.148624 -1.149961
77.000000 -1.149114 -1.149961
77.050000 -1.149621 -1.149961
77.100000 -1.150131 -1.149961
77.150000 -1.150633 -1.149961
77.200000 -1.151115 -1.149961
77.250000 -1.151566 -1.149961
77.300000 -1.151973 -1.149961
77.350000 -1.152329 -1.149961
77.400000 -1.152625 -1.149961
77.450000 -1.152854 -1.149961
77.500000 -1.153011 -1.149961
77.550000 -1.153093 -1.149961
77.600000 -1.153098 -1.149961
77.650000 -1.153028 -1.149961
77.700000 -1.152884 -1.149961
77.750000 -1.152671 -1.149961
77.800000 -1.152393 -1.149961
77.850000 -1.152060 -1.149961
77.900000 -1.151678 -1.149961
77.950000 -1.151258 -1.149961
78.000000 -1.150809 -1.149961
78.050000 -1.150344 -1.149961
78.100000 -1.149874 -1.149961
78.150000 -1.149409 -1.149961
78.200000 -1.148962 -1.149961
78.250000 -1.148542 -1.149961
78.300000 -1.148160 -1.149961
78.350000 -1.147824 -1.149961
78.400000 -1.147543 -1.149961
78.450000 -1.147323 -1.149961
78.500000 -1.147168 -1.149961
78.550000 -1.147082 -1.149961
78.600000 -1.147067 -1.149961
78.650000 -1.147121 -1.149961
78.700000 -1.147244 -1.149961
78.750000 -1.147431 -1.149961
78.800000 -1.147678 -1.149961
78.850000 -1.147979 -1.149961
78.900000 -1.148324 -1.149961
78.950000 -1.148707 -1.149961
79.000000 -1.149117 -1.149961
79.050000 -1.149543 -1.149961
79.100000 -1.149977 -1.149961
79.150000 -1.150407 -1.149961
79.200000 -1.150822 -1.149961
79.250000 -1.151213 -1.149961
79.300000 -1.151571 -1.149961
79.350000 -1.151887 -1.149961
79.400000 -1.152153 -1.149961
79.450000 -1.152365 -1.149961
79.500000 -1.152517 -1.149961
79.550000 -1.152606 -1.149961
79.600000 -1.152630 -1.149961
79.650000 -1.152589 -1.149961
79.700000 -1.152485 -1.149961
79.750000 -1.152321 -1.149961
79.800000 -1.152101 -1.149961
79.850000 -1.151831 -1.149961
79.900000 -1.151519 -1.149961
79.950000 -1.151171 -1.149961
80.000000 -1.150796 -1.149961
80.050000 -1.150405 -1.149961
80.100000 -1.150006 -1.149961
80.150000 -1.149609 -1.149961
80.200000 -1.149223 -1.149961
80.250000 -1.148859 -1.149961
80.300000 -1.148524 -1.149961
80.350000 -1.148227 -1.149961
80.400000 -1.147974 -1.149961
80.450000 -1.147772 -1.149961
80.500000 -1.147623 -1.149961
80.550000 -1.147533 -1.149961
80.600000 -1.147502 -1.149961
80.650000 -1.147530 -1.149961
80.700000 -1.147618 -1.149961
80.750000 -1.147761 -1.149961
80.800000 -1.147956 -1.149961
80.850000 -1.148198 -1.149961
80.900000 -1.148481 -1.149961
80.950000 -1.148797 -1.149961
81.000000 -1.149139 -1.149961
81.050000 -1.149498 -1.149961
81.100000 -1.149865 -1.149961
81.150000 -1.150232 -1.149961
81.200000 -1.150589 -1.149961
81.250000 -1.150928 -1.149961
81.300000 -1.151241 -1.149961
81.350000 -1.151520 -1.149961
81.400000 -1.151760 -1.149961
81.450000 -1.151954 -1.149961
81.500000 -1.152098 -1.149961
81.550000 -1.152189 -1.149961
81.600000 -1.152226 -1.149961
81.650000 -1.152208 -1.149961
81.700000 -1.152135 -1.149961
81.750000 -1.152011 -1.149961
81.800000 -1.151838 -1.149961
81.850000 -1.151621 -1.149961
81.900000 -1.151366 -1.149961
81.950000 -1.151078 -1.149961
82.000000 -1.150766 -1.149961
82.050000 -1.150437 -1.149961
82.100000 -1.150100 -1.149961
82.150000 -1.149761 -1.149961
82.200000 -1.149430 -1.149961
82.250000 -1.149115 -1.149961
82.300000 -1.148823 -1.149961
82.350000 -1.148560 -1.149961
82.400000 -1.148334 -1.149961
82.450000 -1.148149 -1.149961
82.500000 -1.148009 -1.149961
82.550000 -1.147917 -1.149961
82.600000 -1.147876 -1.149961
82.650000 -1.147885 -1.149961
82.700000 -1.147945 -1.149961
82.750000 -1.148052 -1.149961
82.800000 -1.148205 -1.149961
82.850000 -1.148399 -1.149961
82.900000 -1.148630 -1.149961
82.950000 -1.148891 -1.149961
83.000000 -1.149175 -1.149961
83.050000 -1.149476 -1.149961
83.100000 -1.149787 -1.149961
83.150000 -1.150099 -1.149961
83.200000 -1.150405 -1.149961
83.250000 -1.150698 -1.149961
83.300000 -1.150971 -1.149961
83.350000 -1.151217 -1.149961
83.400000 -1.151431 -1.149961
83.450000 -1.151608 -1.149961
83.500000 -1.151743 -1.149961
83.550000 -1.151834 -1.149961
83.600000 -1.151880 -1.149961
83.650000 -1.151878 -1.149961
83.700000 -1.151830 -1.149961
83.750000 -1.151737 -1.149961
83.800000 -1.151602 -1.149961
83.850000 -1.151429 -1.149961
83.900000 -1.151221 -1.149961
83.950000 -1.150984 -1.149961
84.000000 -1.150725 -1.149961
84.050000 -1.150450 -1.149961
84.100000 -1.150164 -1.149961
84.150000 -1.149876 -1.149961
84.200000 -1.149593 -1.149961
84.250000 -1.149321 -1.149961
84.300000 -1.149066 -1.149961
84.350000 -1.148835 -1.149961
84.400000 -1.148633 -1.149961
84.450000 -1.148465 -1.149961
84.500000 -1.148335 -1.149961
84.550000 -1.148245 -1.149961
84.600000 -1.148197 -1.149961
84.650000 -1.148192 -1.149961
84.700000 -1.148230 -1.149961
84.750000 -1.148309 -1.149961
84.800000 -1.148428 -1.149961
84.850000 -1.148583 -1.149961
84.900000 -1.148770 -1.149961
84.950000 -1.148984 -1.149961
85.000000 -1.149220 -1.149961
85.050000 -1.149472 -1.149961
85.100000 -1.149734 -1.149961
85.150000 -1.150000 -1.149961
85.200000 -1.150262 -1.149961
85.250000 -1.150515 -1.149961
85.300000 -1.150752 -1.149961
85.350000 -1.150968 -1.149961
85.400000 -1.151158 -1.149961
85.450000 -1.151318 -1.149961
85.500000 -1.151444 -1.149961
85.550000 -1.151532 -1.149961
85.600000 -1.151582 -1.149961
85.650000 -1.151593 -1.149961
85.700000 -1.151564 -1.149961
85.750000 -1.151496 -1.149961
85.800000 -1.151392 -1.149961
85.850000 -1.151254 -1.149961
85.900000 -1.151086 -1.149961
85.950000 -1.150892 -1.149961
86.000000 -1.150677 -1.149961
86.050000 -1.150446 -1.149961
86.100000 -1.150206 -1.149961
86.150000 -1.149962 -1.149961
86.200000 -1.149719 -1.149961
86.250000 -1.149485 -1.149961
86.300000 -1.149264 -1.149961
86.350000 -1.149061 -1.149961
86.400000 -1.148882 -1.149961
86.450000 -1.148730 -1.149961
86.500000 -1.148610 -1.149961
86.550000 -1.148523 -1.149961
86.600000 -1.148472 -1.149961
86.650000 -1.148457 -1.149961
86.700000 -1.148478 -1.149961
86.750000 -1.148535 -1.149961
86.800000 -1.148626 -1.149961
86.850000 -1.148749 -1.149961
86.900000 -1.148900 -1.149961
86.950000 -1.149076 -1.149961
87.000000 -1.149271 -1.149961
87.050000 -1.149482 -1.149961
87.100000 -1.149702 -1.149961
87.150000 -1.149927 -1.149961
87.200000 -1.150151 -1.149961
87.250000 -1.150368 -1.149961
87.300000 -1.150574 -1.149961
87.350000 -1.150764 -1.149961
87.400000 -1.150932 -1.149961
87.450000 -1.151076 -1.149961
87.500000 -1.151191 -1.149961
87.550000 -1.151276 -1.149961
87.600000 -1.151328 -1.149961
87.650000 -1.151347 -1.149961
87.700000 -1.151332 -1.149961
87.750000 -1.151285 -1.149961
87.800000 -1.151205 -1.149961
87.850000 -1.151096 -1.149961
87.900000 -1.150961 -1.149961
87.950000 -1.150802 -1.149961
88.000000 -1.150624 -1.149961
88.050000 -1.150432 -1.149961
88.100000 -1.150230 -1.149961
88.150000 -1.150023 -1.149961
88.200000 -1.149816 -1.149961
88.250000 -1.149615 -1.149961
88.300000 -1.149423 -1.149961
88.350000 -1.149246 -1.149961
88.400000 -1.149088 -1.149961
88.450000 -1.148952 -1.149961
88.500000 -1.148842 -1.149961
88.550000 -1.148759 -1.149961
88.600000 -1.148706 -1.149961
88.650000 -1.148684 -1.149961
88.700000 -1.148693 -1.149961
88.750000 -1.148733 -1.149961
88.800000 -1.148802 -1.149961
88.850000 -1.148899 -1.149961
88.900000 -1.149020 -1.149961
88.950000 -1.149163 -1.149961
89.000000 -1.149324 -1.149961
89.050000 -1.149500 -1.149961
89.100000 -1.149685 -1.149961
89.150000 -1.149875 -1.149961
89.200000 -1.150066 -1.149961
89.250000 -1.150253 -1.149961
89.300000 -1.150431 -1.149961
89.350000 -1.150596 -1.149961
89.400000 -1.150745 -1.149961
89.450000 -1.150873 -1.149961
89.500000 -1.150979 -1.149961
89.550000 -1.151059 -1.149961
89.600000 -1.151112 -1.149961
89.650000 -1.151136 -1.149961
89.700000 -1.151132 -1.149961
89.750000 -1.151100 -1.149961
89.800000 -1.151040 -1.149961
89.850000 -1.150955 -1.149961
89.900000 -1.150846 -1.149961
89.950000 -1.150717 -1.149961
90.000000 -1.150570 -1.149961
90.050000 -1.150411 -1.149961
90.100000 -1.150241 -1.149961
90.150000 -1.150066 -1.149961
90.200000 -1.149890 -1.149961
90.250000 -1.149717 -1.149961
90.300000 -1.149552 -1.149961
90.350000 -1.149397 -1.149961
90.400000 -1.149258 -1.149961
90.450000 -1.149137 -1.149961
90.500000 -1.149036 -1.149961
90.550000 -1.148959 -1.149961
90.600000 -1.148906 -1.149961
90.650000 -1.148880 -1.149961
90.700000 -1.148880 -1.149961
90.750000 -1.148906 -1.149961
90.800000 -1.148957 -1.149961
90.850000 -1.149032 -1.149961
90.900000 -1.149129 -1.149961
90.950000 -1.149246 -1.149961
91.000000 -1.149379 -1.149961
91.050000 -1.149524 -1.149961
91.100000 -1.149679 -1.149961
91.150000 -1.149840 -1.149961
91.200000 -1.150002 -1.149961
91.250000 -1.150162 -1.149961
91.300000 -1.150316 -1.149961
91.350000 -1.150460 -1.149961
91.400000 -1.150591 -1.149961
91.450000 -1.150705 -1.149961
91.500000 -1.150801 -1.149961
91.550000 -1.150875 -1.149961
91.600000 -1.150927 -1.149961
91.650000 -1.150955 -1.149961
91.700000 -1.150959 -1.149961
91.750000 -1.150938 -1.149961
91.800000 -1.150894 -1.149961
91.850000 -1.150828 -1.149961
91.900000 -1.150742 -1.149961
91.950000 -1.150637 -1.149961
92.000000 -1.150517 -1.149961
92.050000 -1.150384 -1.149961
92.100000 -1.150242 -1.149961
92.150000 -1.150095 -1.149961
92.200000 -1.149945 -1.149961
92.250000 -1.149797 -1.149961
92.300000 -1.149654 -1.149961
92.350000 -1.149520 -1.149961
92.400000 -1.149398 -1.149961
92.450000 -1.149290 -1.149961
92.500000 -1.149199 -1.149961
92.550000 -1.149128 -1.149961
92.600000 -1.149077 -1.149961
92.650000 -1.149048 -1.149961
92.700000 -1.149041 -1.149961
92.750000 -1.149056 -1.149961
92.800000 -1.149094 -1.149961
92.850000 -1.149152 -1.149961
92.900000 -1.149229 -1.149961
92.950000 -1.149323 -1.149961
93.000000 -1.149432 -1.149961
93.050000 -1.149553 -1.149961
93.100000 -1.149682 -1.149961
93.150000 -1.149817 -1.149961
93.200000 -1.149955 -1.149961
93.250000 -1.150092 -1.149961
93.300000 -1.150224 -1.149961
93.350000 -1.150349 -1.149961
93.400000 -1.150464 -1.149961
93.450000 -1.150565 -1.149961
93.500000 -1.150652 -1.149961
93.550000 -1.150720 -1.149961
93.600000 -1.150770 -1.149961
93.650000 -1.150800 -1.149961
93.700000 -1.150809 -1.149961
93.750000 -1.150798 -1.149961
93.800000 -1.150766 -1.149961
93.850000 -1.150716 -1.149961
93.900000 -1.150647 -1.149961
93.950000 -1.150563 -1.149961
94.000000 -1.150464 -1.149961
94.050000 -1.150354 -1.149961
94.100000 -1.150236 -1.149961
94.150000 -1.150112 -1.149961
94.200000 -1.149985 -1.149961
94.250000 -1.149859 -1.149961
94.300000 -1.149736 -1.149961
94.350000 -1.149620 -1.149961
94.400000 -1.149513 -1.149961
94.450000 -1.149417 -1.149961
94.500000 -1.149336 -1.149961
94.550000 -1.149270 -1.149961
94.600000 -1.149221 -1.149961
94.650000 -1.149191 -1.149961
94.700000 -1.149180 -1.149961
94.750000 -1.149187 -1.149961
94.800000 -1.149214 -1.149961
94.850000 -1.149258 -1.149961
94.900000 -1.149318 -1.149961
94.950000 -1.149394 -1.149961
95.000000 -1.149483 -1.149961
95.050000 -1.149583 -1.149961
95.100000 -1.149691 -1.149961
95.150000 -1.149805 -1.149961
95.200000 -1.149921 -1.149961
95.250000 -1.150038 -1.149961
95.300000 -1.150152 -1.149961
95.350000 -1.150260 -1.149961
95.400000 -1.150360 -1.149961
95.450000 -1.150450 -1.149961
95.500000 -1.150527 -1.149961
95.550000 -1.150590 -1.149961
95.600000 -1.150637 -1.149961
95.650000 -1.150667 -1.149961
95.700000 -1.150680 -1.149961
95.750000 -1.150676 -1.149961
95.800000 -1.150654 -1.149961
95.850000 -1.150616 -1.149961
95.900000 -1.150562 -1.149961
95.950000 -1.150494 -1.149961
96.000000 -1.150414 -1.149961
96.050000 -1.150324 -1.149961
96.100000 -1.150225 -1.149961
96.150000 -1.150121 -1.149961
96.200000 -1.150014 -1.149961
96.250000 -1.149906 -1.149961
96.300000 -1.149801 -1.149961
96.350000 -1.149700 -1.149961
96.400000 -1.149606 -1.149961
96.450000 -1.149522 -1.149961
96.500000 -1.149449 -1.149961
96.550000 -1.149389 -1.149961
96.600000 -1.149344 -1.149961
96.650000 -1.149313 -1.149961
96.700000 -1.149299 -1.149961
96.750000 -1.149301 -1.149961
96.800000 -1.149318 -1.149961
96.850000 -1.149351 -1.149961
96.900000 -1.149399 -1.149961
96.950000 -1.149459 -1.149961
97.000000 -1.149532 -1.149961
97.050000 -1.149614 -1.149961
97.100000 -1.149704 -1.149961
97.150000 -1.149799 -1.149961
97.200000 -1.149898 -1.149961
97.250000 -1.149997 -1.149961
97.300000 -1.150095 -1.149961
97.350000 -1.150188 -1.149961
97.400000 -1.150275 -1.149961
97.450000 -1.150354 -1.149961
97.500000 -1.150423 -1.149961
97.550000 -1.150480 -1.149961
97.600000 -1.150524 -1.149961
97.650000 -1.150555 -1.149961
97.700000 -1.150570 -1.149961
97.750000 -1.150571 -1.149961
97.800000 -1.150557 -1.149961
97.850000 -1.150528 -1.149961
97.900000 -1.150486 -1.149961
97.950000 -1.150432 -1.149961
98.000000 -1.150367 -1.149961
98.050000 -1.150292 -1.149961
98.100000 -1.150211 -1.149961
98.150000 -1.150123 -1.149961
98.200000 -1.150033 -1.149961
98.250000 -1.149941 -1.149961
98.300000 -1.149851 -1.149961
98.350000 -1.149764 -1.149961
98.400000 -1.149683 -1.149961
98.450000 -1.149609 -1.149961
98.500000 -1.149544 -1.149961
98.550000 -1.149490 -1.149961
98.600000 -1.149447 -1.149961
98.650000 -1.149417 -1.149961
98.700000 -1.149401 -1.149961
98.750000 -1.149398 -1.149961
98.800000 -1.149409 -1.149961
98.850000 -1.149434 -1.149961
98.900000 -1.149470 -1.149961
98.950000 -1.149519 -1.149961
99.000000 -1.149577 -1.149961
99.050000 -1.149645 -1.149961
99.100000 -1.149719 -1.149961
99.150000 -1.149799 -1.149961
99.200000 -1.149882 -1.149961
99.250000 -1.149967 -1.149961
99.300000 -1.150050 -1.149961
99.350000 -1.150131 -1.149961
99.400000 -1.150207 -1.149961
99.450000 -1.150276 -1.149961
99.500000 -1.150337 -1.149961
99.550000 -1.150389 -1.149961
99.600000 -1.150429 -1.149961
99.650000 -1.150459 -1.149961
99.700000 -1.150475 -1.149961
99.750000 -1.150480 -1.149961
99.800000 -1.150471 -1.149961
99.850000 -1.150451 -1.149961
99.900000 -1.150419 -1.149961
99.950000 -1.150376 -1.149961
100.000000 -1.150323 -1.149961
100.050000 -1.150262 -1.149961
100.100000 -1.150194 -1.149961
100.150000 -1.150121 -1.149961
100.200000 -1.150045 -1.149961
100.250000 -1.149967 -1.149961
100.300000 -1.149890 -1.149961
100.350000 -1.149815 -1.149961
100.400000 -1.149745 -1.149961
100.450000 -1.149680 -1.149961
100.500000 -1.149622 -1.149961
100.550000 -1.149573 -1.149961
100.600000 -1.149534 -1.149961
100.650000 -1.149506 -1.149961
100.700000 -1.149489 -1.149961
100.750000 -1.149483 -1.149961
100.800000 -1.149489 -1.149961
100.850000 -1.149506 -1.149961
100.900000 -1.149534 -1.149961
100.950000 -1.149572 -1.149961
101.000000 -1.149620 -1.149961
101.050000 -1.149675 -1.149961
101.100000 -1.149737 -1.149961
101.150000 -1.149803 -1.149961
101.200000 -1.149873 -1.149961
101.250000 -1.149944 -1.149961
101.300000 -1.150016 -1.149961
101.350000 -1.150085 -1.149961
101.400000 -1.150151 -1.149961
101.450000 -1.150212 -1.149961
101.500000 -1.150266 -1.149961
101.550000 -1.150312 -1.149961
101.600000 -1.150349 -1.149961
101.650000 -1.150377 -1.149961
101.700000 -1.150395 -1.149961
101.750000 -1.150401 -1.149961
101.800000 -1.150398 -1.149961
101.850000 -1.150383 -1.149961
101.900000 -1.150359 -1.149961
101.950000 -1.150325 -1.149961
102.000000 -1.150282 -1.149961
102.050000 -1.150232 -1.149961
102.100000 -1.150176 -1.149961
102.150000 -1.150116 -1.149961
102.200000 -1.150052 -1.149961
102.250000 -1.149986 -1.149961
102.300000 -1.149920 -1.149961
102.350000 -1.149856 -1.149961
102.400000 -1.149795 -1.149961
102.450000 -1.149738 -1.149961
102.500000 -1.149687 -1.149961
102.550000 -1.149644 -1.149961
102.600000 -1.149608 -1.149961
102.650000 -1.149581 -1.149961
102.700000 -1.149563 -1.149961
102.750000 -1.149556 -1.149961
102.800000 -1.149558 -1.149961
102.850000 -1.149569 -1.149961
102.900000 -1.149591 -1.149961
102.950000 -1.149621 -1.149961
103.000000 -1.149659 -1.149961
103.050000 -1.149704 -1.149961
103.100000 -1.149754 -1.149961
103.150000 -1.149810 -1.149961
103.200000 -1.149869 -1.149961
103.250000 -1.149929 -1.149961
103.300000 -1.149990 -1.149961
103.350000 -1.150049 -1.149961
103.400000 -1.150106 -1.149961
103.450000 -1.150159 -1.149961
103.500000 -1.150207 -1.149961
103.550000 -1.150248 -1.149961
103.600000 -1.150282 -1.149961
103.650000 -1.150308 -1.149961
103.700000 -1.150326 -1.149961
103.750000 -1.150334 -1.149961
103.800000 -1.150334 -1.149961
103.850000 -1.150324 -1.149961
103.900000 -1.150306 -1.149961
103.950000 -1.150279 -1.149961
104.000000 -1.150245 -1.149961
104.050000 -1.150205 -1.149961
104.100000 -1.150159 -1.149961
104.150000 -1.150108 -1.149961
104.200000 -1.150054 -1.149961
104.250000 -1.149999 -1.149961
104.300000 -1.149943 -1.149961
104.350000 -1.149888 -1.149961
104.400000 -1.149835 -1.149961
104.450000 -1.149786 -1.149961
104.500000 -1.149741 -1.149961
104.550000 -1.149702 -1.149961
104.600000 -1.149669 -1.149961
104.650000 -1.149644 -1.149961
104.700000 -1.149627 -1.149961
104.750000 -1.149618 -1.149961
104.800000 -1.149617 -1.149961
104.850000 -1.149625 -1.149961
104.900000 -1.149640 -1.149961
104.950000 -1.149664 -1.149961
105.000000 -1.149694 -1.149961
105.050000 -1.149731 -1.149961
105.100000 -1.149772 -1.149961
105.150000 -1.149818 -1.149961
105.200000 -1.149868 -1.149961
105.250000 -1.149918 -1.149961
105.300000 -1.149970 -1.149961
105.350000 -1.150021 -1.149961
105.400000 -1.150070 -1.149961
105.450000 -1.150116 -1.149961
105.500000 -1.150158 -1.149961
105.550000 -1.150195 -1.149961
105.600000 -1.150226 -1.149961
105.650000 -1.150250 -1.149961
105.700000 -1.150267 -1.149961
105.750000 -1.150276 -1.149961
105.800000 -1.150278 -1.149961
105.850000 -1.150272 -1.149961
105.900000 -1.150259 -1.149961
105.950000 -1.150238 -1.149961
106.000000 -1.150211 -1.149961
106.050000 -1.150179 -1.149961
106.100000 -1.150141 -1.149961
106.150000 -1.150099 -1.149961
106.200000 -1.150054 -1.149961
106.250000 -1.150007 -1.149961
106.300000 -1.149960 -1.149961
106.350000 -1.149913 -1.149961
106.400000 -1.149867 -1.149961
106.450000 -1.149824 -1.149961
106.500000 -1.149785 -1.149961
106.550000 -1.149750 -1.149961
106.600000 -1.149721 -1.149961
106.650000 -1.149698 -1.149961
106.700000 -1.149681 -1.149961
106.750000 -1.149671 -1.149961
106.800000 -1.149669 -1.149961
106.850000 -1.149673 -1.149961
106.900000 -1.149684 -1.149961
106.950000 -1.149702 -1.149961
107.000000 -1.149726 -1.149961
107.050000 -1.149756 -1.149961
107.100000 -1.149790 -1.149961
107.150000 -1.149828 -1.149961
107.200000 -1.149869 -1.149961
107.250000 -1.149912 -1.149961
107.300000 -1.149956 -1.149961
107.350000 -1.149999 -1.149961
107.400000 -1.150041 -1.149961
107.450000 -1.150081 -1.149961
107.500000 -1.150118 -1.149961
107.550000 -1.150151 -1.149961
107.600000 -1.150178 -1.149961
107.650000 -1.150201 -1.149961
107.700000 -1.150217 -1.149961
107.750000 -1.150227 -1.149961
107.800000 -1.150230 -1.149961
107.850000 -1.150227 -1.149961
107.900000 -1.150218 -1.149961
107.950000 -1.150202 -1.149961
108.000000 -1.150181 -1.149961
108.050000 -1.150154 -1.149961
108.100000 -1.150124 -1.149961
108.150000 -1.150089 -1.149961
108.200000 -1.150051 -1.149961
108.250000 -1.150012 -1.149961
108.300000 -1.149972 -1.149961
108.350000 -1.149932 -1.149961
108.400000 -1.149893 -1.149961
108.450000 -1.149855 -1.149961
108.500000 -1.149821 -1.149961
108.550000 -1.149790 -1.149961
108.600000 -1.149764 -1.149961
108.650000 -1.149743 -1.149961
108.700000 -1.149727 -1.149961
108.750000 -1.149717 -1.149961
108.800000 -1.149713 -1.149961
108.850000 -1.149715 -1.149961
108.900000 -1.149723 -1.149961
108.950000 -1.149736 -1.149961
109.000000 -1.149755 -1.149961
109.050000 -1.149779 -1.149961
109.100000 -1.149807 -1.149961
109.150000 -1.149838 -1.149961
109.200000 -1.149872 -1.149961
109.250000 -1.149908 -1.149961
109.300000 -1.149945 -1.149961
109.350000 -1.149983 -1.149961
109.400000 -1.150019 -1.149961
109.450000 -1.150053 -1.149961
109.500000 -1.150085 -1.149961
109.550000 -1.150114 -1.149961
109.600000 -1.150139 -1.149961
109.650000 -1.150159 -1.149961
109.700000 -1.150175 -1.149961
109.750000 -1.150185 -1.149961
109.800000 -1.150189 -1.149961
109.850000 -1.150189 -1.149961
109.900000 -1.150182 -1.149961
109.950000 -1.150170 -1.149961
110.000000 -1.150154 -1.149961
110.050000 -1.150132 -1.149961
110.100000 -1.150107 -1.149961
110.150000 -1.150079 -1.149961
110.200000 -1.150047 -1.149961
110.250000 -1.150014 -1.149961
110.300000 -1.149980 -1.149961
110.350000 -1.149946 -1.149961
110.400000 -1.149913 -1.149961
110.450000 -1.149881 -1.149961
110.500000 -1.149851 -1.149961
110.550000 -1.149824 -1.149961
110.600000 -1.149800 -1.149961
110.650000 -1.149781 -1.149961
110.700000 -1.149766 -1.149961
110.750000 -1.149756 -1.149961
110.800000 -1.149751 -1.149961
110.850000 -1.149751 -1.149961
110.900000 -1.149756 -1.149961
110.950000 -1.149766 -1.149961
111.000000 -1.149781 -1.149961
111.050000 -1.149800 -1.149961
111.100000 -1.149823 -1.149961
111.150000 -1.149849 -1.149961
111.200000 -1.149877 -1.149961
111.250000 -1.149907 -1.149961
111.300000 -1.149938 -1.149961
111.350000 -1.149970 -1.149961
111.400000 -1.150001 -1.149961
111.450000 -1.150031 -1.149961
111.500000 -1.150059 -1.149961
111.550000 -1.150084 -1.149961
111.600000 -1.150106 -1.149961
111.650000 -1.150125 -1.149961
111.700000 -1.150139 -1.149961
111.750000 -1.150149 -1.149961
111.800000 -1.150154 -1.149961
111.850000 -1.150155 -1.149961
111.900000 -1.150151 -1.149961
111.950000 -1.150142 -1.149961
112.000000 -1.150129 -1.149961
112.050000 -1.150112 -1.149961
112.100000 -1.150092 -1.149961
112.150000 -1.150068 -1.149961
112.200000 -1.150042 -1.149961
112.250000 -1.150015 -1.149961
112.300000 -1.149986 -1.149961
112.350000 -1.149957 -1.149961
112.400000 -1.149928 -1.149961
112.450000 -1.149901 -1.149961
112.500000 -1.149875 -1.149961
112.550000 -1.149851 -1.149961
112.600000 -1.149830 -1.149961
112.650000 -1.149812 -1.149961
112.700000 -1.149799 -1.149961
112.750000 -1.149789 -1.149961
112.800000 -1.149783 -1.149961
112.850000 -1.149782 -1.149961
112.900000 -1.149785 -1.149961
112.950000 -1.149793 -1.149961
113.000000 -1.149804 -1.149961
113.050000 -1.149819 -1.149961
113.100000 -1.149838 -1.149961
113.150000 -1.149859 -1.149961
113.200000 -1.149882 -1.149961
113.250000 -1.149908 -1.149961
113.300000 -1.149934 -1.149961
113.350000 -1.149961 -1.149961
113.400000 -1.149987 -1.149961
113.450000 -1.150013 -1.149961
113.500000 -1.150037 -1.149961
113.550000 -1.150059 -1.149961
113.600000 -1.150079 -1.149961
113.650000 -1.150096 -1.149961
113.700000 -1.150109 -1.149961
113.750000 -1.150119 -1.149961
113.800000 -1.150124 -1.149961
113.850000 -1.150126 -1.149961
113.900000 -1.150124 -1.149961
113.950000 -1.150117 -1.149961
114.000000 -1.150107 -1.149961
114.050000 -1.150094 -1.149961
114.100000 -1.150077 -1.149961
114.150000 -1.150058 -1.149961
114.200000 -1.150037 -1.149961
114.250000 -1.150014 -1.149961
114.300000 -1.149990 -1.149961
114.350000 -1.149965 -1.149961
114.400000 -1.149940 -1.149961
114.450000 -1.149917 -1.149961
114.500000 -1.149894 -1.149961
114.550000 -1.149873 -1.149961
114.600000 -1.149855 -1.149961
114.650000 -1.149839 -1.149961
114.700000 -1.149826 -1.149961
114.750000 -1.149817 -1.149961
114.800000 -1.149811 -1.149961
114.850000 -1.149809 -1.149961
114.900000 -1.149811 -1.149961
114.950000 -1.149816 -1.149961
115.000000 -1.149825 -1.149961
115.050000 -1.149836 -1.149961
115.100000 -1.149851 -1.149961
115.150000 -1.149869 -1.149961
115.200000 -1.149888 -1.149961
115.250000 -1.149909 -1.149961
115.300000 -1.149931 -1.149961
115.350000 -1.149954 -1.149961
115.400000 -1.149977 -1.149961
115.450000 -1.149999 -1.149961
115.500000 -1.150020 -1.149961
115.550000 -1.150039 -1.149961
115.600000 -1.150057 -1.149961
115.650000 -1.150071 -1.149961
115.700000 -1.150084 -1.149961
115.750000 -1.150093 -1.149961
115.800000 -1.150098 -1.149961
115.850000 -1.150101 -1.149961
115.900000 -1.150100 -1.149961
115.950000 -1.150096 -1.149961
116.000000 -1.150088 -1.149961
116.050000 -1.150078 -1.149961
116.100000 -1.150064 -1.149961
116.150000 -1.150049 -1.149961
116.200000 -1.150031 -1.149961
116.250000 -1.150012 -1.149961
116.300000 -1.149991 -1.149961
116.350000 -1.149971 -1.149961
116.400000 -1.149950 -1.149961
116.450000 -1.149929 -1.149961
116.500000 -1.149910 -1.149961
116.550000 -1.149892 -1.149961
116.600000 -1.149875 -1.149961
116.650000 -1.149861 -1.149961
116.700000 -1.149850 -1.149961
116.750000 -1.149841 -1.149961
116.800000 -1.149835 -1.149961
116.850000 -1.149832 -1.149961
116.900000 -1.149833 -1.149961
116.950000 -1.149836 -1.149961
117.000000 -1.149843 -1.149961
117.050000 -1.149852 -1.149961
117.100000 -1.149864 -1.149961
117.150000 -1.149878 -1.149961
117.200000 -1.149894 -1.149961
117.250000 -1.149912 -1.149961
117.300000 -1.149930 -1.149961
117.350000 -1.149949 -1.149961
117.400000 -1.149969 -1.149961
117.450000 -1.149988 -1.149961
117.500000 -1.150006 -1.149961
117.550000 -1.150023 -1.149961
117.600000 -1.150038 -1.149961
117.650000 -1.150051 -1.149961
117.700000 -1.150062 -1.149961
117.750000 -1.150071 -1.149961
117.800000 -1.150077 -1.149961
117.850000 -1.150079 -1.149961
117.900000 -1.150079 -1.149961
117.950000 -1.150077 -1.149961
118.000000 -1.150071 -1.149961
118.050000 -1.150063 -1.149961
118.100000 -1.150052 -1.149961
118.150000 -1.150040 -1.149961
118.200000 -1.150025 -1.149961
118.250000 -1.150009 -1.149961
118.300000 -1.149992 -1.149961
118.350000 -1.149974 -1.149961
118.400000 -1.149957 -1.149961
118.450000 -1.149939 -1.149961
118.500000 -1.149922 -1.149961
118.550000 -1.149906 -1.149961
118.600000 -1.149892 -1.149961
118.650000 -1.149880 -1.149961
118.700000 -1.149869 -1.149961
118.750000 -1.149861 -1.149961
118.800000 -1.149855 -1.149961
118.850000 -1.149852 -1.149961
118.900000 -1.149852 -1.149961
118.950000 -1.149854 -1.149961
119.000000 -1.149859 -1.149961
119.050000 -1.149866 -1.149961
119.100000 -1.149875 -1.149961
119.150000 -1.149887 -1.149961
119.200000 -1.149900 -1.149961
119.250000 -1.149914 -1.149961
119.300000 -1.149930 -1.149961
119.350000 -1.149946 -1.149961
119.400000 -1.149963 -1.149961
119.450000 -1.149979 -1.149961
119.500000 -1.149994 -1.149961
119.550000 -1.150009 -1.149961
119.600000 -1.150023 -1.149961
119.650000 -1.150034 -1.149961
119.700000 -1.150044 -1.149961
119.750000 -1.150052 -1.149961
119.800000 -1.150058 -1.149961
119.850000 -1.150061 -1.149961
119.900000 -1.150062 -1.149961
119.950000 -1.150060 -1.149961
120.000000 -1.150056 -1.149961
120.050000 -1.150050 -1.149961
120.100000 -1.150041 -1.149961
120.150000 -1.150031 -1.149961
120.200000 -1.150019 -1.149961
120.250000 -1.150006 -1.149961
120.300000 -1.149992 -1.149961
120.350000 -1.149977 -1.149961
120.400000 -1.149962 -1.149961
120.450000 -1.149947 -1.149961
120.500000 -1.149932 -1.149961
120.550000 -1.149919 -1.149961
120.600000 -1.149906 -1.149961
120.650000 -1.149895 -1.149961
120.700000 -1.149885 -1.149961
120.750000 -1.149878 -1.149961
120.800000 -1.149872 -1.149961
120.850000 -1.149869 -1.149961
120.900000 -1.149868 -1.149961
120.950000 -1.149869 -1.149961
121.000000 -1.149873 -1.149961
121.050000 -1.149878 -1.149961
121.100000 -1.149886 -1.149961
121.150000 -1.149895 -1.149961
121.200000 -1.149906 -1.149961
121.250000 -1.149918 -1.149961
121.300000 -1.149931 -1.149961
121.350000 -1.149944 -1.149961
121.400000 -1.149958 -1.149961
121.450000 -1.149972 -1.149961
121.500000 -1.149986 -1.149961
121.550000 -1.149998 -1.149961
121.600000 -1.150010 -1.149961
121.650000 -1.150021 -1.149961
121.700000 -1.150029 -1.149961
121.750000 -1.150037 -1.149961
121.800000 -1.150042 -1.149961
121.850000 -1.150045 -1.149961
121.900000 -1.150047 -1.149961
121.950000 -1.150046 -1.149961
122.000000 -1.150043 -1.149961
122.050000 -1.150038 -1.149961
122.100000 -1.150031 -1.149961
122.150000 -1.150023 -1.149961
122.200000 -1.150013 -1.149961
122.250000 -1.150003 -1.149961
122.300000 -1.149991 -1.149961
122.350000 -1.149978 -1.149961
122.400000 -1.149965 -1.149961
122.450000 -1.149953 -1.149961
122.500000 -1.149940 -1.149961
122.550000 -1.149928 -1.149961
122.600000 -1.149917 -1.149961
122.650000 -1.149908 -1.149961
122.700000 -1.149899 -1.149961
122.750000 -1.149892 -1.149961
122.800000 -1.149887 -1.149961
122.850000 -1.149884 -1.149961
122.900000 -1.149882 -1.149961
122.950000 -1.149883 -1.149961
123.000000 -1.149885 -1.149961
123.050000 -1.149889 -1.149961
123.100000 -1.149895 -1.149961
123.150000 -1.149902 -1.149961
123.200000 -1.149911 -1.149961
123.250000 -1.149921 -1.149961
123.300000 -1.149932 -1.149961
123.350000 -1.149943 -1.149961
123.400000 -1.149955 -1.149961
123.450000 -1.149967 -1.149961
123.500000 -1.149978 -1.149961
123.550000 -1.149989 -1.149961
123.600000 -1.150000 -1.149961
123.650000 -1.150009 -1.149961
123.700000 -1.150017 -1.149961
123.750000 -1.150024 -1.149961
123.800000 -1.150029 -1.149961
123.850000 -1.150032 -1.149961
123.900000 -1.150034 -1.149961
123.950000 -1.150033 -1.149961
124.000000 -1.150031 -1.149961
124.050000 -1.150028 -1.149961
124.100000 -1.150023 -1.149961
124.150000 -1.150016 -1.149961
124.200000 -1.150008 -1.149961
124.250000 -1.149999 -1.149961
124.300000 -1.149989 -1.149961
124.350000 -1.149979 -1.149961
124.400000 -1.149968 -1.149961
124.450000 -1.149957 -1.149961
124.500000 -1.149946 -1.149961
124.550000 -1.149936 -1.149961
124.600000 -1.149927 -1.149961
124.650000 -1.149918 -1.149961
124.700000 -1.149910 -1.149961
124.750000 -1.149904 -1.149961
124.800000 -1.149899 -1.149961
124.850000 -1.149896 -1.149961
124.900000 -1.149894 -1.149961
124.950000 -1.149894 -1.149961
125.000000 -1.149896 -1.149961
125.050000 -1.149899 -1.149961
125.100000 -1.149903 -1.149961
125.150000 -1.149909 -1.149961
125.200000 -1.149916 -1.149961
125.250000 -1.149925 -1.149961
125.300000 -1.149934 -1.149961
125.350000 -1.149943 -1.149961
125.400000 -1.149953 -1.149961
125.450000 -1.149963 -1.149961
125.500000 -1.149973 -1.149961
125.550000 -1.149982 -1.149961
125.600000 -1.149991 -1.149961
125.650000 -1.150000 -1.149961
125.700000 -1.150007 -1.149961
125.750000 -1.150013 -1.149961
125.800000 -1.150017 -1.149961
125.850000 -1.150021 -1.149961
125.900000 -1.150022 -1.149961
125.950000 -1.150023 -1.149961
126.000000 -1.150021 -1.149961
126.050000 -1.150019 -1.149961
126.100000 -1.150015 -1.149961
126.150000 -1.150010 -1.149961
126.200000 -1.150003 -1.149961
126.250000 -1.149996 -1.149961
126.300000 -1.149988 -1.149961
126.350000 -1.149979 -1.149961
126.400000 -1.149970 -1.149961
126.450000 -1.149960 -1.149961
126.500000 -1.149951 -1.149961
126.550000 -1.149942 -1.149961
126.600000 -1.149934 -1.149961
126.650000 -1.149927 -1.149961
126.700000 -1.149920 -1.149961
126.750000 -1.149914 -1.149961
126.800000 -1.149910 -1.149961
126.850000 -1.149906 -1.149961
126.900000 -1.149905 -1.149961
126.950000 -1.149904 -1.149961
127.000000 -1.149905 -1.149961
127.050000 -1.149907 -1.149961
127.100000 -1.149911 -1.149961
127.150000 -1.149916 -1.149961
127.200000 -1.149921 -1.149961
127.250000 -1.149928 -1.149961
127.300000 -1.149935 -1.149961
127.350000 -1.149943 -1.149961
127.400000 -1.149952 -1.149961
127.450000 -1.149960 -1.149961
127.500000 -1.149969 -1.149961
127.550000 -1.149977 -1.149961
127.600000 -1.149985 -1.149961
127.650000 -1.149992 -1.149961
127.700000 -1.149998 -1.149961
127.750000 -1.150003 -1.149961
127.800000 -1.150008 -1.149961
127.850000 -1.150011 -1.149961
127.900000 -1.150013 -1.149961
127.950000 -1.150013 -1.149961
128.000000 -1.150013 -1.149961
128.050000 -1.150011 -1.149961
128.100000 -1.150008 -1.149961
128.150000 -1.150004 -1.149961
128.200000 -1.149998 -1.149961
128.250000 -1.149992 -1.149961
128.300000 -1.149986 -1.149961
128.350000 -1.149978 -1.149961
128.400000 -1.149971 -1.149961
128.450000 -1.149963 -1.149961
128.500000 -1.149955 -1.149961
128.550000 -1.149947 -1.149961
128.600000 -1.149940 -1.149961
128.650000 -1.149934 -1.149961
128.700000 -1.149928 -1.149961
128.750000 -1.149923 -1.149961
128.800000 -1.149918 -1.149961
128.850000 -1.149915 -1.149961
128.900000 -1.149913 -1.149961
128.950000 -1.149913 -1.149961
129.000000 -1.149913 -1.149961
129.050000 -1.149915 -1.149961
129.100000 -1.149917 -1.149961
129.150000 -1.149921 -1.149961
129.200000 -1.149926 -1.149961
129.250000 -1.149931 -1.149961
129.300000 -1.149937 -1.149961
129.350000 -1.149944 -1.149961
129.400000 -1.149951 -1.149961
129.450000 -1.149958 -1.149961
129.500000 -1.149965 -1.149961
129.550000 -1.149972 -1.149961
129.600000 -1.149979 -1.149961
129.650000 -1.149985 -1.149961
129.700000 -1.149991 -1.149961
129.750000 -1.149996 -1.149961
129.800000 -1.150000 -1.149961
129.850000 -1.150003 -1.149961
129.900000 -1.150005 -1.149961
129.950000 -1.150005 -1.149961
130.000000 -1.150005 -1.149961
130.050000 -1.150004 -1.149961
130.100000 -1.150002 -1.149961
130.150000 -1.149998 -1.149961
130.200000 -1.149994 -1.149961
130.250000 -1.149989 -1.149961
130.300000 -1.149984 -1.149961
130.350000 -1.149978 -1.149961
130.400000 -1.149971 -1.149961
130.450000 -1.149965 -1.149961
130.500000 -1.149958 -1.149961
130.550000 -1.149951 -1.149961
130.600000 -1.149945 -1.149961
130.650000 -1.149939 -1.149961
130.700000 -1.149934 -1.149961
130.750000 -1.149930 -1.149961
130.800000 -1.149926 -1.149961
130.850000 -1.149923 -1.149961
130.900000 -1.149921 -1.149961
130.950000 -1.149920 -1.149961
131.000000 -1.149920 -1.149961
131.050000 -1.149921 -1.149961
131.100000 -1.149923 -1.149961
131.150000 -1.149926 -1.149961
131.200000 -1.149930 -1.149961
131.250000 -1.149934 -1.149961
131.300000 -1.149939 -1.149961
131.350000 -1.149945 -1.149961
131.400000 -1.149951 -1.149961
131.450000 -1.149957 -1.149961
131.500000 -1.149963 -1.149961
131.550000 -1.149969 -1.149961
131.600000 -1.149975 -1.149961
131.650000 -1.149980 -1.149961
131.700000 -1.149985 -1.149961
131.750000 -1.149989 -1.149961
131.800000 -1.149993 -1.149961
131.850000 -1.149996 -1.149961
131.900000 -1.149998 -1.149961
131.950000 -1.149999 -1.149961
132.000000 -1.149999 -1.149961
132.050000 -1.149998 -1.149961
132.100000 -1.149996 -1.149961
132.150000 -1.149994 -1.149961
132.200000 -1.149990 -1.149961
132.250000 -1.149986 -1.149961
132.300000 -1.149982 -1.149961
132.350000 -1.149977 -1.149961
132.400000 -1.149971 -1.149961
132.450000 -1.149966 -1.149961
132.500000 -1.149960 -1.149961
132.550000 -1.149954 -1.149961
132.600000 -1.149949 -1.149961
132.650000 -1.149944 -1.149961
132.700000 -1.149939 -1.149961
132.750000 -1.149935 -1.149961
132.800000 -1.149932 -1.149961
132.850000 -1.149929 -1.149961
132.900000 -1.149927 -1.149961
132.950000 -1.149926 -1.149961
133.000000 -1.149926 -1.149961
133.050000 -1.149927 -1.149961
133.100000 -1.149928 -1.149961
133.150000 -1.149931 -1.149961
133.200000 -1.149934 -1.149961
133.250000 -1.149937 -1.149961
133.300000 -1.149941 -1.149961
133.350000 -1.149946 -1.149961
133.400000 -1.149951 -1.149961
133.450000 -1.149956 -1.149961
133.500000 -1.149961 -1.149961
133.550000 -1.149966 -1.149961
133.600000 -1.149971 -1.149961
133.650000 -1.149976 -1.149961
133.700000 -1.149980 -1.149961
133.750000 -1.149984 -1.149961
133.800000 -1.149987 -1.149961
133.850000 -1.149990 -1.149961
133.900000 -1.149992 -1.149961
133.950000 -1.149993 -1.149961
134.000000 -1.149993 -1.149961
134.050000 -1.149993 -1.149961
134.100000 -1.149991 -1.149961
134.150000 -1.149989 -1.149961
134.200000 -1.149987 -1.149961
134.250000 -1.149984 -1.149961
134.300000 -1.149980 -1.149961
134.350000 -1.149976 -1.149961
134.400000 -1.149971 -1.149961
134.450000 -1.149966 -1.149961
134.500000 -1.149962 -1.149961
134.550000 -1.149957 -1.149961
134.600000 -1.149952 -1.149961
134.650000 -1.149948 -1.149961
134.700000 -1.149944 -1.149961
134.750000 -1.149940 -1.149961
134.800000 -1.149937 -1.149961
134.850000 -1.149935 -1.149961
134.900000 -1.149933 -1.149961
134.950000 -1.149932 -1.149961
135.000000 -1.149931 -1.149961
135.050000 -1.149932 -1.149961
135.100000 -1.149933 -1.149961
135.150000 -1.149935 -1.149961
135.200000 -1.149937 -1.149961
135.250000 -1.149940 -1.149961
135.300000 -1.149943 -1.149961
135.350000 -1.149947 -1.149961
135.400000 -1.149951 -1.149961
135.450000 -1.149955 -1.149961
135.500000 -1.149960 -1.149961
135.550000 -1.149964 -1.149961
135.600000 -1.149968 -1.149961
135.650000 -1.149973 -1.149961
135.700000 -1.149976 -1.149961
135.750000 -1.149980 -1.149961
135.800000 -1.149983 -1.149961
135.850000 -1.149985 -1.149961
135.900000 -1.149987 -1.149961
135.950000 -1.149988 -1.149961
136.000000 -1.149988 -1.149961
136.050000 -1.149988 -1.149961
136.100000 -1.149987 -1.149961
136.150000 -1.149986 -1.149961
136.200000 -1.149984 -1.149961
136.250000 -1.149981 -1.149961
136.300000 -1.149978 -1.149961
136.350000 -1.149974 -1.149961
136.400000 -1.149971 -1.149961
136.450000 -1.149967 -1.149961
136.500000 -1.149963 -1.149961
136.550000 -1.149959 -1.149961
136.600000 -1.149955 -1.149961
136.650000 -1.149951 -1.149961
136.700000 -1.149947 -1.149961
136.750000 -1.149944 -1.149961
136.800000 -1.149942 -1.149961
136.850000 -1.149939 -1.149961
136.900000 -1.149938 -1.149961
136.950000 -1.149936 -1.149961
137.000000 -1.149936 -1.149961
137.050000 -1.149936 -1.149961
137.100000 -1.149937 -1.149961
137.150000 -1.149938 -1.149961
137.200000 -1.149940 -1.149961
137.250000 -1.149942 -1.149961
137.300000 -1.149945 -1.149961
137.350000 -1.149948 -1.149961
137.400000 -1.149951 -1.149961
137.450000 -1.149955 -1.149961
137.500000 -1.149959 -1.149961
137.550000 -1.149963 -1.149961
137.600000 -1.149966 -1.149961
137.650000 -1.149970 -1.149961
137.700000 -1.149973 -1.149961
137.750000 -1.149976 -1.149961
137.800000 -1.149979 -1.149961
137.850000 -1.149981 -1.149961
137.900000 -1.149982 -1.149961
137.950000 -1.149983 -1.149961
138.000000 -1.149984 -1.149961
138.050000 -1.149984 -1.149961
138.100000 -1.149983 -1.149961
138.150000 -1.149982 -1.149961
138.200000 -1.149981 -1.149961
138.250000 -1.149979 -1.149961
138.300000 -1.149976 -1.149961
138.350000 -1.149973 -1.149961
138.400000 -1.149970 -1.149961
138.450000 -1.149967 -1.149961
138.500000 -1.149964 -1.149961
138.550000 -1.149960 -1.149961
138.600000 -1.149957 -1.149961
138.650000 -1.149953 -1.149961
138.700000 -1.149950 -1.149961
138.750000 -1.149948 -1.149961
138.800000 -1.149945 -1.149961
138.850000 -1.149943 -1.149961
138.900000 -1.149941 -1.149961
138.950000 -1.149940 -1.149961
139.000000 -1.149940 -1.149961
139.050000 -1.149940 -1.149961
139.100000 -1.149940 -1.149961
139.150000 -1.149941 -1.149961
139.200000 -1.149943 -1.149961
139.250000 -1.149944 -1.149961
139.300000 -1.149947 -1.149961
139.350000 -1.149949 -1.149961
139.400000 -1.149952 -1.149961
139.450000 -1.149955 -1.149961
139.500000 -1.149958 -1.149961
139.550000 -1.149961 -1.149961
139.600000 -1.149965 -1.149961
139.650000 -1.149968 -1.149961
139.700000 -1.149970 -1.149961
139.750000 -1.149973 -1.149961
139.800000 -1.149975 -1.149961
139.850000 -1.149977 -1.149961
139.900000 -1.149979 -1.149961
139.950000 -1.149980 -1.149961
140.000000 -1.149980 -1.149961
140.050000 -1.149981 -1.149961
140.100000 -1.149980 -1.149961
140.150000 -1.149979 -1.149961
140.200000 -1.149978 -1.149961
140.250000 -1.149977 -1.149961
140.300000 -1.149975 -1.149961
140.350000 -1.149972 -1.149961
140.400000 -1.149970 -1.149961
140.450000 -1.149967 -1.149961
140.500000 -1.149964 -1.149961
140.550000 -1.149961 -1.149961
140.600000 -1.149958 -1.149961
140.650000 -1.149955 -1.149961
140.700000 -1.149953 -1.149961
140.750000 -1.149950 -1.149961
140.800000 -1.149948 -1.149961
140.850000 -1.149946 -1.149961
140.900000 -1.149945 -1.149961
140.950000 -1.149944 -1.149961
141.000000 -1.149943 -1.149961
141.050000 -1.149943 -1.149961
141.100000 -1.149943 -1.149961
141.150000 -1.149944 -1.149961
141.200000 -1.149945 -1.149961
141.250000 -1.149946 -1.149961
141.300000 -1.149948 -1.149961
141.350000 -1.149950 -1.149961
141.400000 -1.149953 -1.149961
141.450000 -1.149955 -1.149961
141.500000 -1.149958 -1.149961
141.550000 -1.149961 -1.149961
141.600000 -1.149963 -1.149961
141.650000 -1.149966 -1.149961
141.700000 -1.149968 -1.149961
141.750000 -1.149971 -1.149961
141.800000 -1.149973 -1.149961
141.850000 -1.149974 -1.149961
141.900000 -1.149976 -1.149961
141.950000 -1.149977 -1.149961
142.000000 -1.149977 -1.149961
142.050000 -1.149978 -1.149961
142.100000 -1.149977 -1.149961
142.150000 -1.149977 -1.149961
142.200000 -1.149976 -1.149961
142.250000 -1.149975 -1.149961
142.300000 -1.149973 -1.149961
142.350000 -1.149971 -1.149961
142.400000 -1.149969 -1.149961
142.450000 -1.149967 -1.149961
142.500000 -1.149964 -1.149961
142.550000 -1.149962 -1.149961
142.600000 -1.149959 -1.149961
142.650000 -1.149957 -1.149961
142.700000 -1.149955 -1.149961
142.750000 -1.149952 -1.149961
142.800000 -1.149951 -1.149961
142.850000 -1.149949 -1.149961
142.900000 -1.149948 -1.149961
142.950000 -1.149947 -1.149961
143.000000 -1.149946 -1.149961
143.050000 -1.149946 -1.149961
143.100000 -1.149946 -1.149961
143.150000 -1.149946 -1.149961
143.200000 -1.149947 -1.149961
143.250000 -1.149948 -1.149961
143.300000 -1.149950 -1.149961
143.350000 -1.149951 -1.149961
143.400000 -1.149953 -1.149961
143.450000 -1.149955 -1.149961
143.500000 -1.149958 -1.149961
143.550000 -1.149960 -1.149961
143.600000 -1.149962 -1.149961
143.650000 -1.149964 -1.149961
143.700000 -1.149967 -1.149961
143.750000 -1.149969 -1.149961
143.800000 -1.149970 -1.149961
143.850000 -1.149972 -1.149961
143.900000 -1.149973 -1.149961
143.950000 -1.149974 -1.149961
144.000000 -1.149975 -1.149961
144.050000 -1.149975 -1.149961
144.100000 -1.149975 -1.149961
144.150000 -1.149975 -1.149961
144.200000 -1.149974 -1.149961
144.250000 -1.149973 -1.149961
144.300000 -1.149972 -1.149961
144.350000 -1.149970 -1.149961
144.400000 -1.149968 -1.149961
144.450000 -1.149966 -1.149961
144.500000 -1.149964 -1.149961
144.550000 -1.149962 -1.149961
144.600000 -1.149960 -1.149961
144.650000 -1.149958 -1.149961
144.700000 -1.149956 -1.149961
144.750000 -1.149954 -1.149961
144.800000 -1.149953 -1.149961
144.850000 -1.149951 -1.149961
144.900000 -1.149950 -1.149961
144.950000 -1.149949 -1.149961
145.000000 -1.149948 -1.149961
145.050000 -1.149948 -1.149961
145.100000 -1.149948 -1.149961
145.150000 -1.149948 -1.149961
145.200000 -1.149949 -1.149961
145.250000 -1.149950 -1.149961
145.300000 -1.149951 -1.149961
145.350000 -1.149952 -1.149961
145.400000 -1.149954 -1.149961
145.450000 -1.149956 -1.149961
145.500000 -1.149958 -1.149961
145.550000 -1.149960 -1.149961
145.600000 -1.149961 -1.149961
145.650000 -1.149963 -1.149961
145.700000 -1.149965 -1.149961
145.750000 -1.149967 -1.149961
145.800000 -1.149969 -1.149961
145.850000 -1.149970 -1.149961
145.900000 -1.149971 -1.149961
145.950000 -1.149972 -1.149961
146.000000 -1.149973 -1.149961
146.050000 -1.149973 -1.149961
146.100000 -1.149973 -1.149961
146.150000 -1.149973 -1.149961
146.200000 -1.149972 -1.149961
146.250000 -1.149971 -1.149961
146.300000 -1.149970 -1.149961
146.350000 -1.149969 -1.149961
146.400000 -1.149968 -1.149961
146.450000 -1.149966 -1.149961
146.500000 -1.149964 -1.149961
146.550000 -1.149963 -1.149961
146.600000 -1.149961 -1.149961
146.650000 -1.149959 -1.149961
146.700000 -1.149957 -1.149961
146.750000 -1.149956 -1.149961
146.800000 -1.149954 -1.149961
146.850000 -1.149953 -1.149961
146.900000 -1.149952 -1.149961
146.950000 -1.149951 -1.149961
147.000000 -1.149950 -1.149961
147.050000 -1.149950 -1.149961
147.100000 -1.149950 -1.149961
147.150000 -1.149950 -1.149961
147.200000 -1.149951 -1.149961
147.250000 -1.149951 -1.149961
147.300000 -1.149952 -1.149961
147.350000 -1.149953 -1.149961
147.400000 -1.149955 -1.149961
147.450000 -1.149956 -1.149961
147.500000 -1.149958 -1.149961
147.550000 -1.149959 -1.149961
147.600000 -1.149961 -1.149961
147.650000 -1.149963 -1.149961
147.700000 -1.149964 -1.149961
147.750000 -1.149966 -1.149961
147.800000 -1.149967 -1.149961
147.850000 -1.149968 -1.149961
147.900000 -1.149969 -1.149961
147.950000 -1.149970 -1.149961
148.000000 -1.149971 -1.149961
148.050000 -1.149971 -1.149961
148.100000 -1.149971 -1.149961
148.150000 -1.149971 -1.149961
148.200000 -1.149971 -1.149961
148.250000 -1.149970 -1.149961
148.300000 -1.149969 -1.149961
148.350000 -1.149968 -1.149961
148.400000 -1.149967 -1.149961
148.450000 -1.149966 -1.149961
148.500000 -1.149964 -1.149961
148.550000 -1.149963 -1.149961
148.600000 -1.149961 -1.149961
148.650000 -1.149960 -1.149961
148.700000 -1.149958 -1.149961
148.750000 -1.149957 -1.149961
148.800000 -1.149956 -1.149961
148.850000 -1.149954 -1.149961
148.900000 -1.149954 -1.149961
148.950000 -1.149953 -1.149961
149.000000 -1.149952 -1.149961
149.050000 -1.149952 -1.149961
149.100000 -1.149952 -1.149961
149.150000 -1.149952 -1.149961
149.200000 -1.149952 -1.149961
149.250000 -1.149953 -1.149961
149.300000 -1.149953 -1.149961
149.350000 -1.149954 -1.149961
149.400000 -1.149955 -1.149961
149.450000 -1.149956 -1.149961
149.500000 -1.149958 -1.149961
149.550000 -1.149959 -1.149961
149.600000 -1.149960 -1.149961
149.650000 -1.149962 -1.149961
149.700000 -1.149963 -1.149961
149.750000 -1.149965 -1.149961
149.800000 -1.149966 -1.149961
149.850000 -1.149967 -1.149961
149.900000 -1.149968 -1.149961
149.950000 -1.149969 -1.149961
150.000000 -1.149969 -1.149961
150.050000 -1.149969 -1.149961
150.100000 -1.149970 -1.149961
150.150000 -1.149970 -1.149961
150.200000 -1.149969 -1.149961
150.250000 -1.149969 -1.149961
150.300000 -1.149968 -1.149961
150.350000 -1.149967 -1.149961
150.400000 -1.149966 -1.149961
150.450000 -1.149965 -1.149961
150.500000 -1.149964 -1.149961
150.550000 -1.149963 -1.149961
150.600000 -1.149962 -1.149961
150.650000 -1.149960 -1.149961
150.700000 -1.149959 -1.149961
150.750000 -1.149958 -1.149961
150.800000 -1.149957 -1.149961
150.850000 -1.149956 -1.149961
150.900000 -1.149955 -1.149961
150.950000 -1.149954 -1.149961
151.000000 -1.149954 -1.149961
151.050000 -1.149953 -1.149961
151.100000 -1.149953 -1.149961
151.150000 -1.149953 -1.149961
151.200000 -1.149953 -1.149961
151.250000 -1.149954 -1.149961
151.300000 -1.149954 -1.149961
151.350000 -1.149955 -1.149961
151.400000 -1.149956 -1.149961
151.450000 -1.149957 -1.149961
151.500000 -1.149958 -1.149961
151.550000 -1.149959 -1.149961
151.600000 -1.149960 -1.149961
151.650000 -1.149961 -1.149961
151.700000 -1.149963 -1.149961
151.750000 -1.149964 -1.149961
151.800000 -1.149965 -1.149961
151.850000 -1.149966 -1.149961
151.900000 -1.149967 -1.149961
151.950000 -1.149967 -1.149961
152.000000 -1.149968 -1.149961
152.050000 -1.149968 -1.149961
152.100000 -1.149968 -1.149961
152.150000 -1.149968 -1.149961
152.200000 -1.149968 -1.149961
152.250000 -1.149968 -1.149961
152.300000 -1.149967 -1.149961
152.350000 -1.149967 -1.149961
152.400000 -1.149966 -1.149961
152.450000 -1.149965 -1.149961
152.500000 -1.149964 -1.149961
152.550000 -1.149963 -1.149961
152.600000 -1.149962 -1.149961
152.650000 -1.149961 -1.149961
152.700000 -1.149960 -1.149961
152.750000 -1.149959 -1.149961
152.800000 -1.149958 -1.149961
152.850000 -1.149957 -1.149961
152.900000 -1.149956 -1.149961
152.950000 -1.149955 -1.149961
153.000000 -1.149955 -1.149961
153.050000 -1.149954 -1.149961
153.100000 -1.149954 -1.149961
153.150000 -1.149954 -1.149961
153.200000 -1.149954 -1.149961
153.250000 -1.149955 -1.149961
153.300000 -1.149955 -1.149961
153.350000 -1.149956 -1.149961
153.400000 -1.149956 -1.149961
153.450000 -1.149957 -1.149961
153.500000 -1.149958 -1.149961
153.550000 -1.149959 -1.149961
153.600000 -1.149960 -1.149961
153.650000 -1.149961 -1.149961
153.700000 -1.149962 -1.149961
153.750000 -1.149963 -1.149961
153.800000 -1.149964 -1.149961
153.850000 -1.149965 -1.149961
153.900000 -1.149965 -1.149961
153.950000 -1.149966 -1.149961
154.000000 -1.149967 -1.149961
154.050000 -1.149967 -1.149961
154.100000 -1.149967 -1.149961
154.150000 -1.149967 -1.149961
154.200000 -1.149967 -1.149961
154.250000 -1.149967 -1.149961
154.300000 -1.149967 -1.149961
154.350000 -1.149966 -1.149961
154.400000 -1.149965 -1.149961
154.450000 -1.149965 -1.149961
154.500000 -1.149964 -1.149961
154.550000 -1.149963 -1.149961
154.600000 -1.149962 -1.149961
154.650000 -1.149961 -1.149961
154.700000 -1.149960 -1.149961
154.750000 -1.149959 -1.149961
154.800000 -1.149958 -1.149961
154.850000 -1.149958 -1.149961
154.900000 -1.149957 -1.149961
154.950000 -1.149956 -1.149961
155.000000 -1.149956 -1.149961
155.050000 -1.149956 -1.149961
155.100000 -1.149955 -1.149961
155.150000 -1.149955 -1.149961
155.200000 -1.149955 -1.149961
155.250000 -1.149956 -1.149961
155.300000 -1.149956 -1.149961
155.350000 -1.149956 -1.149961
155.400000 -1.149957 -1.149961
155.450000 -1.149958 -1.149961
155.500000 -1.149958 -1.149961
155.550000 -1.149959 -1.149961
155.600000 -1.149960 -1.149961
155.650000 -1.149961 -1.149961
155.700000 -1.149962 -1.149961
155.750000 -1.149962 -1.149961
155.800000 -1.149963 -1.149961
155.850000 -1.149964 -1.149961
155.900000 -1.149965 -1.149961
155.950000 -1.149965 -1.149961
156.000000 -1.149966 -1.149961
156.050000 -1.149966 -1.149961
156.100000 -1.149966 -1.149961
156.150000 -1.149966 -1.149961
156.200000 -1.149966 -1.149961
156.250000 -1.149966 -1.149961
156.300000 -1.149966 -1.149961
156.350000 -1.149965 -1.149961
156.400000 -1.149965 -1.149961
156.450000 -1.149964 -1.149961
156.500000 -1.149964 -1.149961
156.550000 -1.149963 -1.149961
156.600000 -1.149962 -1.149961
156.650000 -1.149961 -1.149961
156.700000 -1.149961 -1.149961
156.750000 -1.149960 -1.149961
156.800000 -1.149959 -1.149961
156.850000 -1.149958 -1.149961
156.900000 -1.149958 -1.149961
156.950000 -1.149957 -1.149961
157.000000 -1.149957 -1.149961
157.050000 -1.149956 -1.149961
157.100000 -1.149956 -1.149961
157.150000 -1.149956 -1.149961
157.200000 -1.149956 -1.149961
157.250000 -1.149956 -1.149961
157.300000 -1.149957 -1.149961
157.350000 -1.149957 -1.149961
157.400000 -1.149957 -1.149961
157.450000 -1.149958 -1.149961
157.500000 -1.149959 -1.149961
157.550000 -1.149959 -1.149961
157.600000 -1.149960 -1.149961
157.650000 -1.149961 -1.149961
157.700000 -1.149961 -1.149961
157.750000 -1.149962 -1.149961
157.800000 -1.149963 -1.149961
157.850000 -1.149963 -1.149961
157.900000 -1.149964 -1.149961
157.950000 -1.149964 -1.149961
158.000000 -1.149965 -1.149961
158.050000 -1.149965 -1.149961
158.100000 -1.149965 -1.149961
158.150000 -1.149965 -1.149961
158.200000 -1.149965 -1.149961
158.250000 -1.149965 -1.149961
158.300000 -1.149965 -1.149961
158.350000 -1.149965 -1.149961
158.400000 -1.149964 -1.149961
158.450000 -1.149964 -1.149961
158.500000 -1.149963 -1.149961
158.550000 -1.149963 -1.149961
158.600000 -1.149962 -1.149961
158.650000 -1.149961 -1.149961
158.700000 -1.149961 -1.149961
158.750000 -1.149960 -1.149961
158.800000 -1.149959 -1.149961
158.850000 -1.149959 -1.149961
158.900000 -1.149958 -1.149961
158.950000 -1.149958 -1.149961
159.000000 -1.149958 -1.149961
159.050000 -1.149957 -1.149961
159.100000 -1.149957 -1.149961
159.150000 -1.149957 -1.149961
159.200000 -1.149957 -1.149961
159.250000 -1.149957 -1.149961
159.300000 -1.149957 -1.149961
159.350000 -1.149957 -1.149961
159.400000 -1.149958 -1.149961
159.450000 -1.149958 -1.149961
159.500000 -1.149959 -1.149961
159.550000 -1.149959 -1.149961
159.600000 -1.149960 -1.149961
159.650000 -1.149960 -1.149961
159.700000 -1.149961 -1.149961
159.750000 -1.149962 -1.149961
159.800000 -1.149962 -1.149961
159.850000 -1.149963 -1.149961
159.900000 -1.149963 -1.149961
159.950000 -1.149964 -1.149961
160.000000 -1.149964 -1.149961
160.050000 -1.149964 -1.149961
160.100000 -1.149965 -1.149961
160.150000 -1.149965 -1.149961
160.200000 -1.149965 -1.149961
160.250000 -1.149965 -1.149961
160.300000 -1.149965 -1.149961
160.350000 -1.149964 -1.149961
160.400000 -1.149964 -1.149961
160.450000 -1.149964 -1.149961
160.500000 -1.149963 -1.149961
160.550000 -1.149963 -1.149961
160.600000 -1.149962 -1.149961
160.650000 -1.149962 -1.149961
160.700000 -1.149961 -1.149961
160.750000 -1.149960 -1.149961
160.800000 -1.149960 -1.149961
160.850000 -1.149959 -1.149961
160.900000 -1.149959 -1.149961
160.950000 -1.149958 -1.149961
161.000000 -1.149958 -1.149961
161.050000 -1.149958 -1.149961
161.100000 -1.149958 -1.149961
161.150000 -1.149958 -1.149961
161.200000 -1.149957 -1.149961
161.250000 -1.149958 -1.149961
161.300000 -1.149958 -1.149961
161.350000 -1.149958 -1.149961
161.400000 -1.149958 -1.149961
161.450000 -1.149959 -1.149961
161.500000 -1.149959 -1.149961
161.550000 -1.149959 -1.149961
161.600000 -1.149960 -1.149961
161.650000 -1.149960 -1.149961
161.700000 -1.149961 -1.149961
161.750000 -1.149961 -1.149961
161.800000 -1.149962 -1.149961
161.850000 -1.149962 -1.149961
161.900000 -1.149963 -1.149961
161.950000 -1.149963 -1.149961
162.000000 -1.149964 -1.149961
162.050000 -1.149964 -1.149961
162.100000 -1.149964 -1.149961
162.150000 -1.149964 -1.149961
162.200000 -1.149964 -1.149961
162.250000 -1.149964 -1.149961
162.300000 -1.149964 -1.149961
162.350000 -1.149964 -1.149961
162.400000 -1.149964 -1.149961
162.450000 -1.149963 -1.149961
162.500000 -1.149963 -1.149961
162.550000 -1.149963 -1.149961
162.600000 -1.149962 -1.149961
162.650000 -1.149962 -1.149961
162.700000 -1.149961 -1.149961
162.750000 -1.149961 -1.149961
162.800000 -1.149960 -1.149961
162.850000 -1.149960 -1.149961
162.900000 -1.149959 -1.149961
162.950000 -1.149959 -1.149961
163.000000 -1.149959 -1.149961
163.050000 -1.149958 -1.149961
163.100000 -1.149958 -1.149961
163.150000 -1.149958 -1.149961
163.200000 -1.149958 -1.149961
163.250000 -1.149958 -1.149961
163.300000 -1.149958 -1.149961
163.350000 -1.149958 -1.149961
163.400000 -1.149959 -1.149961
163.450000 -1.149959 -1.149961
163.500000 -1.149959 -1.149961
163.550000 -1.149960 -1.149961
163.600000 -1.149960 -1.149961
163.650000 -1.149960 -1.149961
163.700000 -1.149961 -1.149961
163.750000 -1.149961 -1.149961
163.800000 -1.149962 -1.149961
163.850000 -1.149962 -1.149961
163.900000 -1.149962 -1.149961
163.950000 -1.149963 -1.149961
164.000000 -1.149963 -1.149961
164.050000 -1.149963 -1.149961
164.100000 -1.149964 -1.149961
164.150000 -1.149964 -1.149961
164.200000 -1.149964 -1.149961
164.250000 -1.149964 -1.149961
164.300000 -1.149964 -1.149961
164.350000 -1.149964 -1.149961
164.400000 -1.149963 -1.149961
164.450000 -1.149963 -1.149961
164.500000 -1.149963 -1.149961
164.550000 -1.149962 -1.149961
164.600000 -1.149962 -1.149961
164.650000 -1.149962 -1.149961
164.700000 -1.149961 -1.149961
164.750000 -1.149961 -1.149961
164.800000 -1.149960 -1.149961
164.850000 -1.149960 -1.149961
164.900000 -1.149960 -1.149961
164.950000 -1.149959 -1.149961
165.000000 -1.149959 -1.149961
165.050000 -1.149959 -1.149961
165.100000 -1.149959 -1.149961
165.150000 -1.149959 -1.149961
165.200000 -1.149958 -1.149961
165.250000 -1.149958 -1.149961
165.300000 -1.149959 -1.149961
165.350000 -1.149959 -1.149961
165.400000 -1.149959 -1.149961
165.450000 -1.149959 -1.149961
165.500000 -1.149959 -1.149961
165.550000 -1.149960 -1.149961
165.600000 -1.149960 -1.149961
165.650000 -1.149960 -1.149961
165.700000 -1.149961 -1.149961
165.750000 -1.149961 -1.149961
165.800000 -1.149961 -1.149961
165.850000 -1.149962 -1.149961
165.900000 -1.149962 -1.149961
165.950000 -1.149962 -1.149961
166.000000 -1.149963 -1.149961
166.050000 -1.149963 -1.149961
166.100000 -1.149963 -1.149961
166.150000 -1.149963 -1.149961
166.200000 -1.149963 -1.149961
166.250000 -1.149963 -1.149961
166.300000 -1.149963 -1.149961
166.350000 -1.149963 -1.149961
166.400000 -1.149963 -1.149961
166.450000 -1.149963 -1.149961
166.500000 -1.149963 -1.149961
166.550000 -1.149962 -1.149961
166.600000 -1.149962 -1.149961
166.650000 -1.149962 -1.149961
166.700000 -1.149961 -1.149961
166.750000 -1.149961 -1.149961
166.800000 -1.149961 -1.149961
166.850000 -1.149960 -1.149961
166.900000 -1.149960 -1.149961
166.950000 -1.149960 -1.149961
167.000000 -1.149959 -1.149961
167.050000 -1.149959 -1.149961
167.100000 -1.149959 -1.149961
167.150000 -1.149959 -1.149961
167.200000 -1.149959 -1.149961
167.250000 -1.149959 -1.149961
167.300000 -1.149959 -1.149961
167.350000 -1.149959 -1.149961
167.400000 -1.149959 -1.149961
167.450000 -1.149959 -1.149961
167.500000 -1.149960 -1.149961
167.550000 -1.149960 -1.149961
167.600000 -1.149960 -1.149961
167.650000 -1.149960 -1.149961
167.700000 -1.149961 -1.149961
167.750000 -1.149961 -1.149961
167.800000 -1.149961 -1.149961
167.850000 -1.149962 -1.149961
167.900000 -1.149962 -1.149961
167.950000 -1.149962 -1.149961
168.000000 -1.149962 -1.149961
168.050000 -1.149963 -1.149961
168.100000 -1.149963 -1.149961
168.150000 -1.149963 -1.149961
168.200000 -1.149963 -1.149961
168.250000 -1.149963 -1.149961
168.300000 -1.149963 -1.149961
168.350000 -1.149963 -1.149961
168.400000 -1.149963 -1.149961
168.450000 -1.149963 -1.149961
168.500000 -1.149962 -1.149961
168.550000 -1.149962 -1.149961
168.600000 -1.149962 -1.149961
168.650000 -1.149962 -1.149961
168.700000 -1.149961 -1.149961
168.750000 -1.149961 -1.149961
168.800000 -1.149961 -1.149961
168.850000 -1.149960 -1.149961
168.900000 -1.149960 -1.149961
168.950000 -1.149960 -1.149961
169.000000 -1.149960 -1.149961
169.050000 -1.149960 -1.149961
169.100000 -1.149959 -1.149961
169.150000 -1.149959 -1.149961
169.200000 -1.149959 -1.149961
169.250000 -1.149959 -1.149961
169.300000 -1.149959 -1.149961
169.350000 -1.149959 -1.149961
169.400000 -1.149959 -1.149961
169.450000 -1.149959 -1.149961
169.500000 -1.149960 -1.149961
169.550000 -1.149960 -1.149961
169.600000 -1.149960 -1.149961
169.650000 -1.149960 -1.149961
169.700000 -1.149961 -1.149961
169.750000 -1.149961 -1.149961
169.800000 -1.149961 -1.149961
169.850000 -1.149961 -1.149961
169.900000 -1.149962 -1.149961
169.950000 -1.149962 -1.149961
170.000000 -1.149962 -1.149961
170.050000 -1.149962 -1.149961
170.100000 -1.149962 -1.149961
170.150000 -1.149963 -1.149961
170.200000 -1.149963 -1.149961
170.250000 -1.149963 -1.149961
170.300000 -1.149963 -1.149961
170.350000 -1.149963 -1.149961
170.400000 -1.149963 -1.149961
170.450000 -1.149962 -1.149961
170.500000 -1.149962 -1.149961
170.550000 -1.149962 -1.149961
170.600000 -1.149962 -1.149961
170.650000 -1.149962 -1.149961
170.700000 -1.149961 -1.149961
170.750000 -1.149961 -1.149961
170.800000 -1.149961 -1.149961
170.850000 -1.149961 -1.149961
170.900000 -1.149960 -1.149961
170.950000 -1.149960 -1.149961
171.000000 -1.149960 -1.149961
171.050000 -1.149960 -1.149961
171.100000 -1.149960 -1.149961
171.150000 -1.149960 -1.149961
171.200000 -1.149959 -1.149961
171.250000 -1.149959 -1.149961
171.300000 -1.149959 -1.149961
171.350000 -1.149959 -1.149961
171.400000 -1.149960 -1.149961
171.450000 -1.149960 -1.149961
171.500000 -1.149960 -1.149961
171.550000 -1.149960 -1.149961
171.600000 -1.149960 -1.149961
171.650000 -1.149960 -1.149961
171.700000 -1.149961 -1.149961
171.750000 -1.149961 -1.149961
171.800000 -1.149961 -1.149961
171.850000 -1.149961 -1.149961
171.900000 -1.149962 -1.149961
171.950000 -1.149962 -1.149961
172.000000 -1.149962 -1.149961
172.050000 -1.149962 -1.149961
172.100000 -1.149962 -1.149961
172.150000 -1.149962 -1.149961
172.200000 -1.149962 -1.149961
172.250000 -1.149962 -1.149961
172.300000 -1.149962 -1.149961
172.350000 -1.149962 -1.149961
172.400000 -1.149962 -1.149961
172.450000 -1.149962 -1.149961
172.500000 -1.149962 -1.149961
172.550000 -1.149962 -1.149961
172.600000 -1.149962 -1.149961
172.650000 -1.149962 -1.149961
172.700000 -1.149961 -1.149961
172.750000 -1.149961 -1.149961
172.800000 -1.149961 -1.149961
172.850000 -1.149961 -1.149961
172.900000 -1.149961 -1.149961
172.950000 -1.149960 -1.149961
173.000000 -1.149960 -1.149961
173.050000 -1.149960 -1.149961
173.100000 -1.149960 -1.149961
173.150000 -1.149960 -1.149961
173.200000 -1.149960 -1.149961
173.250000 -1.149960 -1.149961
173.300000 -1.149960 -1.149961
173.350000 -1.149960 -1.149961
173.400000 -1.149960 -1.149961
173.450000 -1.149960 -1.149961
173.500000 -1.149960 -1.149961
173.550000 -1.149960 -1.149961
173.600000 -1.149960 -1.149961
173.650000 -1.149960 -1.149961
173.700000 -1.149961 -1.149961
173.750000 -1.149961 -1.149961
173.800000 -1.149961 -1.149961
173.850000 -1.149961 -1.149961
173.900000 -1.149961 -1.149961
173.950000 -1.149962 -1.149961
174.000000 -1.149962 -1.149961
174.050000 -1.149962 -1.149961
174.100000 -1.149962 -1.149961
174.150000 -1.149962 -1.149961
174.200000 -1.149962 -1.149961
174.250000 -1.149962 -1.149961
174.300000 -1.149962 -1.149961
174.350000 -1.149962 -1.149961
174.400000 -1.149962 -1.149961
174.450000 -1.149962 -1.149961
174.500000 -1.149962 -1.149961
174.550000 -1.149962 -1.149961
174.600000 -1.149962 -1.149961
174.650000 -1.149962 -1.149961
174.700000 -1.149961 -1.149961
174.750000 -1.149961 -1.149961
174.800000 -1.149961 -1.149961
174.850000 -1.149961 -1.149961
174.900000 -1.149961 -1.149961
174.950000 -1.149960 -1.149961
175.000000 -1.149960 -1.149961
175.050000 -1.149960 -1.149961
175.100000 -1.149960 -1.149961
175.150000 -1.149960 -1.149961
175.200000 -1.149960 -1.149961
175.250000 -1.149960 -1.149961
175.300000 -1.149960 -1.149961
175.350000 -1.149960 -1.149961
175.400000 -1.149960 -1.149961
175.450000 -1.149960 -1.149961
175.500000 -1.149960 -1.149961
175.550000 -1.149960 -1.149961
175.600000 -1.149960 -1.149961
175.650000 -1.149960 -1.149961
175.700000 -1.149961 -1.149961
175.750000 -1.149961 -1.149961
175.800000 -1.149961 -1.149961
175.850000 -1.149961 -1.149961
175.900000 -1.149961 -1.149961
175.950000 -1.149961 -1.149961
176.000000 -1.149962 -1.149961
176.050000 -1.149962 -1.149961
176.100000 -1.149962 -1.149961
176.150000 -1.149962 -1.149961
176.200000 -1.149962 -1.149961
176.250000 -1.149962 -1.149961
176.300000 -1.149962 -1.149961
176.350000 -1.149962 -1.149961
176.400000 -1.149962 -1.149961
176.450000 -1.149962 -1.149961
176.500000 -1.149962 -1.149961
176.550000 -1.149962 -1.149961
176.600000 -1.149962 -1.149961
176.650000 -1.149961 -1.149961
176.700000 -1.149961 -1.149961
176.750000 -1.149961 -1.149961
176.800000 -1.149961 -1.149961
176.850000 -1.149961 -1.149961
176.900000 -1.149961 -1.149961
176.950000 -1.149961 -1.149961
177.000000 -1.149960 -1.149961
177.050000 -1.149960 -1.149961
177.100000 -1.149960 -1.149961
177.150000 -1.149960 -1.149961
177.200000 -1.149960 -1.149961
177.250000 -1.149960 -1.149961
177.300000 -1.149960 -1.149961
177.350000 -1.149960 -1.149961
177.400000 -1.149960 -1.149961
177.450000 -1.149960 -1.149961
177.500000 -1.149960 -1.149961
177.550000 -1.149960 -1.149961
177.600000 -1.149960 -1.149961
177.650000 -1.149961 -1.149961
177.700000 -1.149961 -1.149961
177.750000 -1.149961 -1.149961
177.800000 -1.149961 -1.149961
177.850000 -1.149961 -1.149961
177.900000 -1.149961 -1.149961
177.950000 -1.149961 -1.149961
178.000000 -1.149961 -1.149961
178.050000 -1.149962 -1.149961
178.100000 -1.149962 -1.149961
178.150000 -1.149962 -1.149961
178.200000 -1.149962 -1.149961
178.250000 -1.149962 -1.149961
178.300000 -1.149962 -1.149961
178.350000 -1.149962 -1.149961
178.400000 -1.149962 -1.149961
178.450000 -1.149962 -1.149961
178.500000 -1.149962 -1.149961
178.550000 -1.149962 -1.149961
178.600000 -1.149962 -1.149961
178.650000 -1.149961 -1.149961
178.700000 -1.149961 -1.149961
178.750000 -1.149961 -1.149961
178.800000 -1.149961 -1.149961
178.850000 -1.149961 -1.149961
178.900000 -1.149961 -1.149961
178.950000 -1.149961 -1.149961
179.000000 -1.149961 -1.149961
179.050000 -1.149960 -1.149961
179.100000 -1.149960 -1.149961
179.150000 -1.149960 -1.149961
179.200000 -1.149960 -1.149961
179.250000 -1.149960 -1.149961
179.300000 -1.149960 -1.149961
179.350000 -1.149960 -1.149961
179.400000 -1.149960 -1.149961
179.450000 -1.149960 -1.149961
179.500000 -1.149960 -1.149961
179.550000 -1.149960 -1.149961
179.600000 -1.149960 -1.149961
179.650000 -1.149961 -1.149961
179.700000 -1.149961 -1.149961
179.750000 -1.149961 -1.149961
179.800000 -1.149961 -1.149961
179.850000 -1.149961 -1.149961
179.900000 -1.149961 -1.149961
179.950000 -1.149961 -1.149961
180.000000 -1.149961 -1.149961
180.050000 -1.149961 -1.149961
180.100000 -1.149962 -1.149961
180.150000 -1.149962 -1.149961
180.200000 -1.149962 -1.149961
180.250000 -1.149962 -1.149961
180.300000 -1.149962 -1.149961
180.350000 -1.149962 -1.149961
180.400000 -1.149962 -1.149961
180.450000 -1.149962 -1.149961
180.500000 -1.149962 -1.149961
180.550000 -1.149962 -1.149961
180.600000 -1.149962 -1.149961
180.650000 -1.149961 -1.149961
180.700000 -1.149961 -1.149961
180.750000 -1.149961 -1.149961
180.800000 -1.149961 -1.149961
180.850000 -1.149961 -1.149961
180.900000 -1.149961 -1.149961
180.950000 -1.149961 -1.149961
181.000000 -1.149961 -1.149961
181.050000 -1.149961 -1.149961
181.100000 -1.149961 -1.149961
181.150000 -1.149960 -1.149961
181.200000 -1.149960 -1.149961
181.250000 -1.149960 -1.149961
181.300000 -1.149960 -1.149961
181.350000 -1.149960 -1.149961
181.400000 -1.149960 -1.149961
181.450000 -1.149960 -1.149961
181.500000 -1.149960 -1.149961
181.550000 -1.149960 -1.149961
181.600000 -1.149961 -1.149961
181.650000 -1.149961 -1.149961
181.700000 -1.149961 -1.149961
181.750000 -1.149961 -1.149961
181.800000 -1.149961 -1.149961
181.850000 -1.149961 -1.149961
181.900000 -1.149961 -1.149961
181.950000 -1.149961 -1.149961
182.000000 -1.149961 -1.149961
182.050000 -1.149961 -1.149961
182.100000 -1.149961 -1.149961
182.150000 -1.149962 -1.149961
182.200000 -1.149962 -1.149961
182.250000 -1.149962 -1.149961
182.300000 -1.149962 -1.149961
182.350000 -1.149962 -1.149961
182.400000 -1.149962 -1.149961
182.450000 -1.149962 -1.149961
182.500000 -1.149962 -1.149961
182.550000 -1.149962 -1.149961
182.600000 -1.149961 -1.149961
182.650000 -1.149961 -1.149961
182.700000 -1.149961 -1.149961
182.750000 -1.149961 -1.149961
182.800000 -1.149961 -1.149961
182.850000 -1.149961 -1.149961
182.900000 -1.149961 -1.149961
182.950000 -1.149961 -1.149961
183.000000 -1.149961 -1.149961
183.050000 -1.149961 -1.149961
183.100000 -1.149961 -1.149961
183.150000 -1.149961 -1.149961
183.200000 -1.149960 -1.149961
183.250000 -1.149960 -1.149961
183.300000 -1.149960 -1.149961
183.350000 -1.149960 -1.149961
183.400000 -1.149960 -1.149961
183.450000 -1.149960 -1.149961
183.500000 -1.149960 -1.149961
183.550000 -1.149961 -1.149961
183.600000 -1.149961 -1.149961
183.650000 -1.149961 -1.149961
183.700000 -1.149961 -1.149961
183.750000 -1.149961 -1.149961
183.800000 -1.149961 -1.149961
183.850000 -1.149961 -1.149961
183.900000 -1.149961 -1.149961
183.950000 -1.149961 -1.149961
184.000000 -1.149961 -1.149961
184.050000 -1.149961 -1.149961
184.100000 -1.149961 -1.149961
184.150000 -1.149961 -1.149961
184.200000 -1.149961 -1.149961
184.250000 -1.149961 -1.149961
184.300000 -1.149962 -1.149961
184.350000 -1.149962 -1.149961
184.400000 -1.149962 -1.149961
184.450000 -1.149962 -1.149961
184.500000 -1.149961 -1.149961
184.550000 -1.149961 -1.149961
184.600000 -1.149961 -1.149961
184.650000 -1.149961 -1.149961
184.700000 -1.149961 -1.149961
184.750000 -1.149961 -1.149961
184.800000 -1.149961 -1.149961
184.850000 -1.149961 -1.149961
184.900000 -1.149961 -1.149961
184.950000 -1.149961 -1.149961
185.000000 -1.149961 -1.149961
185.050000 -1.149961 -1.149961
185.100000 -1.149961 -1.149961
185.150000 -1.149961 -1.149961
185.200000 -1.149961 -1.149961
185.250000 -1.149961 -1.149961
185.300000 -1.149961 -1.149961
185.350000 -1.149961 -1.149961
185.400000 -1.149961 -1.149961
185.450000 -1.149961 -1.149961
185.500000 -1.149961 -1.149961
185.550000 -1.149961 -1.149961
185.600000 -1.149961 -1.149961
185.650000 -1.149961 -1.149961
185.700000 -1.149961 -1.149961
185.750000 -1.149961 -1.149961
185.800000 -1.149961 -1.149961
185.850000 -1.149961 -1.149961
185.900000 -1.149961 -1.149961
185.950000 -1.149961 -1.149961
186.000000 -1.149961 -1.149961
186.050000 -1.149961 -1.149961
186.100000 -1.149961 -1.149961
186.150000 -1.149961 -1.149961
186.200000 -1.149961 -1.149961
186.250000 -1.149961 -1.149961
186.300000 -1.149961 -1.149961
186.350000 -1.149961 -1.149961
186.400000 -1.149961 -1.149961
186.450000 -1.149961 -1.149961
186.500000 -1.149961 -1.149961
186.550000 -1.149961 -1.149961
186.600000 -1.149961 -1.149961
186.650000 -1.149961 -1.149961
186.700000 -1.149961 -1.149961
186.750000 -1.149961 -1.149961
186.800000 -1.149961 -1.149961
186.850000 -1.149961 -1.149961
186.900000 -1.149961 -1.149961
186.950000 -1.149961 -1.149961
