time[ns] Raw_signal[mV]
-11.100000 -0.288666
-11.050000 -0.326350
-11.000000 -0.346905
-10.950000 -0.357183
-10.900000 -0.357184
-10.850000 -0.333202
-10.800000 -0.274963
-10.750000 -0.175612
-10.700000 -0.021446
-10.650000 0.139570
-10.600000 0.283458
-10.550000 0.434197
-10.500000 0.578085
-10.450000 0.677435
-10.400000 0.725397
-10.350000 0.718546
-10.300000 0.646602
-10.250000 0.550677
-10.200000 0.451326
-10.150000 0.317717
-10.100000 0.177255
-10.050000 0.108738
-10.000000 0.095034
-9.950000 0.081331
-9.900000 0.105311
-9.850000 0.194385
-9.800000 0.283458
-9.750000 0.348550
-9.700000 0.406789
-9.650000 0.434197
-9.600000 0.413642
-9.550000 0.351975
-9.500000 0.238922
-9.450000 0.081330
-9.400000 -0.069408
-9.350000 -0.213296
-9.300000 -0.367461
-9.250000 -0.477090
-9.200000 -0.535330
-9.150000 -0.596995
-9.100000 -0.641533
-9.050000 -0.620977
-9.000000 -0.555884
-8.950000 -0.501071
-8.900000 -0.439405
-8.850000 -0.367461
-8.800000 -0.298943
-8.750000 -0.237277
-8.700000 -0.216722
-8.650000 -0.223574
-8.600000 -0.196166
-8.550000 -0.144778
-8.500000 -0.148204
-8.450000 -0.155056
-8.400000 -0.107094
-8.350000 -0.069408
-8.300000 -0.093390
-8.250000 -0.093391
-8.200000 -0.031724
-8.150000 0.026517
-8.100000 0.053923
-8.050000 0.081330
-8.000000 0.105312
-7.950000 0.112164
-7.900000 0.119015
-7.850000 0.101886
-7.800000 0.043645
-7.750000 -0.011169
-7.700000 -0.052280
-7.650000 -0.117372
-7.600000 -0.213296
-7.550000 -0.302369
-7.500000 -0.370887
-7.450000 -0.418850
-7.400000 -0.435979
-7.350000 -0.418849
-7.300000 -0.374313
-7.250000 -0.285240
-7.200000 -0.161908
-7.150000 -0.042001
-7.100000 0.077904
-7.050000 0.211515
-7.000000 0.348550
-6.950000 0.454752
-6.900000 0.530123
-6.850000 0.584936
-6.800000 0.591788
-6.750000 0.540400
-6.700000 0.458179
-6.650000 0.379383
-6.600000 0.310865
-6.550000 0.242347
-6.500000 0.173830
-6.450000 0.149848
-6.400000 0.173829
-6.350000 0.194385
-6.300000 0.197810
-6.250000 0.218366
-6.200000 0.256051
-6.150000 0.262903
-6.100000 0.232069
-6.050000 0.194384
-6.000000 0.132719
-5.950000 0.040219
-5.900000 -0.038576
-5.850000 -0.089964
-5.800000 -0.137927
-5.750000 -0.189315
-5.700000 -0.209871
-5.650000 -0.213296
-5.600000 -0.213297
-5.550000 -0.220148
-5.500000 -0.230426
-5.450000 -0.254407
-5.400000 -0.309221
-5.350000 -0.364036
-5.300000 -0.398295
-5.250000 -0.418850
-5.200000 -0.429127
-5.150000 -0.415423
-5.100000 -0.343480
-5.050000 -0.254407
-5.000000 -0.182463
-4.950000 -0.117371
-4.900000 -0.065983
-4.850000 -0.028299
-4.800000 -0.014594
-4.750000 -0.024872
-4.700000 -0.055705
-4.650000 -0.100241
-4.600000 -0.158481
-4.550000 -0.206444
-4.500000 -0.237277
-4.450000 -0.257832
-4.400000 -0.268110
-4.350000 -0.247555
-4.300000 -0.206444
-4.250000 -0.175611
-4.200000 -0.151630
-4.150000 -0.131075
-4.100000 -0.124223
-4.050000 -0.107094
-4.000000 -0.072835
-3.950000 -0.042002
-3.900000 -0.021446
-3.850000 0.023090
-3.800000 0.091608
-3.750000 0.153274
-3.700000 0.211514
-3.650000 0.259477
-3.600000 0.293736
-3.550000 0.304014
-3.500000 0.300588
-3.450000 0.273181
-3.400000 0.218366
-3.350000 0.184107
-3.300000 0.177255
-3.250000 0.136145
-3.200000 0.036794
-3.150000 0.033368
-3.100000 0.149848
-3.050000 0.184107
-3.000000 0.067627
-2.950000 0.036794
-2.900000 0.071053
-2.850000 -0.045428
-2.800000 -0.237278
-2.750000 -0.360609
-2.700000 -0.528478
-2.650000 -0.696347
-2.600000 -0.634680
-2.550000 -0.528478
-2.500000 -0.617551
-2.450000 -0.603847
-2.400000 -0.343480
-2.350000 -0.216722
-2.300000 -0.216722
-2.250000 0.005961
-2.200000 0.238922
-2.150000 0.180682
-2.100000 0.156700
-2.050000 0.334846
-2.000000 0.300587
-1.950000 -0.011168
-1.900000 -0.213296
-1.850000 -0.220148
-1.800000 -0.203019
-1.750000 -0.148205
-1.700000 -0.113945
-1.650000 -0.189315
-1.600000 -0.168759
-1.550000 0.012813
-1.500000 0.081330
-1.450000 0.071053
-1.400000 0.259477
-1.350000 0.485586
-1.300000 0.475308
-1.250000 0.406790
-1.200000 0.379382
-1.150000 0.228643
-1.100000 0.119015
-1.050000 0.208088
-1.000000 0.142996
-0.950000 -0.168759
-0.900000 -0.247555
-0.850000 -0.076260
-0.800000 -0.086538
-0.750000 -0.161907
-0.700000 -0.011168
-0.650000 0.115589
-0.600000 0.071052
-0.550000 0.108738
-0.500000 0.218366
-0.450000 0.156700
-0.400000 0.019665
-0.350000 -0.038575
-0.300000 -0.137927
-0.250000 -0.333203
-0.200000 -0.507922
-0.150000 -0.665514
-0.100000 -0.823104
-0.050000 -0.922455
0.000000 -0.977269
0.050000 -0.987547
0.100000 -0.922455
0.150000 -0.843659
0.200000 -0.775142
0.250000 -0.590144
0.300000 -0.305796
0.350000 -0.165333
0.400000 -0.155055
0.450000 -0.038576
0.500000 0.163552
0.550000 0.256051
0.600000 0.283458
0.650000 0.345124
0.700000 0.358828
0.750000 0.334847
0.800000 0.427345
0.850000 0.701416
0.900000 1.139931
0.950000 1.862793
1.000000 3.044725
1.050000 4.709707
1.100000 6.936536
1.150000 9.920482
1.200000 13.760913
1.250000 18.379012
1.300000 23.740530
1.350000 29.883151
1.400000 36.649278
1.450000 43.734026
1.500000 50.938665
1.550000 58.239244
1.600000 65.532962
1.650000 72.593721
1.700000 79.274201
1.750000 85.564141
1.800000 91.412131
1.850000 96.640041
1.900000 101.193051
1.950000 105.115691
2.000000 108.425101
2.050000 111.032211
2.100000 112.885611
2.150000 114.002451
2.200000 114.379311
2.250000 113.957921
2.300000 112.683491
2.350000 110.597121
2.400000 107.822151
2.450000 104.403101
2.500000 100.370831
2.550000 95.845231
2.600000 90.987331
2.650000 85.824511
2.700000 80.442431
2.750000 75.032961
2.800000 69.702271
2.850000 64.433251
2.900000 59.335521
2.950000 54.631771
3.000000 50.387101
3.050000 46.550101
3.100000 43.213291
3.150000 40.537661
3.200000 38.495841
3.250000 37.002151
3.300000 36.101141
3.350000 35.792811
3.400000 35.933271
3.450000 36.423171
3.500000 37.286501
3.550000 38.478701
3.600000 39.814801
3.650000 41.185161
3.700000 42.565791
3.750000 43.895031
3.800000 45.100961
3.850000 46.115021
3.900000 46.875571
3.950000 47.341481
4.000000 47.533331
4.050000 47.416861
4.100000 46.926951
4.150000 46.063631
4.200000 44.874841
4.250000 43.374301
4.300000 41.599691
4.350000 39.595541
4.400000 37.382421
4.450000 35.021981
4.500000 32.637571
4.550000 30.249721
4.600000 27.831041
4.650000 25.487731
4.700000 23.319141
4.750000 21.308141
4.800000 19.447889
4.850000 17.827445
4.900000 16.477637
4.950000 15.381355
5.000000 14.559144
5.050000 14.014430
5.100000 13.723225
5.150000 13.695820
5.200000 13.945912
5.250000 14.446090
5.300000 15.158671
5.350000 16.066531
5.400000 17.080594
5.450000 18.104940
5.500000 19.125853
5.550000 20.112509
5.600000 20.992959
5.650000 21.712398
5.700000 22.260548
5.750000 22.575722
5.800000 22.637387
5.850000 22.486656
5.900000 22.123506
5.950000 21.534253
6.000000 20.766857
6.050000 19.886405
6.100000 18.882615
6.150000 17.769197
6.200000 16.621528
6.250000 15.449873
6.300000 14.264515
6.350000 13.147676
6.400000 12.116483
6.450000 11.146956
6.500000 10.263075
6.550000 9.488825
6.600000 8.776240
6.650000 8.125320
6.700000 7.570326
6.750000 7.111257
6.800000 6.744686
6.850000 6.491171
6.900000 6.289043
6.950000 6.128027
7.000000 6.073213
7.050000 6.145155
7.100000 6.285617
7.150000 6.515152
7.200000 6.871445
7.250000 7.289403
7.300000 7.738194
7.350000 8.228098
7.400000 8.724851
7.450000 9.153088
7.500000 9.481973
7.550000 9.725211
7.600000 9.875950
7.650000 9.920486
7.700000 9.838266
7.750000 9.642990
7.800000 9.365493
7.850000 9.012626
7.900000 8.598093
7.950000 8.173282
8.000000 7.755324
8.050000 7.340792
8.100000 6.936536
8.150000 6.556263
8.200000 6.193118
8.250000 5.836826
8.300000 5.477108
8.350000 5.113963
8.400000 4.764522
8.450000 4.411656
8.500000 4.038233
8.550000 3.678515
8.600000 3.380462
8.650000 3.123521
8.700000 2.897412
8.750000 2.719266
8.800000 2.626767
8.850000 2.589082
8.900000 2.589082
8.950000 2.667877
9.000000 2.811765
9.050000 2.959078
9.100000 3.061855
9.150000 3.171483
9.200000 3.287964
9.250000 3.366759
9.300000 3.431851
9.350000 3.520924
9.400000 3.623701
9.450000 3.716200
9.500000 3.812124
9.550000 3.921753
9.600000 4.055363
9.650000 4.199250
9.700000 4.329434
9.750000 4.418508
9.800000 4.449341
9.850000 4.401378
9.900000 4.271194
9.950000 4.075918
10.000000 3.825828
10.050000 3.493517
10.100000 3.113243
10.150000 2.712414
10.200000 2.294455
10.250000 1.883349
10.300000 1.537334
10.350000 1.256411
10.400000 0.999468
10.450000 0.745953
10.500000 0.512992
10.550000 0.307439
10.600000 0.142996
10.650000 0.012812
10.700000 -0.096816
10.750000 -0.185889
10.800000 -0.230426
10.850000 -0.240704
10.900000 -0.216722
10.950000 -0.131075
11.000000 0.005961
11.050000 0.163552
11.100000 0.331420
11.150000 0.519844
11.200000 0.711695
11.250000 0.865860
11.300000 0.982340
11.350000 1.088542
11.400000 1.174189
11.450000 1.215300
11.500000 1.235855
11.550000 1.252985
11.600000 1.294096
11.650000 1.348910
11.700000 1.396872
11.750000 1.420853
11.800000 1.441409
11.850000 1.472241
11.900000 1.451686
11.950000 1.338632
12.000000 1.167338
12.050000 0.948081
12.100000 0.663732
12.150000 0.331421
12.200000 -0.021447
12.250000 -0.411998
12.300000 -0.823105
12.350000 -1.199953
12.400000 -1.504856
12.450000 -1.768651
12.500000 -2.005037
12.550000 -2.176332
12.600000 -2.251701
12.650000 -2.255127
12.700000 -2.217442
12.750000 -2.118091
12.800000 -1.936519
12.850000 -1.710410
12.900000 -1.498005
12.950000 -1.282174
13.000000 -1.045788
13.050000 -0.799123
13.100000 -0.579867
13.150000 -0.367461
13.200000 -0.175611
13.250000 -0.038576
13.300000 0.047071
13.350000 0.146423
13.400000 0.273180
13.450000 0.362253
13.500000 0.410216
13.550000 0.461604
13.600000 0.502714
13.650000 0.485586
13.700000 0.413642
13.750000 0.338272
13.800000 0.242347
13.850000 0.101886
13.900000 -0.076260
13.950000 -0.278388
14.000000 -0.507923
14.050000 -0.744310
14.100000 -0.997825
14.150000 -1.254767
14.200000 -1.480875
14.250000 -1.672725
14.300000 -1.850871
14.350000 -2.001611
14.400000 -2.090684
14.450000 -2.121517
14.500000 -2.104387
14.550000 -2.018741
14.600000 -1.844020
14.650000 -1.631615
14.700000 -1.415783
14.750000 -1.196527
14.800000 -0.949863
14.850000 -0.720328
14.900000 -0.566163
14.950000 -0.483942
15.000000 -0.418849
15.050000 -0.374313
15.100000 -0.398294
15.150000 -0.456535
15.200000 -0.473664
15.250000 -0.477090
15.300000 -0.507923
15.350000 -0.525052
15.400000 -0.459960
15.450000 -0.360610
15.500000 -0.309221
15.550000 -0.302369
15.600000 -0.305795
15.650000 -0.350331
15.700000 -0.463386
15.750000 -0.603848
15.800000 -0.768290
15.850000 -0.970417
15.900000 -1.179397
15.950000 -1.347266
16.000000 -1.484301
16.050000 -1.580227
16.100000 -1.611059
16.150000 -1.587078
16.200000 -1.521986
16.250000 -1.422635
16.300000 -1.333563
16.350000 -1.271896
16.400000 -1.213656
16.450000 -1.193101
16.500000 -1.258193
16.550000 -1.360970
16.600000 -1.460320
16.650000 -1.566522
16.700000 -1.672725
16.750000 -1.727540
16.800000 -1.727539
16.850000 -1.686429
16.900000 -1.583652
16.950000 -1.443190
17.000000 -1.302729
17.050000 -1.155416
17.100000 -1.025233
17.150000 -0.936159
17.200000 -0.891622
17.250000 -0.877919
17.300000 -0.925882
17.350000 -1.025232
17.400000 -1.155416
17.450000 -1.333562
17.500000 -1.521987
17.550000 -1.665873
17.600000 -1.782353
17.650000 -1.902260
17.700000 -1.994759
17.750000 -2.046148
17.800000 -2.076981
17.850000 -2.104388
17.900000 -2.111240
17.950000 -2.097536
18.000000 -2.080406
18.050000 -2.063277
18.100000 -2.052999
18.150000 -2.035870
18.200000 -2.001611
18.250000 -1.960501
18.300000 -1.936519
18.350000 -1.895409
18.400000 -1.799483
18.450000 -1.683003
18.500000 -1.573374
18.550000 -1.422636
18.600000 -1.220508
18.650000 -1.032083
18.700000 -0.891622
18.750000 -0.768290
18.800000 -0.658661
18.850000 -0.627829
18.900000 -0.692921
18.950000 -0.816253
19.000000 -0.966992
19.050000 -1.162267
19.100000 -1.419209
19.150000 -1.672726
19.200000 -1.878279
19.250000 -2.039295
19.300000 -2.159202
19.350000 -2.193461
19.400000 -2.145498
19.450000 -2.042722
19.500000 -1.888557
19.550000 -1.676152
19.600000 -1.446617
19.650000 -1.237637
19.700000 -1.059491
19.750000 -0.936159
19.800000 -0.881344
19.850000 -0.877919
19.900000 -0.949862
19.950000 -1.086899
20.000000 -1.237638
20.050000 -1.381525
20.100000 -1.518560
20.150000 -1.617911
20.200000 -1.652170
20.250000 -1.631615
20.300000 -1.539116
20.350000 -1.360969
20.400000 -1.145138
20.450000 -0.915603
20.500000 -0.662088
20.550000 -0.408572
20.600000 -0.179038
20.650000 -0.007743
20.700000 0.088183
20.750000 0.122441
20.800000 0.136145
20.850000 0.095034
20.900000 -0.014594
20.950000 -0.124223
21.000000 -0.216722
21.050000 -0.340054
21.100000 -0.487367
21.150000 -0.593570
21.200000 -0.699772
21.250000 -0.843660
21.300000 -0.977270
21.350000 -1.114305
21.400000 -1.319859
21.450000 -1.525412
21.500000 -1.672726
21.550000 -1.806335
21.600000 -1.953649
21.650000 -2.056425
21.700000 -2.090684
21.750000 -2.056425
21.800000 -1.943371
21.850000 -1.765224
21.900000 -1.563097
21.950000 -1.367821
22.000000 -1.182823
22.050000 -1.028658
22.100000 -0.898474
22.150000 -0.826531
22.200000 -0.840234
22.250000 -0.915604
22.300000 -1.018381
22.350000 -1.138286
22.400000 -1.285600
22.450000 -1.422635
22.500000 -1.515134
22.550000 -1.563097
22.600000 -1.552819
22.650000 -1.487727
22.700000 -1.395228
22.750000 -1.265044
22.800000 -1.110879
22.850000 -0.953289
22.900000 -0.819679
22.950000 -0.730606
23.000000 -0.706624
23.050000 -0.737457
23.100000 -0.788846
23.150000 -0.867642
23.200000 -0.984121
23.250000 -1.114305
23.300000 -1.237637
23.350000 -1.374673
23.400000 -1.508282
23.450000 -1.614486
23.500000 -1.696707
23.550000 -1.751521
23.600000 -1.741244
23.650000 -1.700132
23.700000 -1.696707
23.750000 -1.727540
23.800000 -1.720688
23.850000 -1.693281
23.900000 -1.706984
23.950000 -1.754946
24.000000 -1.813187
24.050000 -1.891983
24.100000 -1.984481
24.150000 -2.070128
24.200000 -2.155776
24.250000 -2.234571
24.300000 -2.320219
24.350000 -2.385310
24.400000 -2.392162
24.450000 -2.327070
24.500000 -2.231145
24.550000 -2.121517
24.600000 -1.987907
24.650000 -1.844020
24.700000 -1.686429
24.750000 -1.528838
24.800000 -1.398654
24.850000 -1.319859
24.900000 -1.282174
24.950000 -1.282174
25.000000 -1.343839
25.050000 -1.467172
25.100000 -1.624762
25.150000 -1.799483
25.200000 -1.953648
25.250000 -2.070129
25.300000 -2.152349
25.350000 -2.207164
25.400000 -2.214016
25.450000 -2.172905
25.500000 -2.107813
25.550000 -2.018740
25.600000 -1.919389
25.650000 -1.840594
25.700000 -1.792631
25.750000 -1.782353
25.800000 -1.802909
25.850000 -1.830316
25.900000 -1.868001
25.950000 -1.936518
26.000000 -1.998185
26.050000 -2.035869
26.100000 -2.083832
26.150000 -2.138646
26.200000 -2.159202
26.250000 -2.159202
26.300000 -2.142072
26.350000 -2.097536
26.400000 -2.046148
26.450000 -2.022166
26.500000 -1.987907
26.550000 -1.912537
26.600000 -1.830316
26.650000 -1.782354
26.700000 -1.754946
26.750000 -1.751520
26.800000 -1.782353
26.850000 -1.833742
26.900000 -1.915964
26.950000 -2.042721
27.000000 -2.200312
27.050000 -2.351052
27.100000 -2.481235
27.150000 -2.570308
27.200000 -2.614844
27.250000 -2.631974
27.300000 -2.618271
27.350000 -2.563457
27.400000 -2.450402
27.450000 -2.299663
27.500000 -2.155776
27.550000 -2.035870
27.600000 -1.881704
27.650000 -1.734391
27.700000 -1.659021
27.750000 -1.583652
27.800000 -1.477450
27.850000 -1.402080
27.900000 -1.381524
27.950000 -1.357544
28.000000 -1.336988
28.050000 -1.367821
28.100000 -1.419209
28.150000 -1.460320
28.200000 -1.511709
28.250000 -1.590504
28.300000 -1.659022
28.350000 -1.693281
28.400000 -1.693281
28.450000 -1.669299
28.500000 -1.652170
28.550000 -1.631615
28.600000 -1.604207
28.650000 -1.590504
28.700000 -1.624763
28.750000 -1.693281
28.800000 -1.792632
28.850000 -1.943370
28.900000 -2.118091
28.950000 -2.285959
29.000000 -2.443550
29.050000 -2.587437
29.100000 -2.693641
29.150000 -2.741603
29.200000 -2.721048
29.250000 -2.625122
29.300000 -2.467532
29.350000 -2.282534
29.400000 -2.063276
29.450000 -1.844020
29.500000 -1.635041
29.550000 -1.429487
29.600000 -1.244489
29.650000 -1.138286
29.700000 -1.110879
29.750000 -1.104028
29.800000 -1.124582
29.850000 -1.241062
29.900000 -1.426061
29.950000 -1.628188
30.000000 -1.850871
30.050000 -2.118091
30.100000 -2.378458
30.150000 -2.594289
30.200000 -2.762158
30.250000 -2.858083
30.300000 -2.878638
30.350000 -2.851231
30.400000 -2.765584
30.450000 -2.580586
30.500000 -2.344199
30.550000 -2.104388
30.600000 -1.854297
30.650000 -1.600781
30.700000 -1.402080
30.750000 -1.261619
30.800000 -1.172545
30.850000 -1.151990
30.900000 -1.213656
30.950000 -1.330136
31.000000 -1.446617
31.050000 -1.583652
31.100000 -1.741243
31.150000 -1.864575
31.200000 -1.915963
31.250000 -1.943371
31.300000 -1.960499
31.350000 -1.919389
31.400000 -1.844020
31.450000 -1.785780
31.500000 -1.744668
31.550000 -1.696706
31.600000 -1.679577
31.650000 -1.730965
31.700000 -1.826890
31.750000 -1.943371
31.800000 -2.073555
31.850000 -2.200312
31.900000 -2.327070
31.950000 -2.457254
32.000000 -2.525772
32.050000 -2.515494
32.100000 -2.453828
32.150000 -2.368181
32.200000 -2.237997
32.250000 -2.083832
32.300000 -1.950222
32.350000 -1.850871
32.400000 -1.778928
32.450000 -1.754946
32.500000 -1.799483
32.550000 -1.915963
32.600000 -2.046147
32.650000 -2.186608
32.700000 -2.375033
32.750000 -2.553179
32.800000 -2.659382
32.850000 -2.693641
32.900000 -2.690215
32.950000 -2.625123
33.000000 -2.488087
33.050000 -2.320218
33.100000 -2.128368
33.150000 -1.922816
33.200000 -1.751520
33.250000 -1.617911
33.300000 -1.515134
33.350000 -1.491153
33.400000 -1.545967
33.450000 -1.607633
33.500000 -1.672725
33.550000 -1.799483
33.600000 -1.943370
33.650000 -2.035870
33.700000 -2.100962
33.750000 -2.162628
33.800000 -2.183183
33.850000 -2.176331
33.900000 -2.162628
33.950000 -2.135220
34.000000 -2.097536
34.050000 -2.097536
34.100000 -2.128368
34.150000 -2.169479
34.200000 -2.251701
34.250000 -2.392162
34.300000 -2.542901
34.350000 -2.673085
34.400000 -2.806695
34.450000 -2.950582
34.500000 -3.053359
34.550000 -3.128729
34.600000 -3.180116
34.650000 -3.173265
34.700000 -3.128728
34.750000 -3.094470
34.800000 -3.032803
34.850000 -2.923175
34.900000 -2.799843
34.950000 -2.669659
35.000000 -2.536049
35.050000 -2.429847
35.100000 -2.333922
35.150000 -2.224293
35.200000 -2.135221
35.250000 -2.066702
35.300000 -2.008463
35.350000 -1.991332
35.400000 -2.025591
35.450000 -2.094109
35.500000 -2.190035
35.550000 -2.316792
35.600000 -2.443550
35.650000 -2.573734
35.700000 -2.724473
35.750000 -2.858083
35.800000 -2.940304
35.850000 -2.977989
35.900000 -2.981415
35.950000 -2.923175
36.000000 -2.820398
36.050000 -2.707344
36.100000 -2.611419
36.150000 -2.539475
36.200000 -2.488087
36.250000 -2.467532
36.300000 -2.498364
36.350000 -2.560030
36.400000 -2.628548
36.450000 -2.707344
36.500000 -2.772436
36.550000 -2.806695
36.600000 -2.782714
36.650000 -2.738177
36.700000 -2.673085
36.750000 -2.563456
36.800000 -2.419569
36.850000 -2.289385
36.900000 -2.196886
36.950000 -2.118091
37.000000 -2.056425
37.050000 -2.046147
37.100000 -2.090684
37.150000 -2.155776
37.200000 -2.220867
37.250000 -2.306515
37.300000 -2.412718
37.350000 -2.484661
37.400000 -2.515494
37.450000 -2.549753
37.500000 -2.594289
37.550000 -2.614844
37.600000 -2.594289
37.650000 -2.546327
37.700000 -2.491513
37.750000 -2.443551
37.800000 -2.375033
37.850000 -2.316793
37.900000 -2.303089
37.950000 -2.320219
38.000000 -2.316792
38.050000 -2.316792
38.100000 -2.361329
38.150000 -2.412718
38.200000 -2.446976
38.250000 -2.481235
38.300000 -2.518920
38.350000 -2.518920
38.400000 -2.477809
38.450000 -2.433273
38.500000 -2.347626
38.550000 -2.210590
38.600000 -2.063276
38.650000 -1.943371
38.700000 -1.820039
38.750000 -1.717262
38.800000 -1.672725
38.850000 -1.672725
38.900000 -1.696707
38.950000 -1.748095
39.000000 -1.826890
39.050000 -1.933092
39.100000 -2.052999
39.150000 -2.159201
39.200000 -2.248274
39.250000 -2.354477
39.300000 -2.457254
39.350000 -2.532624
39.400000 -2.587437
39.450000 -2.649103
39.500000 -2.717621
39.550000 -2.786140
39.600000 -2.840954
39.650000 -2.871786
39.700000 -2.888916
39.750000 -2.892342
39.800000 -2.902620
39.850000 -2.926601
39.900000 -2.971138
39.950000 -2.988267
40.000000 -2.977989
40.050000 -2.988266
40.100000 -2.984841
40.150000 -2.916323
40.200000 -2.806695
40.250000 -2.683363
40.300000 -2.505216
40.350000 -2.275681
40.400000 -2.052999
40.450000 -1.840594
40.500000 -1.624762
40.550000 -1.439765
40.600000 -1.336987
40.650000 -1.306155
40.700000 -1.336988
40.750000 -1.432913
40.800000 -1.573374
40.850000 -1.744668
40.900000 -1.967351
40.950000 -2.162628
41.000000 -2.279108
41.050000 -2.371607
41.100000 -2.464106
41.150000 -2.501790
41.200000 -2.470958
41.250000 -2.429847
41.300000 -2.368181
41.350000 -2.268830
41.400000 -2.172905
41.450000 -2.094110
41.500000 -1.998184
41.550000 -1.898833
41.600000 -1.844020
41.650000 -1.799483
41.700000 -1.775502
41.750000 -1.806334
41.800000 -1.871427
41.850000 -1.933093
41.900000 -2.018740
41.950000 -2.138646
42.000000 -2.241423
42.050000 -2.327070
42.100000 -2.422995
42.150000 -2.477810
42.200000 -2.446976
42.250000 -2.368181
42.300000 -2.282533
42.350000 -2.196887
42.400000 -2.111239
42.450000 -2.029017
42.500000 -1.977630
42.550000 -2.011888
42.600000 -2.118091
42.650000 -2.241423
42.700000 -2.361329
42.750000 -2.508642
42.800000 -2.655956
42.850000 -2.762158
42.900000 -2.820398
42.950000 -2.810120
43.000000 -2.741602
43.050000 -2.645677
43.100000 -2.532624
43.150000 -2.381884
43.200000 -2.231145
43.250000 -2.128368
43.300000 -2.035869
43.350000 -1.933093
43.400000 -1.861149
43.450000 -1.850871
43.500000 -1.847445
43.550000 -1.850872
43.600000 -1.905685
43.650000 -1.967352
43.700000 -1.981056
43.750000 -1.984481
43.800000 -2.035869
43.850000 -2.100961
43.900000 -2.131794
43.950000 -2.148924
44.000000 -2.179756
44.050000 -2.203739
44.100000 -2.214016
44.150000 -2.203738
44.200000 -2.159202
44.250000 -2.094110
44.300000 -2.029017
44.350000 -1.950223
44.400000 -1.847446
44.450000 -1.751520
44.500000 -1.706984
44.550000 -1.662448
44.600000 -1.617911
44.650000 -1.628188
44.700000 -1.717261
44.750000 -1.823465
44.800000 -1.919389
44.850000 -2.035870
44.900000 -2.152349
44.950000 -2.231146
45.000000 -2.292811
45.050000 -2.320219
45.100000 -2.272256
45.150000 -2.169480
45.200000 -2.073554
45.250000 -1.977629
45.300000 -1.850871
45.350000 -1.741243
45.400000 -1.689855
45.450000 -1.669299
45.500000 -1.672725
45.550000 -1.724114
45.600000 -1.799483
45.650000 -1.874852
45.700000 -1.953648
45.750000 -2.025592
45.800000 -2.073554
45.850000 -2.111239
45.900000 -2.135220
45.950000 -2.124942
46.000000 -2.097535
46.050000 -2.087258
46.100000 -2.114665
46.150000 -2.135220
46.200000 -2.135220
46.250000 -2.118091
46.300000 -2.118091
46.350000 -2.131794
46.400000 -2.124943
46.450000 -2.080406
46.500000 -2.011889
46.550000 -1.957074
46.600000 -1.939945
46.650000 -1.939944
46.700000 -1.936519
46.750000 -1.943370
46.800000 -1.998185
46.850000 -2.070128
46.900000 -2.162628
46.950000 -2.272256
47.000000 -2.351051
47.050000 -2.405866
47.100000 -2.457254
47.150000 -2.494939
47.200000 -2.477810
47.250000 -2.453828
47.300000 -2.464105
47.350000 -2.467532
47.400000 -2.433272
47.450000 -2.433273
47.500000 -2.488086
47.550000 -2.542902
47.600000 -2.604567
47.650000 -2.703918
47.700000 -2.830676
47.750000 -2.923175
47.800000 -2.967712
47.850000 -2.991693
47.900000 -2.998544
47.950000 -2.971137
48.000000 -2.902619
48.050000 -2.840954
48.100000 -2.782714
48.150000 -2.693641
48.200000 -2.584012
48.250000 -2.484661
48.300000 -2.392162
48.350000 -2.292811
48.400000 -2.200313
48.450000 -2.124943
48.500000 -2.070129
48.550000 -2.032443
48.600000 -2.005037
48.650000 -1.994759
48.700000 -2.029018
48.750000 -2.094110
48.800000 -2.142072
48.850000 -2.196887
48.900000 -2.306515
48.950000 -2.443551
49.000000 -2.556604
49.050000 -2.666234
49.100000 -2.789565
49.150000 -2.854658
49.200000 -2.861509
49.250000 -2.861509
49.300000 -2.840953
49.350000 -2.786139
49.400000 -2.741603
49.450000 -2.727899
49.500000 -2.697066
49.550000 -2.652530
49.600000 -2.628548
49.650000 -2.601142
49.700000 -2.553179
49.750000 -2.501791
49.800000 -2.464105
49.850000 -2.416144
49.900000 -2.351052
49.950000 -2.248274
50.000000 -2.124942
50.050000 -2.015314
50.100000 -1.926241
50.150000 -1.833742
50.200000 -1.775502
50.250000 -1.775502
50.300000 -1.792632
50.350000 -1.802908
50.400000 -1.847445
50.450000 -1.922815
50.500000 -1.984481
50.550000 -2.029017
50.600000 -2.049573
50.650000 -2.025592
50.700000 -1.984481
50.750000 -1.936518
50.800000 -1.868001
50.850000 -1.809760
50.900000 -1.806335
50.950000 -1.844019
51.000000 -1.909111
51.050000 -2.046147
51.100000 -2.234571
51.150000 -2.412717
51.200000 -2.601142
51.250000 -2.810120
51.300000 -2.998544
51.350000 -3.111599
51.400000 -3.169839
51.450000 -3.207524
51.500000 -3.214376
51.550000 -3.176691
51.600000 -3.101321
51.650000 -3.036230
51.700000 -2.954008
51.750000 -2.840954
51.800000 -2.738177
51.850000 -2.662807
51.900000 -2.594289
51.950000 -2.505216
52.000000 -2.416143
52.050000 -2.351051
52.100000 -2.275682
52.150000 -2.183182
52.200000 -2.114665
52.250000 -2.094109
52.300000 -2.097535
52.350000 -2.114665
52.400000 -2.145498
52.450000 -2.193461
52.500000 -2.272256
52.550000 -2.371607
52.600000 -2.446976
52.650000 -2.491512
52.700000 -2.536050
52.750000 -2.584012
52.800000 -2.614845
52.850000 -2.652529
52.900000 -2.693640
52.950000 -2.679937
53.000000 -2.628548
53.050000 -2.597715
53.100000 -2.577160
53.150000 -2.501791
53.200000 -2.392162
53.250000 -2.296238
53.300000 -2.200312
53.350000 -2.076980
53.400000 -1.981055
53.450000 -1.915964
53.500000 -1.850871
53.550000 -1.806335
53.600000 -1.837168
53.650000 -1.905686
53.700000 -1.957074
53.750000 -2.018740
53.800000 -2.094110
53.850000 -2.169480
53.900000 -2.231146
53.950000 -2.268830
54.000000 -2.272256
54.050000 -2.268830
54.100000 -2.261979
54.150000 -2.220867
54.200000 -2.179757
54.250000 -2.183183
54.300000 -2.210590
54.350000 -2.220867
54.400000 -2.241423
54.450000 -2.279107
54.500000 -2.313366
54.550000 -2.347625
54.600000 -2.378459
54.650000 -2.378458
54.700000 -2.344199
54.750000 -2.279108
54.800000 -2.193460
54.850000 -2.094110
54.900000 -2.001610
54.950000 -1.919390
55.000000 -1.857723
55.050000 -1.820039
55.100000 -1.792632
55.150000 -1.775502
55.200000 -1.792632
55.250000 -1.844020
55.300000 -1.888557
55.350000 -1.919389
55.400000 -1.987907
55.450000 -2.080406
55.500000 -2.145497
55.550000 -2.203738
55.600000 -2.275682
55.650000 -2.357903
55.700000 -2.436698
55.750000 -2.505216
55.800000 -2.553179
55.850000 -2.597715
55.900000 -2.621696
55.950000 -2.611419
56.000000 -2.577160
56.050000 -2.542901
56.100000 -2.508642
56.150000 -2.450403
56.200000 -2.388736
56.250000 -2.347626
56.300000 -2.340774
56.350000 -2.354477
56.400000 -2.361329
56.450000 -2.364755
56.500000 -2.388737
56.550000 -2.395588
56.600000 -2.351051
56.650000 -2.285960
56.700000 -2.227719
56.750000 -2.131794
56.800000 -1.987907
56.850000 -1.837168
56.900000 -1.700132
56.950000 -1.583653
57.000000 -1.525412
57.050000 -1.535690
57.100000 -1.590504
57.150000 -1.693281
57.200000 -1.837168
57.250000 -1.994759
57.300000 -2.159202
57.350000 -2.337348
57.400000 -2.481235
57.450000 -2.573734
57.500000 -2.631975
57.550000 -2.642252
57.600000 -2.587438
57.650000 -2.501791
57.700000 -2.381885
57.750000 -2.227720
57.800000 -2.080406
57.850000 -1.960500
57.900000 -1.854297
57.950000 -1.792631
58.000000 -1.799483
58.050000 -1.840594
58.100000 -1.888556
58.150000 -1.967352
58.200000 -2.049573
58.250000 -2.111239
58.300000 -2.169480
58.350000 -2.214015
58.400000 -2.217442
58.450000 -2.217441
58.500000 -2.234572
58.550000 -2.237997
58.600000 -2.237997
58.650000 -2.275682
58.700000 -2.333922
58.750000 -2.388737
58.800000 -2.450403
58.850000 -2.536049
58.900000 -2.604567
58.950000 -2.638826
59.000000 -2.659381
59.050000 -2.679937
59.100000 -2.673085
59.150000 -2.625123
59.200000 -2.542901
59.250000 -2.457254
59.300000 -2.399013
59.350000 -2.354477
59.400000 -2.309941
59.450000 -2.272256
59.500000 -2.237997
59.550000 -2.200313
59.600000 -2.183183
59.650000 -2.200313
59.700000 -2.220868
59.750000 -2.227720
59.800000 -2.217442
59.850000 -2.200312
59.900000 -2.176331
59.950000 -2.166054
60.000000 -2.162627
60.050000 -2.172905
60.100000 -2.193460
60.150000 -2.196887
60.200000 -2.148923
60.250000 -2.087258
60.300000 -2.052999
60.350000 -2.018740
60.400000 -1.991332
60.450000 -1.981055
60.500000 -1.974203
60.550000 -1.977629
60.600000 -2.035869
60.650000 -2.118091
60.700000 -2.162627
60.750000 -2.193461
60.800000 -2.261978
60.850000 -2.337348
60.900000 -2.405866
60.950000 -2.464106
61.000000 -2.498365
61.050000 -2.505216
61.100000 -2.515494
61.150000 -2.518920
61.200000 -2.488087
61.250000 -2.440125
61.300000 -2.409291
61.350000 -2.368181
61.400000 -2.306515
61.450000 -2.261978
61.500000 -2.248275
61.550000 -2.224293
61.600000 -2.172905
61.650000 -2.121516
61.700000 -2.107813
61.750000 -2.107813
61.800000 -2.118091
61.850000 -2.169479
61.900000 -2.237997
61.950000 -2.296237
62.000000 -2.354478
62.050000 -2.440124
62.100000 -2.522346
62.150000 -2.566882
62.200000 -2.570309
62.250000 -2.532624
62.300000 -2.477809
62.350000 -2.416144
62.400000 -2.347625
62.450000 -2.292812
62.500000 -2.275682
62.550000 -2.268830
62.600000 -2.258552
62.650000 -2.323645
62.700000 -2.474384
62.750000 -2.638826
62.800000 -2.803269
62.850000 -2.988267
62.900000 -3.156136
62.950000 -3.255486
63.000000 -3.317152
63.050000 -3.330856
63.100000 -3.272616
63.150000 -3.176691
63.200000 -3.060211
63.250000 -2.906046
63.300000 -2.741603
63.350000 -2.607993
63.400000 -2.505217
63.450000 -2.429847
63.500000 -2.419569
63.550000 -2.457254
63.600000 -2.508642
63.650000 -2.584012
63.700000 -2.690214
63.750000 -2.769010
63.800000 -2.789566
63.850000 -2.792991
63.900000 -2.796417
63.950000 -2.762158
64.000000 -2.690214
64.050000 -2.597716
64.100000 -2.474383
64.150000 -2.347626
64.200000 -2.251701
64.250000 -2.179757
64.300000 -2.090684
64.350000 -2.005036
64.400000 -1.953648
64.450000 -1.919389
64.500000 -1.895408
64.550000 -1.922815
64.600000 -1.977630
64.650000 -2.011889
64.700000 -2.035870
64.750000 -2.087258
64.800000 -2.148924
64.850000 -2.186608
64.900000 -2.220868
64.950000 -2.289385
65.000000 -2.388736
65.050000 -2.470958
65.100000 -2.542901
65.150000 -2.611419
65.200000 -2.645678
65.250000 -2.655955
65.300000 -2.662807
65.350000 -2.635400
65.400000 -2.566883
65.450000 -2.501791
65.500000 -2.446977
65.550000 -2.351051
65.600000 -2.237997
65.650000 -2.183183
65.700000 -2.166053
65.750000 -2.138646
65.800000 -2.124943
65.850000 -2.135220
65.900000 -2.148924
65.950000 -2.176331
66.000000 -2.231145
66.050000 -2.275682
66.100000 -2.285960
66.150000 -2.296237
66.200000 -2.296237
66.250000 -2.279108
66.300000 -2.255126
66.350000 -2.224293
66.400000 -2.190035
66.450000 -2.179757
66.500000 -2.190034
66.550000 -2.176330
66.600000 -2.138646
66.650000 -2.104387
66.700000 -2.066703
66.750000 -2.008462
66.800000 -1.939944
66.850000 -1.881704
66.900000 -1.823464
66.950000 -1.772076
67.000000 -1.754946
67.050000 -1.758373
67.100000 -1.744669
67.150000 -1.737817
67.200000 -1.778927
67.250000 -1.840594
67.300000 -1.881704
67.350000 -1.898834
67.400000 -1.891982
67.450000 -1.868001
67.500000 -1.840594
67.550000 -1.802909
67.600000 -1.713836
67.650000 -1.621337
67.700000 -1.576801
67.750000 -1.545968
67.800000 -1.494579
67.850000 -1.480875
67.900000 -1.532264
67.950000 -1.590504
68.000000 -1.676151
68.050000 -1.830316
68.100000 -2.032443
68.150000 -2.207164
68.200000 -2.357903
68.250000 -2.484661
68.300000 -2.560030
68.350000 -2.573734
68.400000 -2.542901
68.450000 -2.477810
68.500000 -2.385311
68.550000 -2.292811
68.600000 -2.214016
68.650000 -2.159201
68.700000 -2.155776
68.750000 -2.217442
68.800000 -2.330496
68.850000 -2.474383
68.900000 -2.638826
68.950000 -2.816973
69.000000 -2.998544
69.050000 -3.135580
69.100000 -3.200672
69.150000 -3.180116
69.200000 -3.084192
69.250000 -2.923175
69.300000 -2.683362
69.350000 -2.395588
69.400000 -2.083832
69.450000 -1.782354
69.500000 -1.504857
69.550000 -1.268470
69.600000 -1.093749
69.650000 -0.980695
69.700000 -0.936159
69.750000 -0.956715
69.800000 -1.032084
69.850000 -1.151990
69.900000 -1.292452
69.950000 -1.443190
70.000000 -1.607634
70.050000 -1.765224
70.100000 -1.898834
70.150000 -2.046147
70.200000 -2.200313
70.250000 -2.299664
70.300000 -2.371607
70.350000 -2.453828
70.400000 -2.508642
70.450000 -2.515494
70.500000 -2.539475
70.550000 -2.549753
70.600000 -2.494939
70.650000 -2.422995
70.700000 -2.395588
70.750000 -2.357904
70.800000 -2.296237
70.850000 -2.248274
70.900000 -2.224293
70.950000 -2.196887
71.000000 -2.169479
71.050000 -2.148924
71.100000 -2.128369
71.150000 -2.100961
71.200000 -2.056425
71.250000 -1.987907
71.300000 -1.919390
71.350000 -1.854297
71.400000 -1.761798
71.450000 -1.662447
71.500000 -1.583652
71.550000 -1.508283
71.600000 -1.426061
71.650000 -1.371246
71.700000 -1.347266
71.750000 -1.343839
71.800000 -1.371247
71.850000 -1.415783
71.900000 -1.453468
71.950000 -1.525412
72.000000 -1.662448
72.050000 -1.830316
72.100000 -1.981055
72.150000 -2.111239
72.200000 -2.210590
72.250000 -2.279107
72.300000 -2.313367
72.350000 -2.327070
72.400000 -2.309941
72.450000 -2.234572
72.500000 -2.118091
72.550000 -1.994759
72.600000 -1.891982
72.650000 -1.796057
72.700000 -1.717261
72.750000 -1.652170
72.800000 -1.621336
72.850000 -1.631615
72.900000 -1.679577
72.950000 -1.741243
73.000000 -1.816612
73.050000 -1.909112
73.100000 -1.987908
73.150000 -2.042721
73.200000 -2.073555
73.250000 -2.080406
73.300000 -2.083832
73.350000 -2.100961
73.400000 -2.124943
73.450000 -2.148924
73.500000 -2.183183
73.550000 -2.224293
73.600000 -2.272255
73.650000 -2.313366
73.700000 -2.344200
73.750000 -2.399014
73.800000 -2.494939
73.850000 -2.587437
73.900000 -2.625123
73.950000 -2.645678
74.000000 -2.652529
74.050000 -2.618270
74.100000 -2.539475
74.150000 -2.481235
74.200000 -2.422995
74.250000 -2.351052
74.300000 -2.282534
74.350000 -2.241423
74.400000 -2.183183
74.450000 -2.121516
74.500000 -2.083832
74.550000 -2.042721
74.600000 -1.967351
74.650000 -1.874852
74.700000 -1.809761
74.750000 -1.772076
74.800000 -1.737817
74.850000 -1.696707
74.900000 -1.693281
74.950000 -1.748095
75.000000 -1.806334
75.050000 -1.871427
75.100000 -1.984481
75.150000 -2.138646
75.200000 -2.272256
75.250000 -2.381885
75.300000 -2.501790
75.350000 -2.611419
75.400000 -2.683362
75.450000 -2.731325
75.500000 -2.769010
75.550000 -2.755306
75.600000 -2.707344
75.650000 -2.659382
75.700000 -2.587438
75.750000 -2.467531
75.800000 -2.327070
75.850000 -2.190035
75.900000 -2.049573
75.950000 -1.919389
76.000000 -1.789205
76.050000 -1.679577
76.100000 -1.583652
76.150000 -1.501431
76.200000 -1.426061
76.250000 -1.384950
76.300000 -1.381525
76.350000 -1.371247
76.400000 -1.354118
76.450000 -1.347266
76.500000 -1.347265
76.550000 -1.343840
76.600000 -1.388376
76.650000 -1.446617
76.700000 -1.467172
76.750000 -1.508282
76.800000 -1.624763
76.850000 -1.761798
76.900000 -1.861149
76.950000 -1.967352
77.000000 -2.080406
77.050000 -2.152350
77.100000 -2.203739
77.150000 -2.231145
77.200000 -2.210590
77.250000 -2.152350
77.300000 -2.090684
77.350000 -2.032444
77.400000 -1.963925
77.450000 -1.902260
77.500000 -1.837168
77.550000 -1.785779
77.600000 -1.772076
77.650000 -1.785779
77.700000 -1.813187
77.750000 -1.874853
77.800000 -1.974203
77.850000 -2.083832
77.900000 -2.183183
77.950000 -2.244849
78.000000 -2.237997
78.050000 -2.214015
78.100000 -2.190035
78.150000 -2.118091
78.200000 -1.987907
78.250000 -1.878278
78.300000 -1.802909
78.350000 -1.710410
78.400000 -1.611059
78.450000 -1.559671
78.500000 -1.573375
78.550000 -1.621337
78.600000 -1.693280
78.650000 -1.772076
78.700000 -1.878279
78.750000 -2.008463
78.800000 -2.111239
78.850000 -2.169479
78.900000 -2.234571
78.950000 -2.320218
79.000000 -2.392162
79.050000 -2.426421
79.100000 -2.453828
79.150000 -2.481235
79.200000 -2.518920
79.250000 -2.553179
79.300000 -2.566882
79.350000 -2.546327
79.400000 -2.474383
79.450000 -2.375032
79.500000 -2.261978
79.550000 -2.162628
79.600000 -2.052999
79.650000 -1.933093
79.700000 -1.830316
79.750000 -1.772076
79.800000 -1.730966
79.850000 -1.724114
79.900000 -1.772077
79.950000 -1.840594
80.000000 -1.888557
80.050000 -1.953648
80.100000 -2.035870
80.150000 -2.090684
80.200000 -2.111239
80.250000 -2.128368
80.300000 -2.135220
80.350000 -2.135220
80.400000 -2.142072
80.450000 -2.128368
80.500000 -2.097535
80.550000 -2.073554
80.600000 -2.059851
80.650000 -2.049573
80.700000 -2.049573
80.750000 -2.063277
80.800000 -2.046147
80.850000 -2.011888
80.900000 -1.974204
80.950000 -1.922815
81.000000 -1.895408
81.050000 -1.905685
81.100000 -1.909112
81.150000 -1.909112
81.200000 -1.946797
81.250000 -2.011889
81.300000 -2.070128
81.350000 -2.135220
81.400000 -2.193461
81.450000 -2.207164
81.500000 -2.224294
81.550000 -2.255126
81.600000 -2.231146
81.650000 -2.169479
81.700000 -2.142072
81.750000 -2.104388
81.800000 -2.005036
81.850000 -1.891982
81.900000 -1.796057
81.950000 -1.665873
82.000000 -1.501430
82.050000 -1.357543
82.100000 -1.241064
82.150000 -1.134861
82.200000 -1.069769
82.250000 -1.056065
82.300000 -1.073195
82.350000 -1.110879
82.400000 -1.182823
82.450000 -1.278747
82.500000 -1.405505
82.550000 -1.559671
82.600000 -1.693281
82.650000 -1.830316
82.700000 -1.987907
82.750000 -2.121517
82.800000 -2.169479
82.850000 -2.190034
82.900000 -2.251701
82.950000 -2.282534
83.000000 -2.251700
83.050000 -2.203738
83.100000 -2.166053
83.150000 -2.094110
83.200000 -2.015315
83.250000 -1.960500
83.300000 -1.902260
83.350000 -1.850872
83.400000 -1.850871
83.450000 -1.888557
83.500000 -1.929667
83.550000 -1.987907
83.600000 -2.049573
83.650000 -2.094110
83.700000 -2.145498
83.750000 -2.200312
83.800000 -2.237997
83.850000 -2.241423
83.900000 -2.231145
83.950000 -2.210590
84.000000 -2.193460
84.050000 -2.183183
84.100000 -2.145498
84.150000 -2.104387
84.200000 -2.070128
84.250000 -2.039295
84.300000 -2.005036
84.350000 -1.977629
84.400000 -1.929667
84.450000 -1.861149
84.500000 -1.816612
84.550000 -1.792631
84.600000 -1.765225
84.650000 -1.734391
84.700000 -1.741243
84.750000 -1.782353
84.800000 -1.847445
84.850000 -1.919390
84.900000 -1.987907
84.950000 -2.063277
85.000000 -2.135221
85.050000 -2.145498
85.100000 -2.090684
85.150000 -2.015314
85.200000 -1.936518
85.250000 -1.820038
85.300000 -1.710410
85.350000 -1.628189
85.400000 -1.556245
85.450000 -1.501431
85.500000 -1.521986
85.550000 -1.600782
85.600000 -1.703558
85.650000 -1.840594
85.700000 -2.001611
85.750000 -2.128368
85.800000 -2.244848
85.850000 -2.357904
85.900000 -2.399013
85.950000 -2.351051
86.000000 -2.251700
86.050000 -2.131795
86.100000 -1.984482
86.150000 -1.816612
86.200000 -1.648744
86.250000 -1.491153
86.300000 -1.378098
86.350000 -1.306155
86.400000 -1.241063
86.450000 -1.206804
86.500000 -1.237637
86.550000 -1.295878
86.600000 -1.343839
86.650000 -1.398654
86.700000 -1.450043
86.750000 -1.463746
86.800000 -1.446616
86.850000 -1.412358
86.900000 -1.343840
86.950000 -1.261618
87.000000 -1.175971
87.050000 -1.086898
87.100000 -1.011529
87.150000 -0.966992
87.200000 -0.946436
87.250000 -0.980695
87.300000 -1.086898
87.350000 -1.213656
87.400000 -1.340414
87.450000 -1.494578
87.500000 -1.669299
87.550000 -1.785779
87.600000 -1.868001
87.650000 -1.939944
87.700000 -1.977629
87.750000 -1.967352
87.800000 -1.939944
87.850000 -1.909112
87.900000 -1.847446
87.950000 -1.778928
88.000000 -1.734391
88.050000 -1.689855
88.100000 -1.648743
88.150000 -1.645318
88.200000 -1.679577
88.250000 -1.724113
88.300000 -1.765225
88.350000 -1.802908
88.400000 -1.840594
88.450000 -1.881704
88.500000 -1.909111
88.550000 -1.902260
88.600000 -1.885131
88.650000 -1.909111
88.700000 -1.970778
88.750000 -2.042721
88.800000 -2.114665
88.850000 -2.193460
88.900000 -2.261978
88.950000 -2.296237
89.000000 -2.299663
89.050000 -2.306515
89.100000 -2.306515
89.150000 -2.268830
89.200000 -2.183183
89.250000 -2.080406
89.300000 -1.970778
89.350000 -1.850872
89.400000 -1.730965
89.450000 -1.655596
89.500000 -1.648744
89.550000 -1.693280
89.600000 -1.761799
89.650000 -1.861149
89.700000 -2.008463
89.750000 -2.176331
89.800000 -2.330496
89.850000 -2.470958
89.900000 -2.577160
89.950000 -2.621697
90.000000 -2.621697
90.050000 -2.590864
90.100000 -2.525772
90.150000 -2.416143
90.200000 -2.296237
90.250000 -2.193461
90.300000 -2.107813
90.350000 -2.008462
90.400000 -1.909112
90.450000 -1.854297
90.500000 -1.820038
90.550000 -1.768650
90.600000 -1.724114
90.650000 -1.720688
90.700000 -1.706984
90.750000 -1.631615
90.800000 -1.556245
90.850000 -1.532263
90.900000 -1.508283
90.950000 -1.439765
91.000000 -1.384950
91.050000 -1.374672
91.100000 -1.398654
91.150000 -1.450042
91.200000 -1.532263
91.250000 -1.655596
91.300000 -1.820039
91.350000 -1.991332
91.400000 -2.142072
91.450000 -2.279108
91.500000 -2.402440
91.550000 -2.494939
91.600000 -2.563457
91.650000 -2.597715
91.700000 -2.587438
91.750000 -2.515494
91.800000 -2.409291
91.850000 -2.299663
91.900000 -2.179757
91.950000 -2.039296
92.000000 -1.871427
92.050000 -1.679577
92.100000 -1.480876
92.150000 -1.309581
92.200000 -1.158842
92.250000 -1.035510
92.300000 -0.966992
92.350000 -0.963566
92.400000 -1.011528
92.450000 -1.107453
92.500000 -1.251340
92.550000 -1.432913
92.600000 -1.631614
92.650000 -1.816612
92.700000 -1.987907
92.750000 -2.124943
92.800000 -2.207164
92.850000 -2.220868
92.900000 -2.200313
92.950000 -2.155775
93.000000 -2.070128
93.050000 -1.957074
93.100000 -1.861149
93.150000 -1.796057
93.200000 -1.778927
93.250000 -1.806335
93.300000 -1.878278
93.350000 -1.970778
93.400000 -2.083832
93.450000 -2.210590
93.500000 -2.323644
93.550000 -2.385311
93.600000 -2.412718
93.650000 -2.436699
93.700000 -2.433273
93.750000 -2.357904
93.800000 -2.255127
93.850000 -2.159202
93.900000 -2.052999
93.950000 -1.919389
94.000000 -1.799483
94.050000 -1.720687
94.100000 -1.679577
94.150000 -1.679577
94.200000 -1.710410
94.250000 -1.741243
94.300000 -1.758372
94.350000 -1.778928
94.400000 -1.796058
94.450000 -1.806335
94.500000 -1.816612
94.550000 -1.826891
94.600000 -1.830316
94.650000 -1.840594
94.700000 -1.861149
94.750000 -1.861149
94.800000 -1.881704
94.850000 -1.946796
94.900000 -2.035870
94.950000 -2.094109
95.000000 -2.135221
95.050000 -2.183183
95.100000 -2.186609
95.150000 -2.121516
95.200000 -2.042722
95.250000 -1.957074
95.300000 -1.833742
95.350000 -1.672725
95.400000 -1.515135
95.450000 -1.367821
95.500000 -1.227359
95.550000 -1.117731
95.600000 -1.056065
95.650000 -1.045787
95.700000 -1.093750
95.750000 -1.186249
95.800000 -1.299304
95.850000 -1.456894
95.900000 -1.655595
95.950000 -1.864574
96.000000 -2.046147
96.050000 -2.210589
96.100000 -2.361329
96.150000 -2.446976
96.200000 -2.457254
96.250000 -2.429847
96.300000 -2.354477
96.350000 -2.231146
96.400000 -2.070128
96.450000 -1.885131
96.500000 -1.703558
96.550000 -1.556245
96.600000 -1.456894
96.650000 -1.391802
96.700000 -1.384950
96.750000 -1.460320
96.800000 -1.563096
96.850000 -1.676151
96.900000 -1.823464
96.950000 -2.005037
97.000000 -2.179757
97.050000 -2.299663
97.100000 -2.388736
97.150000 -2.460680
97.200000 -2.481235
97.250000 -2.450402
97.300000 -2.381884
97.350000 -2.279108
97.400000 -2.145498
97.450000 -2.039295
97.500000 -1.970778
97.550000 -1.874853
97.600000 -1.768651
97.650000 -1.720687
97.700000 -1.717262
97.750000 -1.693281
97.800000 -1.662448
97.850000 -1.662448
97.900000 -1.683003
97.950000 -1.693280
98.000000 -1.724113
98.050000 -1.778928
98.100000 -1.816613
98.150000 -1.857724
98.200000 -1.922815
98.250000 -1.970778
98.300000 -1.981055
98.350000 -1.953648
98.400000 -1.898834
98.450000 -1.826890
98.500000 -1.754946
98.550000 -1.665874
98.600000 -1.539115
98.650000 -1.415783
98.700000 -1.333562
98.750000 -1.289026
98.800000 -1.244489
98.850000 -1.220508
98.900000 -1.261618
98.950000 -1.347265
99.000000 -1.432913
99.050000 -1.508283
99.100000 -1.587078
99.150000 -1.662448
99.200000 -1.700132
99.250000 -1.706984
99.300000 -1.703558
99.350000 -1.689854
99.400000 -1.662447
99.450000 -1.621337
99.500000 -1.573374
99.550000 -1.539115
99.600000 -1.532263
99.650000 -1.545967
99.700000 -1.580226
99.750000 -1.631615
99.800000 -1.676151
99.850000 -1.703558
99.900000 -1.741243
99.950000 -1.789205
100.000000 -1.806335
100.050000 -1.802909
100.100000 -1.806335
100.150000 -1.792632
100.200000 -1.727539
100.250000 -1.665874
100.300000 -1.631615
100.350000 -1.607634
100.400000 -1.600781
100.450000 -1.641893
100.500000 -1.706984
100.550000 -1.792632
100.600000 -1.929667
100.650000 -2.104388
100.700000 -2.282534
100.750000 -2.450402
100.800000 -2.601141
100.850000 -2.707344
100.900000 -2.779287
100.950000 -2.823824
101.000000 -2.834102
101.050000 -2.816972
101.100000 -2.803269
101.150000 -2.786139
101.200000 -2.751880
101.250000 -2.707344
101.300000 -2.649104
101.350000 -2.573734
101.400000 -2.494939
101.450000 -2.395588
101.500000 -2.258552
101.550000 -2.090684
101.600000 -1.898834
101.650000 -1.703559
101.700000 -1.521986
101.750000 -1.371247
101.800000 -1.230785
101.850000 -1.128008
101.900000 -1.100601
101.950000 -1.121157
102.000000 -1.186249
102.050000 -1.306155
102.100000 -1.474023
102.150000 -1.614485
102.200000 -1.730965
102.250000 -1.847445
102.300000 -1.929667
102.350000 -1.939944
102.400000 -1.902260
102.450000 -1.840593
102.500000 -1.765224
102.550000 -1.686428
102.600000 -1.621337
102.650000 -1.573374
102.700000 -1.559670
102.750000 -1.569949
102.800000 -1.593930
102.850000 -1.659021
102.900000 -1.772076
102.950000 -1.909111
103.000000 -2.073554
103.050000 -2.248275
103.100000 -2.381884
103.150000 -2.450402
103.200000 -2.488087
103.250000 -2.494939
103.300000 -2.450402
103.350000 -2.368180
103.400000 -2.265404
103.450000 -2.169479
103.500000 -2.097536
103.550000 -2.059850
103.600000 -2.032443
103.650000 -2.039295
103.700000 -2.094110
103.750000 -2.172905
103.800000 -2.261978
103.850000 -2.364755
103.900000 -2.460680
103.950000 -2.518920
104.000000 -2.539476
104.050000 -2.532623
104.100000 -2.515494
104.150000 -2.505216
104.200000 -2.501790
104.250000 -2.484661
104.300000 -2.470958
104.350000 -2.481235
104.400000 -2.477810
104.450000 -2.446976
104.500000 -2.416144
104.550000 -2.381885
104.600000 -2.299663
104.650000 -2.203738
104.700000 -2.135220
104.750000 -2.073554
104.800000 -1.974203
104.850000 -1.885131
104.900000 -1.826890
104.950000 -1.778928
105.000000 -1.741243
105.050000 -1.748095
105.100000 -1.799483
105.150000 -1.830316
105.200000 -1.820038
105.250000 -1.792631
105.300000 -1.772075
105.350000 -1.748094
105.400000 -1.696707
105.450000 -1.614485
105.500000 -1.518560
105.550000 -1.446617
105.600000 -1.391802
105.650000 -1.340414
105.700000 -1.278748
105.750000 -1.241063
105.800000 -1.234211
105.850000 -1.210230
105.900000 -1.179397
105.950000 -1.158841
106.000000 -1.145138
106.050000 -1.128009
106.100000 -1.128009
106.150000 -1.158842
106.200000 -1.189675
106.250000 -1.227360
106.300000 -1.278748
106.350000 -1.319859
106.400000 -1.357543
106.450000 -1.419209
106.500000 -1.491153
106.550000 -1.532264
106.600000 -1.552819
106.650000 -1.597356
106.700000 -1.665873
106.750000 -1.727540
106.800000 -1.778927
106.850000 -1.847445
106.900000 -1.943370
106.950000 -2.035870
107.000000 -2.100961
107.050000 -2.148924
107.100000 -2.203738
107.150000 -2.227719
107.200000 -2.186609
107.250000 -2.124943
107.300000 -2.063276
107.350000 -1.974203
107.400000 -1.881704
107.450000 -1.833742
107.500000 -1.809761
107.550000 -1.782354
107.600000 -1.799483
107.650000 -1.861149
107.700000 -1.912537
107.750000 -1.963926
107.800000 -2.032443
107.850000 -2.083832
107.900000 -2.076980
107.950000 -2.042722
108.000000 -1.994759
108.050000 -1.912537
108.100000 -1.826890
108.150000 -1.761798
108.200000 -1.683003
108.250000 -1.617911
108.300000 -1.631614
108.350000 -1.713836
108.400000 -1.789205
108.450000 -1.878279
108.500000 -2.005036
108.550000 -2.142072
108.600000 -2.261979
108.650000 -2.385311
108.700000 -2.512068
108.750000 -2.635400
108.800000 -2.710770
108.850000 -2.714196
108.900000 -2.662808
108.950000 -2.570308
109.000000 -2.405866
109.050000 -2.186609
109.100000 -1.970777
109.150000 -1.737817
109.200000 -1.477450
109.250000 -1.251341
109.300000 -1.086898
109.350000 -0.963566
109.400000 -0.905326
109.450000 -0.946437
109.500000 -1.052640
109.550000 -1.165694
109.600000 -1.313006
109.650000 -1.515134
109.700000 -1.696706
109.750000 -1.830316
109.800000 -1.939945
109.850000 -2.029018
109.900000 -2.066702
109.950000 -2.063277
110.000000 -2.059851
110.050000 -2.063277
110.100000 -2.080406
110.150000 -2.104387
110.200000 -2.121516
110.250000 -2.138646
110.300000 -2.166053
110.350000 -2.172905
110.400000 -2.145498
110.450000 -2.118090
110.500000 -2.083831
110.550000 -1.991333
110.600000 -1.868001
110.650000 -1.785779
110.700000 -1.737817
110.750000 -1.686428
110.800000 -1.655595
110.850000 -1.679577
110.900000 -1.724114
110.950000 -1.778928
111.000000 -1.847446
111.050000 -1.922815
111.100000 -1.987906
111.150000 -2.042721
111.200000 -2.073555
111.250000 -2.052998
111.300000 -2.008462
111.350000 -1.957074
111.400000 -1.888556
111.450000 -1.809761
111.500000 -1.734391
111.550000 -1.672725
111.600000 -1.611059
111.650000 -1.569949
111.700000 -1.549393
111.750000 -1.508283
111.800000 -1.480875
111.850000 -1.528838
111.900000 -1.614485
111.950000 -1.683003
112.000000 -1.765225
112.050000 -1.905686
112.100000 -2.052998
112.150000 -2.193460
112.200000 -2.330496
112.250000 -2.460680
112.300000 -2.546327
112.350000 -2.584012
112.400000 -2.570308
112.450000 -2.477810
112.500000 -2.330496
112.550000 -2.159201
112.600000 -1.939944
112.650000 -1.686429
112.700000 -1.474024
112.750000 -1.333562
112.800000 -1.237637
112.850000 -1.199952
112.900000 -1.237637
112.950000 -1.354118
113.000000 -1.508282
113.050000 -1.689854
113.100000 -1.878278
113.150000 -2.052999
113.200000 -2.200312
113.250000 -2.306515
113.300000 -2.364755
113.350000 -2.392162
113.400000 -2.395588
113.450000 -2.378458
113.500000 -2.361329
113.550000 -2.364755
113.600000 -2.364755
113.650000 -2.337348
113.700000 -2.299663
113.750000 -2.244849
113.800000 -2.138647
113.850000 -2.035870
113.900000 -1.950222
113.950000 -1.830316
114.000000 -1.686428
114.050000 -1.597356
114.100000 -1.559671
114.150000 -1.539116
114.200000 -1.573374
114.250000 -1.676151
114.300000 -1.796058
114.350000 -1.909112
114.400000 -2.015314
114.450000 -2.080406
114.500000 -2.124942
114.550000 -2.190035
114.600000 -2.224293
114.650000 -2.200312
114.700000 -2.176331
114.750000 -2.172905
114.800000 -2.155776
114.850000 -2.159202
114.900000 -2.207164
114.950000 -2.244849
115.000000 -2.265404
115.050000 -2.306514
115.100000 -2.320218
115.150000 -2.265404
115.200000 -2.186609
115.250000 -2.107813
115.300000 -1.981055
115.350000 -1.806335
115.400000 -1.641892
115.450000 -1.498005
115.500000 -1.381524
115.550000 -1.316433
115.600000 -1.295877
115.650000 -1.323284
115.700000 -1.398654
115.750000 -1.521986
115.800000 -1.665874
115.850000 -1.826890
115.900000 -1.994758
115.950000 -2.135220
116.000000 -2.258552
116.050000 -2.364755
116.100000 -2.416143
116.150000 -2.399014
116.200000 -2.364755
116.250000 -2.323644
116.300000 -2.231145
116.350000 -2.097536
116.400000 -1.953648
116.450000 -1.809761
116.500000 -1.655596
116.550000 -1.518560
116.600000 -1.405505
116.650000 -1.313007
116.700000 -1.241063
116.750000 -1.151990
116.800000 -1.066342
116.850000 -1.049213
116.900000 -1.100602
116.950000 -1.162267
117.000000 -1.237637
117.050000 -1.350691
117.100000 -1.487727
117.150000 -1.648744
117.200000 -1.809761
117.250000 -1.926241
117.300000 -2.008463
117.350000 -2.080406
117.400000 -2.100962
117.450000 -2.022166
117.500000 -1.926241
117.550000 -1.830316
117.600000 -1.689854
117.650000 -1.552819
117.700000 -1.470598
117.750000 -1.405506
117.800000 -1.371247
117.850000 -1.402080
117.900000 -1.460320
117.950000 -1.494579
118.000000 -1.539116
118.050000 -1.583652
118.100000 -1.566523
118.150000 -1.511709
118.200000 -1.456894
118.250000 -1.381525
118.300000 -1.261619
118.350000 -1.158842
118.400000 -1.110880
118.450000 -1.104028
118.500000 -1.158842
118.550000 -1.302729
118.600000 -1.511709
118.650000 -1.778928
118.700000 -2.090684
118.750000 -2.392162
118.800000 -2.625122
118.850000 -2.813546
118.900000 -2.964286
118.950000 -3.036229
119.000000 -3.005397
119.050000 -2.871787
119.100000 -2.690215
119.150000 -2.481236
119.200000 -2.255127
119.250000 -1.998185
119.300000 -1.744669
119.350000 -1.525412
119.400000 -1.360969
119.450000 -1.230786
119.500000 -1.155416
119.550000 -1.134860
119.600000 -1.155416
119.650000 -1.199953
119.700000 -1.251340
119.750000 -1.323285
119.800000 -1.429486
119.850000 -1.563097
119.900000 -1.665873
119.950000 -1.748095
120.000000 -1.847446
120.050000 -1.936519
120.100000 -2.005036
120.150000 -2.066703
120.200000 -2.100962
120.250000 -2.097535
120.300000 -2.114665
120.350000 -2.142072
120.400000 -2.104388
120.450000 -2.039295
120.500000 -2.015314
120.550000 -1.974204
120.600000 -1.898834
120.650000 -1.861149
120.700000 -1.844019
120.750000 -1.796057
120.800000 -1.754946
120.850000 -1.778928
120.900000 -1.813187
120.950000 -1.850871
121.000000 -1.915964
121.050000 -1.977630
121.100000 -1.998185
121.150000 -1.998184
121.200000 -1.984481
121.250000 -1.936519
121.300000 -1.857723
121.350000 -1.782353
121.400000 -1.706984
121.450000 -1.635040
121.500000 -1.576800
121.550000 -1.539115
121.600000 -1.521986
121.650000 -1.525412
121.700000 -1.545968
121.750000 -1.556245
121.800000 -1.559671
121.850000 -1.569948
121.900000 -1.573375
121.950000 -1.556245
122.000000 -1.518560
122.050000 -1.474024
122.100000 -1.453468
122.150000 -1.463746
122.200000 -1.494578
122.250000 -1.556245
122.300000 -1.662448
122.350000 -1.813187
122.400000 -1.974203
122.450000 -2.111239
122.500000 -2.224293
122.550000 -2.320219
122.600000 -2.381884
122.650000 -2.412717
122.700000 -2.453828
122.750000 -2.481235
122.800000 -2.429847
122.850000 -2.344200
122.900000 -2.320218
122.950000 -2.309940
123.000000 -2.241423
123.050000 -2.162627
123.100000 -2.131794
123.150000 -2.070129
123.200000 -1.977629
123.250000 -1.939944
123.300000 -1.922815
123.350000 -1.861150
123.400000 -1.782353
123.450000 -1.758372
123.500000 -1.765224
123.550000 -1.751521
123.600000 -1.741243
123.650000 -1.768650
123.700000 -1.844020
123.750000 -1.915963
123.800000 -1.950222
123.850000 -1.991333
123.900000 -2.042721
123.950000 -2.059851
124.000000 -2.052999
124.050000 -2.063277
124.100000 -2.076980
124.150000 -2.049573
124.200000 -1.994759
124.250000 -1.953648
124.300000 -1.912538
124.350000 -1.861149
124.400000 -1.809761
124.450000 -1.785780
124.500000 -1.785779
124.550000 -1.782354
124.600000 -1.761798
124.650000 -1.768650
124.700000 -1.789205
124.750000 -1.789206
124.800000 -1.765224
124.850000 -1.751521
124.900000 -1.761798
124.950000 -1.748094
125.000000 -1.700132
125.050000 -1.659022
125.100000 -1.659021
125.150000 -1.669300
125.200000 -1.659022
125.250000 -1.659022
125.300000 -1.706984
125.350000 -1.775502
125.400000 -1.826890
125.450000 -1.854297
125.500000 -1.874853
125.550000 -1.871427
125.600000 -1.809761
125.650000 -1.713836
125.700000 -1.617911
125.750000 -1.501430
125.800000 -1.354118
125.850000 -1.213656
125.900000 -1.107453
125.950000 -1.042361
126.000000 -1.035510
126.050000 -1.128009
126.100000 -1.285600
126.150000 -1.450042
126.200000 -1.655596
126.250000 -1.905685
126.300000 -2.142072
126.350000 -2.323645
126.400000 -2.460679
126.450000 -2.577160
126.500000 -2.676511
126.550000 -2.731325
126.600000 -2.738177
126.650000 -2.727899
126.700000 -2.721048
126.750000 -2.703918
126.800000 -2.683363
126.850000 -2.697066
126.900000 -2.717622
126.950000 -2.714196
127.000000 -2.693641
127.050000 -2.645678
127.100000 -2.597715
127.150000 -2.546327
127.200000 -2.457254
127.250000 -2.340773
127.300000 -2.244849
127.350000 -2.159201
127.400000 -2.049573
127.450000 -1.946797
127.500000 -1.888556
127.550000 -1.861149
127.600000 -1.844020
127.650000 -1.837168
127.700000 -1.837168
127.750000 -1.861149
127.800000 -1.912538
127.850000 -1.981055
127.900000 -2.056425
127.950000 -2.138646
128.000000 -2.227719
128.050000 -2.320218
128.100000 -2.409292
128.150000 -2.484661
128.200000 -2.529197
128.250000 -2.539475
128.300000 -2.518920
128.350000 -2.488087
128.400000 -2.436698
128.450000 -2.330496
128.500000 -2.200312
128.550000 -2.111239
128.600000 -2.039295
128.650000 -1.943371
128.700000 -1.861149
128.750000 -1.823465
128.800000 -1.809761
128.850000 -1.796057
128.900000 -1.792632
128.950000 -1.809761
129.000000 -1.847445
129.050000 -1.898833
129.100000 -1.946796
129.150000 -1.994759
129.200000 -2.052999
129.250000 -2.131795
129.300000 -2.210589
129.350000 -2.285960
129.400000 -2.347626
129.450000 -2.409291
129.500000 -2.467531
129.550000 -2.525772
129.600000 -2.584012
129.650000 -2.659381
129.700000 -2.727899
129.750000 -2.755306
129.800000 -2.751881
129.850000 -2.758732
129.900000 -2.772435
129.950000 -2.751881
130.000000 -2.690214
130.050000 -2.631975
130.100000 -2.604567
130.150000 -2.563456
130.200000 -2.515494
130.250000 -2.464106
130.300000 -2.412717
130.350000 -2.347625
130.400000 -2.292811
130.450000 -2.258552
130.500000 -2.224294
130.550000 -2.207164
130.600000 -2.210589
130.650000 -2.220867
130.700000 -2.220868
130.750000 -2.220868
130.800000 -2.227720
130.850000 -2.258553
130.900000 -2.292811
130.950000 -2.296237
131.000000 -2.282534
131.050000 -2.275682
131.100000 -2.241423
131.150000 -2.159201
131.200000 -2.076981
131.250000 -1.991333
131.300000 -1.871427
131.350000 -1.751521
131.400000 -1.662447
131.450000 -1.583652
131.500000 -1.525412
131.550000 -1.494579
131.600000 -1.467171
131.650000 -1.463746
131.700000 -1.518560
131.750000 -1.611059
131.800000 -1.689855
131.850000 -1.778928
131.900000 -1.905686
131.950000 -2.029018
132.000000 -2.128368
132.050000 -2.207164
132.100000 -2.255126
132.150000 -2.210590
132.200000 -2.094109
132.250000 -1.970778
132.300000 -1.840594
132.350000 -1.686428
132.400000 -1.535689
132.450000 -1.422635
132.500000 -1.319858
132.550000 -1.217081
132.600000 -1.179397
132.650000 -1.220508
132.700000 -1.282174
132.750000 -1.360969
132.800000 -1.487727
132.850000 -1.659022
132.900000 -1.830316
132.950000 -2.008462
133.000000 -2.193461
133.050000 -2.388736
133.100000 -2.580586
133.150000 -2.738177
133.200000 -2.844379
133.250000 -2.919749
133.300000 -2.981415
133.350000 -3.019100
133.400000 -3.019100
133.450000 -2.988267
133.500000 -2.923175
133.550000 -2.823824
133.600000 -2.727899
133.650000 -2.645678
133.700000 -2.563456
133.750000 -2.518920
133.800000 -2.529198
133.850000 -2.549753
133.900000 -2.553179
133.950000 -2.590864
134.000000 -2.642252
134.050000 -2.635401
134.100000 -2.594290
134.150000 -2.573734
134.200000 -2.529198
134.250000 -2.429847
134.300000 -2.354478
134.350000 -2.292811
134.400000 -2.186608
134.450000 -2.083832
134.500000 -2.018740
134.550000 -1.967351
134.600000 -1.915963
134.650000 -1.891982
134.700000 -1.891982
134.750000 -1.902260
134.800000 -1.946796
134.850000 -2.022165
134.900000 -2.097536
134.950000 -2.193461
135.000000 -2.309941
135.050000 -2.402439
135.100000 -2.464106
135.150000 -2.556605
135.200000 -2.649103
135.250000 -2.697066
135.300000 -2.710770
135.350000 -2.697066
135.400000 -2.625122
135.450000 -2.488087
135.500000 -2.337348
135.550000 -2.210590
135.600000 -2.076980
135.650000 -1.936518
135.700000 -1.837167
135.750000 -1.799483
135.800000 -1.782353
135.850000 -1.768650
135.900000 -1.775502
135.950000 -1.820039
136.000000 -1.868001
136.050000 -1.902259
136.100000 -1.939944
136.150000 -1.957074
136.200000 -1.933093
136.250000 -1.881704
136.300000 -1.857723
136.350000 -1.837168
136.400000 -1.796057
136.450000 -1.744668
136.500000 -1.727539
136.550000 -1.730965
136.600000 -1.730965
136.650000 -1.720688
136.700000 -1.710409
136.750000 -1.696707
136.800000 -1.683003
136.850000 -1.672725
136.900000 -1.648744
136.950000 -1.628188
137.000000 -1.617911
137.050000 -1.607633
137.100000 -1.641893
137.150000 -1.765224
137.200000 -1.926241
137.250000 -2.070129
137.300000 -2.237997
137.350000 -2.440124
137.400000 -2.601142
137.450000 -2.714196
137.500000 -2.816973
137.550000 -2.854657
137.600000 -2.782713
137.650000 -2.655956
137.700000 -2.532624
137.750000 -2.364755
137.800000 -2.152350
137.850000 -1.970778
137.900000 -1.844019
137.950000 -1.754947
138.000000 -1.696707
138.050000 -1.706984
138.100000 -1.785780
138.150000 -1.888556
138.200000 -1.991333
138.250000 -2.111239
138.300000 -2.234571
138.350000 -2.313367
138.400000 -2.333922
138.450000 -2.313366
138.500000 -2.244849
138.550000 -2.121517
138.600000 -1.984481
138.650000 -1.878279
138.700000 -1.761799
138.750000 -1.641892
138.800000 -1.552819
138.850000 -1.508282
138.900000 -1.498004
138.950000 -1.569948
139.000000 -1.724114
139.050000 -1.861149
139.100000 -1.970778
139.150000 -2.118091
139.200000 -2.265404
139.250000 -2.340773
139.300000 -2.388736
139.350000 -2.440125
139.400000 -2.412718
139.450000 -2.309941
139.500000 -2.203738
139.550000 -2.076980
139.600000 -1.909111
139.650000 -1.751520
139.700000 -1.621337
139.750000 -1.474024
139.800000 -1.343840
139.850000 -1.289025
139.900000 -1.254766
139.950000 -1.206804
140.000000 -1.179397
140.050000 -1.206804
140.100000 -1.295878
140.150000 -1.402080
140.200000 -1.498005
140.250000 -1.617911
140.300000 -1.778927
140.350000 -1.957074
140.400000 -2.090683
140.450000 -2.227719
140.500000 -2.388736
140.550000 -2.508642
140.600000 -2.563456
140.650000 -2.601141
140.700000 -2.614845
140.750000 -2.536050
140.800000 -2.368181
140.850000 -2.190035
140.900000 -2.011889
140.950000 -1.820038
141.000000 -1.638466
141.050000 -1.528837
141.100000 -1.491153
141.150000 -1.494579
141.200000 -1.532264
141.250000 -1.645318
141.300000 -1.826890
141.350000 -2.049573
141.400000 -2.265404
141.450000 -2.440125
141.500000 -2.573734
141.550000 -2.655956
141.600000 -2.673085
141.650000 -2.625123
141.700000 -2.525772
141.750000 -2.375032
141.800000 -2.190035
141.850000 -2.008463
141.900000 -1.861149
141.950000 -1.734391
142.000000 -1.631614
142.050000 -1.549393
142.100000 -1.494578
142.150000 -1.480875
142.200000 -1.504857
142.250000 -1.535690
142.300000 -1.545967
142.350000 -1.545967
142.400000 -1.542541
142.450000 -1.556245
142.500000 -1.593930
142.550000 -1.652170
142.600000 -1.703559
142.650000 -1.744669
142.700000 -1.785780
142.750000 -1.823465
142.800000 -1.861149
142.850000 -1.885130
142.900000 -1.888556
142.950000 -1.881704
143.000000 -1.891982
143.050000 -1.905685
143.100000 -1.898833
143.150000 -1.878278
143.200000 -1.878279
143.250000 -1.909111
143.300000 -1.936519
143.350000 -1.929667
143.400000 -1.946797
143.450000 -2.015314
143.500000 -2.097535
143.550000 -2.142072
143.600000 -2.183183
143.650000 -2.237997
143.700000 -2.272256
143.750000 -2.265404
143.800000 -2.227719
143.850000 -2.176331
143.900000 -2.107813
143.950000 -2.049573
144.000000 -1.991333
144.050000 -1.936518
144.100000 -1.909111
144.150000 -1.926241
144.200000 -1.943370
144.250000 -1.939944
144.300000 -1.963925
144.350000 -2.032444
144.400000 -2.090683
144.450000 -2.100962
144.500000 -2.121517
144.550000 -2.138646
144.600000 -2.094110
144.650000 -2.008462
144.700000 -1.946796
144.750000 -1.881704
144.800000 -1.754947
144.850000 -1.638466
144.900000 -1.600782
144.950000 -1.576800
145.000000 -1.535690
145.050000 -1.525412
145.100000 -1.552819
145.150000 -1.580226
145.200000 -1.617911
145.250000 -1.683003
145.300000 -1.724114
145.350000 -1.717262
145.400000 -1.703558
145.450000 -1.686429
145.500000 -1.655595
145.550000 -1.590504
145.600000 -1.504856
145.650000 -1.422635
145.700000 -1.395228
145.750000 -1.398654
145.800000 -1.402079
145.850000 -1.432913
145.900000 -1.532264
145.950000 -1.652170
146.000000 -1.768650
146.050000 -1.905686
146.100000 -2.073555
146.150000 -2.220867
146.200000 -2.320219
146.250000 -2.378459
146.300000 -2.375032
146.350000 -2.299663
146.400000 -2.176331
146.450000 -2.018740
146.500000 -1.809761
146.550000 -1.573374
146.600000 -1.395228
146.650000 -1.282173
146.700000 -1.203378
146.750000 -1.172545
146.800000 -1.227359
146.850000 -1.367821
146.900000 -1.539116
146.950000 -1.717262
147.000000 -1.895408
147.050000 -2.100962
147.100000 -2.282533
147.150000 -2.385311
147.200000 -2.416144
147.250000 -2.412718
147.300000 -2.388736
147.350000 -2.333922
147.400000 -2.255126
147.450000 -2.193461
147.500000 -2.186609
147.550000 -2.234571
147.600000 -2.282533
147.650000 -2.333922
147.700000 -2.412718
147.750000 -2.477809
147.800000 -2.491513
147.850000 -2.467532
147.900000 -2.426421
147.950000 -2.361329
148.000000 -2.279107
148.050000 -2.210589
148.100000 -2.131794
148.150000 -2.042721
148.200000 -1.963926
148.250000 -1.929667
148.300000 -1.912537
148.350000 -1.915963
148.400000 -1.950222
148.450000 -2.001610
148.500000 -2.042721
148.550000 -2.052999
148.600000 -2.039295
148.650000 -2.008462
148.700000 -1.974204
148.750000 -1.939944
148.800000 -1.895408
148.850000 -1.830316
148.900000 -1.751520
148.950000 -1.676151
149.000000 -1.604208
149.050000 -1.532264
149.100000 -1.491153
149.150000 -1.474024
149.200000 -1.450042
149.250000 -1.443190
149.300000 -1.484301
149.350000 -1.532264
149.400000 -1.569949
149.450000 -1.635041
149.500000 -1.744669
149.550000 -1.861149
149.600000 -2.001611
149.650000 -2.176331
149.700000 -2.333921
149.750000 -2.446977
149.800000 -2.546327
149.850000 -2.631975
149.900000 -2.673085
149.950000 -2.655955
150.000000 -2.584012
150.050000 -2.488087
150.100000 -2.388736
150.150000 -2.268830
150.200000 -2.111239
150.250000 -1.963926
150.300000 -1.874852
150.350000 -1.802909
150.400000 -1.734392
150.450000 -1.700132
150.500000 -1.706984
150.550000 -1.717262
150.600000 -1.727539
150.650000 -1.744669
150.700000 -1.768650
150.750000 -1.796057
150.800000 -1.813187
150.850000 -1.802909
150.900000 -1.782354
150.950000 -1.792631
151.000000 -1.823464
151.050000 -1.861150
151.100000 -1.915964
151.150000 -1.984481
151.200000 -2.070128
151.250000 -2.183182
151.300000 -2.292811
151.350000 -2.333922
151.400000 -2.340774
151.450000 -2.351051
151.500000 -2.327070
151.550000 -2.227719
151.600000 -2.097535
151.650000 -1.977629
151.700000 -1.871426
151.750000 -1.758372
151.800000 -1.628189
151.850000 -1.511708
151.900000 -1.463746
151.950000 -1.477450
152.000000 -1.477449
152.050000 -1.484301
152.100000 -1.549393
152.150000 -1.624762
152.200000 -1.645318
152.250000 -1.638466
152.300000 -1.641892
152.350000 -1.628189
152.400000 -1.587078
152.450000 -1.576801
152.500000 -1.614485
152.550000 -1.645318
152.600000 -1.638466
152.650000 -1.662448
152.700000 -1.741243
152.750000 -1.796057
152.800000 -1.802909
152.850000 -1.830316
152.900000 -1.885130
152.950000 -1.891982
153.000000 -1.861149
153.050000 -1.844019
153.100000 -1.833742
153.150000 -1.785780
153.200000 -1.717262
153.250000 -1.696706
153.300000 -1.727539
153.350000 -1.754947
153.400000 -1.775502
153.450000 -1.830317
153.500000 -1.915964
153.550000 -1.977630
153.600000 -2.018740
153.650000 -2.073554
153.700000 -2.118091
153.750000 -2.124942
153.800000 -2.121517
153.850000 -2.121517
153.900000 -2.100961
153.950000 -2.056424
154.000000 -2.001611
154.050000 -1.943370
154.100000 -1.905686
154.150000 -1.891982
154.200000 -1.885131
154.250000 -1.888556
154.300000 -1.915963
154.350000 -1.933092
154.400000 -1.936519
154.450000 -1.953648
154.500000 -1.981055
154.550000 -1.998184
154.600000 -2.015314
154.650000 -2.039295
154.700000 -2.046147
154.750000 -2.032443
154.800000 -2.049573
154.850000 -2.080406
154.900000 -2.080406
154.950000 -2.049573
155.000000 -2.029017
155.050000 -2.029018
155.100000 -2.022166
155.150000 -1.991333
155.200000 -1.939944
155.250000 -1.915963
155.300000 -1.919389
155.350000 -1.936519
155.400000 -1.974203
155.450000 -2.052999
155.500000 -2.138646
155.550000 -2.179757
155.600000 -2.210590
155.650000 -2.282534
155.700000 -2.368181
155.750000 -2.405865
155.800000 -2.392162
155.850000 -2.357904
155.900000 -2.306514
155.950000 -2.237997
156.000000 -2.169479
156.050000 -2.100961
156.100000 -2.029018
156.150000 -1.946796
156.200000 -1.871427
156.250000 -1.847446
156.300000 -1.864574
156.350000 -1.888557
156.400000 -1.919389
156.450000 -1.981055
156.500000 -2.059851
156.550000 -2.131794
156.600000 -2.203738
156.650000 -2.248274
156.700000 -2.241423
156.750000 -2.217441
156.800000 -2.207164
156.850000 -2.200313
156.900000 -2.148924
156.950000 -2.080406
157.000000 -2.039295
157.050000 -2.029018
157.100000 -2.022166
157.150000 -2.022166
157.200000 -2.063276
157.250000 -2.128368
157.300000 -2.169479
157.350000 -2.183183
157.400000 -2.183183
157.450000 -2.183183
157.500000 -2.190035
157.550000 -2.169480
157.600000 -2.097536
157.650000 -1.998185
157.700000 -1.905686
157.750000 -1.816612
157.800000 -1.710410
157.850000 -1.617911
157.900000 -1.545967
157.950000 -1.494579
158.000000 -1.467172
158.050000 -1.470598
158.100000 -1.480876
158.150000 -1.511709
158.200000 -1.556245
158.250000 -1.593930
158.300000 -1.635041
158.350000 -1.683002
158.400000 -1.710410
158.450000 -1.686429
158.500000 -1.645318
158.550000 -1.583652
158.600000 -1.456894
158.650000 -1.313007
158.700000 -1.213656
158.750000 -1.172545
158.800000 -1.172545
158.850000 -1.223933
158.900000 -1.340413
158.950000 -1.504857
159.000000 -1.703559
159.050000 -1.915963
159.100000 -2.128368
159.150000 -2.313366
159.200000 -2.426421
159.250000 -2.460680
159.300000 -2.443551
159.350000 -2.392162
159.400000 -2.265404
159.450000 -2.076980
159.500000 -1.905685
159.550000 -1.754946
159.600000 -1.621336
159.650000 -1.545967
159.700000 -1.542541
159.750000 -1.545967
159.800000 -1.556245
159.850000 -1.641892
159.900000 -1.775501
159.950000 -1.878278
160.000000 -1.974204
160.050000 -2.083832
160.100000 -2.166054
160.150000 -2.183183
160.200000 -2.159202
160.250000 -2.138647
160.300000 -2.094109
160.350000 -2.005036
160.400000 -1.905686
160.450000 -1.806335
160.500000 -1.700132
160.550000 -1.604207
160.600000 -1.539116
160.650000 -1.518560
160.700000 -1.504857
160.750000 -1.501430
160.800000 -1.528838
160.850000 -1.569948
160.900000 -1.611059
160.950000 -1.645318
161.000000 -1.652170
161.050000 -1.607633
161.100000 -1.535689
161.150000 -1.450043
161.200000 -1.354117
161.250000 -1.247915
161.300000 -1.131435
161.350000 -1.035510
161.400000 -0.994399
161.450000 -1.028658
161.500000 -1.117731
161.550000 -1.241063
161.600000 -1.402080
161.650000 -1.590503
161.700000 -1.775502
161.750000 -1.936519
161.800000 -2.052999
161.850000 -2.131795
161.900000 -2.176331
161.950000 -2.155776
162.000000 -2.063276
162.050000 -1.936518
162.100000 -1.802909
162.150000 -1.638466
162.200000 -1.470597
162.250000 -1.354117
162.300000 -1.275322
162.350000 -1.217082
162.400000 -1.186249
162.450000 -1.193100
162.500000 -1.227359
162.550000 -1.261618
162.600000 -1.299303
162.650000 -1.343840
162.700000 -1.402080
162.750000 -1.470597
162.800000 -1.532264
162.850000 -1.587078
162.900000 -1.635040
162.950000 -1.700132
163.000000 -1.775502
163.050000 -1.854297
163.100000 -1.919389
163.150000 -1.967351
163.200000 -2.032444
163.250000 -2.107813
163.300000 -2.162628
163.350000 -2.172905
163.400000 -2.169479
163.450000 -2.172905
163.500000 -2.166054
163.550000 -2.148924
163.600000 -2.138646
163.650000 -2.145498
163.700000 -2.148924
163.750000 -2.176331
163.800000 -2.224293
163.850000 -2.285960
163.900000 -2.337348
163.950000 -2.368181
164.000000 -2.378459
164.050000 -2.378458
164.100000 -2.388736
164.150000 -2.385310
164.200000 -2.351051
164.250000 -2.316792
164.300000 -2.309941
164.350000 -2.299663
164.400000 -2.268830
164.450000 -2.251701
164.500000 -2.248274
164.550000 -2.220868
164.600000 -2.183183
164.650000 -2.142072
164.700000 -2.073554
164.750000 -1.967351
164.800000 -1.826891
164.850000 -1.659022
164.900000 -1.494579
164.950000 -1.357543
165.000000 -1.217082
165.050000 -1.083472
165.100000 -0.994399
165.150000 -0.966992
165.200000 -0.953288
165.250000 -0.980695
165.300000 -1.076621
165.350000 -1.230786
165.400000 -1.398654
165.450000 -1.587077
165.500000 -1.751520
165.550000 -1.888556
165.600000 -2.035870
165.650000 -2.172906
165.700000 -2.251700
165.750000 -2.303089
165.800000 -2.347625
165.850000 -2.351051
165.900000 -2.347625
165.950000 -2.388736
166.000000 -2.429847
166.050000 -2.446976
166.100000 -2.491512
166.150000 -2.542901
166.200000 -2.563457
166.250000 -2.594289
166.300000 -2.625123
166.350000 -2.607993
166.400000 -2.553179
166.450000 -2.508642
166.500000 -2.440125
166.550000 -2.340773
166.600000 -2.241423
166.650000 -2.148924
166.700000 -2.063277
166.750000 -2.015314
166.800000 -1.991333
166.850000 -1.977629
166.900000 -1.981055
166.950000 -1.998184
167.000000 -1.991333
167.050000 -1.994759
167.100000 -2.018740
167.150000 -2.022166
167.200000 -1.991333
167.250000 -1.963926
167.300000 -1.933093
167.350000 -1.874853
167.400000 -1.820039
167.450000 -1.785779
167.500000 -1.761799
167.550000 -1.706984
167.600000 -1.621337
167.650000 -1.525412
167.700000 -1.443190
167.750000 -1.367820
167.800000 -1.271896
167.850000 -1.182823
167.900000 -1.134860
167.950000 -1.093750
168.000000 -1.069768
168.050000 -1.093750
168.100000 -1.169119
168.150000 -1.258193
168.200000 -1.340414
168.250000 -1.453468
168.300000 -1.583652
168.350000 -1.717261
168.400000 -1.840594
168.450000 -1.919389
168.500000 -1.963926
168.550000 -2.008463
168.600000 -2.042721
168.650000 -2.022166
168.700000 -1.974204
168.750000 -1.926241
168.800000 -1.857723
168.850000 -1.785780
168.900000 -1.748095
168.950000 -1.734392
169.000000 -1.748095
169.050000 -1.802909
169.100000 -1.868000
169.150000 -1.939944
169.200000 -2.063277
169.250000 -2.227719
169.300000 -2.364755
169.350000 -2.464106
169.400000 -2.553178
169.450000 -2.590864
169.500000 -2.573734
169.550000 -2.525772
169.600000 -2.419569
169.650000 -2.258552
169.700000 -2.104387
169.750000 -1.981055
169.800000 -1.847445
169.850000 -1.683003
169.900000 -1.535689
169.950000 -1.446616
170.000000 -1.432913
170.050000 -1.467172
170.100000 -1.521986
170.150000 -1.607634
170.200000 -1.717261
170.250000 -1.806334
170.300000 -1.850871
170.350000 -1.878278
170.400000 -1.902260
170.450000 -1.898833
170.500000 -1.874853
170.550000 -1.854297
170.600000 -1.833742
170.650000 -1.792632
170.700000 -1.768650
170.750000 -1.785779
170.800000 -1.820039
170.850000 -1.833742
170.900000 -1.840594
170.950000 -1.844020
171.000000 -1.850872
171.050000 -1.874852
171.100000 -1.909111
171.150000 -1.909112
171.200000 -1.874853
171.250000 -1.854297
171.300000 -1.857724
171.350000 -1.864575
171.400000 -1.868000
171.450000 -1.871427
171.500000 -1.864575
171.550000 -1.861149
171.600000 -1.881704
171.650000 -1.891982
171.700000 -1.871427
171.750000 -1.874852
171.800000 -1.891982
171.850000 -1.891982
171.900000 -1.902260
171.950000 -1.974204
172.000000 -2.063276
172.050000 -2.118091
172.100000 -2.148924
172.150000 -2.186609
172.200000 -2.217441
172.250000 -2.196886
172.300000 -2.131795
172.350000 -2.066703
172.400000 -2.022166
172.450000 -1.991333
172.500000 -1.977629
172.550000 -1.987907
172.600000 -2.018740
172.650000 -2.046147
172.700000 -2.104387
172.750000 -2.176331
172.800000 -2.210590
172.850000 -2.224293
172.900000 -2.248275
172.950000 -2.220867
173.000000 -2.114665
173.050000 -1.994758
173.100000 -1.909112
173.150000 -1.796057
173.200000 -1.665874
173.250000 -1.573374
173.300000 -1.511708
173.350000 -1.463746
173.400000 -1.456895
173.450000 -1.491153
173.500000 -1.525412
173.550000 -1.590504
173.600000 -1.700132
173.650000 -1.806335
173.700000 -1.871427
173.750000 -1.939945
173.800000 -2.008462
173.850000 -2.046147
173.900000 -2.066702
173.950000 -2.083832
174.000000 -2.087257
174.050000 -2.066702
174.100000 -2.032443
174.150000 -1.987907
174.200000 -1.946796
174.250000 -1.933092
174.300000 -1.936518
174.350000 -1.939945
174.400000 -1.963926
174.450000 -2.011888
174.500000 -2.046147
174.550000 -2.070128
174.600000 -2.114665
174.650000 -2.172905
174.700000 -2.234571
174.750000 -2.285959
174.800000 -2.323644
174.850000 -2.351051
174.900000 -2.395588
174.950000 -2.460680
175.000000 -2.522346
175.050000 -2.577160
175.100000 -2.631974
175.150000 -2.673085
175.200000 -2.683363
175.250000 -2.676510
175.300000 -2.642252
175.350000 -2.570308
175.400000 -2.464106
175.450000 -2.364755
175.500000 -2.275682
175.550000 -2.179757
175.600000 -2.070128
175.650000 -1.987907
175.700000 -1.939944
175.750000 -1.915963
175.800000 -1.898833
175.850000 -1.919389
175.900000 -1.967352
175.950000 -1.987907
176.000000 -2.008463
176.050000 -2.070129
176.100000 -2.190034
176.150000 -2.306514
176.200000 -2.385310
176.250000 -2.440124
176.300000 -2.498365
176.350000 -2.525772
176.400000 -2.470957
176.450000 -2.371606
176.500000 -2.258552
176.550000 -2.100962
176.600000 -1.885130
176.650000 -1.669299
176.700000 -1.494579
176.750000 -1.326710
176.800000 -1.165693
176.850000 -1.069769
176.900000 -1.038935
176.950000 -1.028658
177.000000 -1.035510
177.050000 -1.107453
177.100000 -1.220507
177.150000 -1.319859
177.200000 -1.388376
177.250000 -1.450043
177.300000 -1.515134
177.350000 -1.587078
177.400000 -1.655596
177.450000 -1.710410
177.500000 -1.754946
177.550000 -1.796057
177.600000 -1.826890
177.650000 -1.850871
177.700000 -1.895408
177.750000 -1.950223
177.800000 -1.984482
177.850000 -2.001610
177.900000 -2.025591
177.950000 -2.035869
178.000000 -2.022166
178.050000 -2.015314
178.100000 -2.008463
178.150000 -1.998185
178.200000 -1.994759
178.250000 -1.981056
178.300000 -1.957074
178.350000 -1.943371
178.400000 -1.933092
178.450000 -1.878279
178.500000 -1.820039
178.550000 -1.789205
178.600000 -1.741243
178.650000 -1.672725
178.700000 -1.635040
178.750000 -1.621337
178.800000 -1.617911
178.850000 -1.662447
178.900000 -1.768650
178.950000 -1.864575
179.000000 -1.957074
179.050000 -2.080406
179.100000 -2.207164
179.150000 -2.272256
179.200000 -2.309941
179.250000 -2.313366
179.300000 -2.241423
179.350000 -2.118091
179.400000 -1.994759
179.450000 -1.871427
179.500000 -1.713836
179.550000 -1.590504
179.600000 -1.532264
179.650000 -1.515134
179.700000 -1.556244
179.750000 -1.686428
179.800000 -1.854297
179.850000 -2.018740
179.900000 -2.186608
179.950000 -2.388736
180.000000 -2.570309
180.050000 -2.700492
180.100000 -2.775862
180.150000 -2.813547
180.200000 -2.786139
180.250000 -2.686789
180.300000 -2.563456
180.350000 -2.443551
180.400000 -2.289385
180.450000 -2.124942
180.500000 -2.008462
180.550000 -1.939944
180.600000 -1.895408
180.650000 -1.874852
180.700000 -1.868001
180.750000 -1.844019
180.800000 -1.820038
180.850000 -1.826890
180.900000 -1.809760
180.950000 -1.748095
181.000000 -1.693280
181.050000 -1.648744
181.100000 -1.563097
181.150000 -1.470598
181.200000 -1.412357
181.250000 -1.371246
181.300000 -1.371247
181.350000 -1.405506
181.400000 -1.422635
181.450000 -1.463746
181.500000 -1.604207
181.550000 -1.751521
181.600000 -1.830316
181.650000 -1.905686
181.700000 -2.022166
181.750000 -2.094109
181.800000 -2.107814
181.850000 -2.121516
181.900000 -2.124943
181.950000 -2.073555
182.000000 -2.015314
182.050000 -1.984481
182.100000 -1.946796
182.150000 -1.881704
182.200000 -1.809761
182.250000 -1.802909
182.300000 -1.868001
182.350000 -1.939944
182.400000 -1.998185
182.450000 -2.087257
182.500000 -2.210590
182.550000 -2.296237
182.600000 -2.327070
182.650000 -2.344200
182.700000 -2.330496
182.750000 -2.251701
182.800000 -2.128368
182.850000 -1.998185
182.900000 -1.844019
182.950000 -1.679577
183.000000 -1.535689
183.050000 -1.415783
183.100000 -1.326710
183.150000 -1.282173
183.200000 -1.278748
183.250000 -1.319858
183.300000 -1.412357
183.350000 -1.521986
183.400000 -1.607633
183.450000 -1.689854
183.500000 -1.785780
183.550000 -1.830316
183.600000 -1.809760
183.650000 -1.782354
183.700000 -1.748095
183.750000 -1.669299
183.800000 -1.587077
183.850000 -1.552819
183.900000 -1.528838
183.950000 -1.494579
184.000000 -1.477449
184.050000 -1.501430
184.100000 -1.576800
184.150000 -1.696706
184.200000 -1.840593
184.250000 -1.987907
184.300000 -2.131795
184.350000 -2.265404
184.400000 -2.361329
184.450000 -2.436699
184.500000 -2.477809
184.550000 -2.467531
184.600000 -2.412718
184.650000 -2.316793
184.700000 -2.169479
184.750000 -2.001611
184.800000 -1.840593
184.850000 -1.696706
184.900000 -1.566523
184.950000 -1.467172
185.000000 -1.395228
185.050000 -1.350691
185.100000 -1.354117
185.150000 -1.378099
185.200000 -1.398654
185.250000 -1.412357
185.300000 -1.443191
185.350000 -1.456894
185.400000 -1.439764
185.450000 -1.443191
185.500000 -1.474023
185.550000 -1.498004
185.600000 -1.511709
185.650000 -1.563097
185.700000 -1.641893
185.750000 -1.706984
185.800000 -1.778928
185.850000 -1.864575
185.900000 -1.929667
185.950000 -1.967352
186.000000 -1.998184
186.050000 -1.994759
186.100000 -1.950222
186.150000 -1.902259
186.200000 -1.844020
186.250000 -1.758372
186.300000 -1.689855
186.350000 -1.662447
186.400000 -1.638466
186.450000 -1.590504
186.500000 -1.569948
186.550000 -1.600781
186.600000 -1.648744
186.650000 -1.710410
186.700000 -1.806335
186.750000 -1.912537
186.800000 -1.981055
186.850000 -2.039295
186.900000 -2.114664
186.950000 -2.179757
187.000000 -2.190034
187.050000 -2.131795
187.100000 -2.042721
187.150000 -1.960500
187.200000 -1.878278
187.250000 -1.806335
187.300000 -1.734391
187.350000 -1.665873
187.400000 -1.624763
187.450000 -1.624762
187.500000 -1.659021
187.550000 -1.724113
187.600000 -1.830316
187.650000 -1.946796
187.700000 -2.035869
187.750000 -2.076980
187.800000 -2.087258
187.850000 -2.046147
187.900000 -1.943370
187.950000 -1.823465
188.000000 -1.720687
188.050000 -1.638466
188.100000 -1.604208
188.150000 -1.665874
188.200000 -1.796057
188.250000 -1.933093
188.300000 -2.104388
188.350000 -2.340774
188.400000 -2.584012
188.450000 -2.769010
188.500000 -2.906045
188.550000 -2.977989
188.600000 -2.919749
188.650000 -2.748454
188.700000 -2.525772
188.750000 -2.251701
188.800000 -1.915963
188.850000 -1.566523
188.900000 -1.282174
