time[ns] Raw_signal[mV]
-11.100000 -0.248377
-11.050000 -0.241525
-11.000000 -0.193563
-10.950000 -0.162730
-10.900000 -0.179859
-10.850000 -0.186711
-10.800000 -0.176433
-10.750000 -0.200415
-10.700000 -0.224396
-10.650000 -0.190137
-10.600000 -0.128471
-10.550000 -0.070231
-10.500000 0.015417
-10.450000 0.114767
-10.400000 0.196989
-10.350000 0.272358
-10.300000 0.340876
-10.250000 0.358005
-10.200000 0.327172
-10.150000 0.268933
-10.100000 0.179859
-10.050000 0.049676
-10.000000 -0.080508
-9.950000 -0.196989
-9.900000 -0.323747
-9.850000 -0.440226
-9.800000 -0.488190
-9.750000 -0.481337
-9.700000 -0.477912
-9.650000 -0.450505
-9.600000 -0.358005
-9.550000 -0.251803
-9.500000 -0.186711
-9.450000 -0.125045
-9.400000 -0.032546
-9.350000 0.042823
-9.300000 0.080509
-9.250000 0.128471
-9.200000 0.179859
-9.150000 0.210693
-9.100000 0.231248
-9.050000 0.255229
-9.000000 0.286062
-8.950000 0.323746
-8.900000 0.354580
-8.850000 0.364857
-8.800000 0.368283
-8.750000 0.378561
-8.700000 0.385413
-8.650000 0.381987
-8.600000 0.378561
-8.550000 0.371709
-8.500000 0.347728
-8.450000 0.340876
-8.400000 0.347728
-8.350000 0.347728
-8.300000 0.323747
-8.250000 0.296339
-8.200000 0.282636
-8.150000 0.265507
-8.100000 0.244952
-8.050000 0.227822
-8.000000 0.224396
-7.950000 0.227821
-7.900000 0.214118
-7.850000 0.200414
-7.800000 0.203840
-7.750000 0.210692
-7.700000 0.196989
-7.650000 0.179860
-7.600000 0.186711
-7.550000 0.196989
-7.500000 0.214118
-7.450000 0.268933
-7.400000 0.340876
-7.350000 0.412820
-7.300000 0.477911
-7.250000 0.539578
-7.200000 0.601244
-7.150000 0.666336
-7.100000 0.686891
-7.050000 0.649206
-7.000000 0.597818
-6.950000 0.529300
-6.900000 0.405968
-6.850000 0.258654
-6.800000 0.149026
-6.750000 0.066804
-6.700000 -0.011990
-6.650000 -0.053101
-6.600000 -0.053101
-6.550000 -0.022268
-6.500000 0.029120
-6.450000 0.121619
-6.400000 0.224396
-6.350000 0.316895
-6.300000 0.409394
-6.250000 0.481337
-6.200000 0.505319
-6.150000 0.498467
-6.100000 0.488189
-6.050000 0.474486
-6.000000 0.450505
-5.950000 0.416245
-5.900000 0.412820
-5.850000 0.429949
-5.800000 0.429949
-5.750000 0.402542
-5.700000 0.378561
-5.650000 0.368283
-5.600000 0.334025
-5.550000 0.255229
-5.500000 0.179860
-5.450000 0.101064
-5.400000 0.035972
-5.350000 -0.008565
-5.300000 -0.063379
-5.250000 -0.128471
-5.200000 -0.125045
-5.150000 -0.053101
-5.100000 0.011991
-5.050000 0.080509
-5.000000 0.193563
-4.950000 0.296339
-4.900000 0.337450
-4.850000 0.364857
-4.800000 0.378561
-4.750000 0.330598
-4.700000 0.234674
-4.650000 0.152452
-4.600000 0.087360
-4.550000 0.025694
-4.500000 -0.015417
-4.450000 -0.053102
-4.400000 -0.073656
-4.350000 -0.046249
-4.300000 -0.008564
-4.250000 -0.015416
-4.200000 -0.015416
-4.150000 0.015416
-4.100000 0.025694
-4.050000 -0.011991
-4.000000 -0.042824
-3.950000 -0.063379
-3.900000 -0.090786
-3.850000 -0.118193
-3.800000 -0.104489
-3.750000 -0.066805
-3.700000 -0.011990
-3.650000 0.056527
-3.600000 0.138748
-3.550000 0.231248
-3.500000 0.327173
-3.450000 0.399117
-3.400000 0.450505
-3.350000 0.512171
-3.300000 0.590966
-3.250000 0.597818
-3.200000 0.522449
-3.150000 0.498467
-3.100000 0.573836
-3.050000 0.560133
-3.000000 0.429949
-2.950000 0.392265
-2.900000 0.419672
-2.850000 0.320321
-2.800000 0.159304
-2.750000 0.087360
-2.700000 -0.008565
-2.650000 -0.087360
-2.600000 0.035972
-2.550000 0.159304
-2.500000 0.073656
-2.450000 0.049675
-2.400000 0.241525
-2.350000 0.316895
-2.300000 0.251803
-2.250000 0.354579
-2.200000 0.491615
-2.150000 0.388839
-2.100000 0.340876
-2.050000 0.536152
-2.000000 0.608096
-1.950000 0.416246
-1.900000 0.299766
-1.850000 0.368283
-1.800000 0.467634
-1.750000 0.570411
-1.700000 0.601244
-1.650000 0.471060
-1.600000 0.381987
-1.550000 0.433375
-1.500000 0.375135
-1.450000 0.238099
-1.400000 0.313469
-1.350000 0.474486
-1.300000 0.443652
-1.250000 0.388838
-1.200000 0.405968
-1.150000 0.327172
-1.100000 0.303192
-1.050000 0.498467
-1.000000 0.501893
-0.950000 0.210692
-0.900000 0.149027
-0.850000 0.330598
-0.800000 0.262081
-0.750000 0.111342
-0.700000 0.190137
-0.650000 0.207267
-0.600000 0.029120
-0.550000 0.025694
-0.500000 0.155878
-0.450000 0.094212
-0.400000 -0.015416
-0.350000 0.059953
-0.300000 0.145600
-0.250000 0.107916
-0.200000 0.087360
-0.150000 0.097638
-0.100000 0.059953
-0.050000 0.015417
0.000000 -0.008564
0.050000 -0.022269
0.100000 -0.032546
0.150000 -0.083934
0.200000 -0.186711
0.250000 -0.186711
0.300000 -0.080508
0.350000 -0.083934
0.400000 -0.166156
0.450000 -0.073656
0.500000 0.142174
0.550000 0.258655
0.600000 0.313469
0.650000 0.433375
0.700000 0.505319
0.750000 0.477912
0.800000 0.498467
0.850000 0.614947
0.900000 0.748557
0.950000 0.940407
1.000000 1.289847
1.050000 1.796879
1.100000 2.478632
1.150000 3.431029
1.200000 4.695183
1.250000 6.240259
1.300000 8.042272
1.350000 10.090959
1.400000 12.376031
1.450000 14.781001
1.500000 17.179130
1.550000 19.587527
1.600000 22.095281
1.650000 24.585897
1.700000 26.912079
1.750000 29.166320
1.800000 31.399995
1.850000 33.452108
1.900000 35.274678
1.950000 37.015038
2.000000 38.686868
2.050000 40.112028
2.100000 41.263138
2.150000 42.167568
2.200000 42.801358
2.250000 43.116538
2.300000 43.044598
2.350000 42.547848
2.400000 41.687938
2.450000 40.547118
2.500000 39.094538
2.550000 37.333638
2.600000 35.380888
2.650000 33.256828
2.700000 30.961478
2.750000 28.625028
2.800000 26.315968
2.850000 23.976098
2.900000 21.687594
2.950000 19.632060
3.000000 17.826619
3.050000 16.189044
3.100000 14.784429
3.150000 13.705273
3.200000 12.900189
3.250000 12.324640
3.300000 12.030013
3.350000 12.006031
3.400000 12.160193
3.450000 12.471951
3.500000 12.948151
3.550000 13.533982
3.600000 14.178045
3.650000 14.842666
3.700000 15.500443
3.750000 16.106820
3.800000 16.648117
3.850000 17.120887
3.900000 17.490885
3.950000 17.706715
4.000000 17.761527
4.050000 17.682734
4.100000 17.460050
4.150000 17.076347
4.200000 16.531629
4.250000 15.870439
4.300000 15.113314
4.350000 14.280823
4.400000 13.417499
4.450000 12.578155
4.500000 11.745664
4.550000 10.916599
4.600000 10.114940
4.650000 9.385227
4.700000 8.700048
4.750000 8.025148
4.800000 7.384506
4.850000 6.815809
4.900000 6.319054
4.950000 5.883967
5.000000 5.500267
5.050000 5.167956
5.100000 4.883606
5.150000 4.695182
5.200000 4.647220
5.250000 4.712312
5.300000 4.873328
5.350000 5.099437
5.400000 5.394064
5.450000 5.743505
5.500000 6.123779
5.550000 6.517756
5.600000 6.901455
5.650000 7.264600
5.700000 7.576356
5.750000 7.802465
5.800000 7.936075
5.850000 7.997741
5.900000 7.984037
5.950000 7.870983
6.000000 7.668855
6.050000 7.411914
6.100000 7.103584
6.150000 6.713032
6.200000 6.250536
6.250000 5.774338
6.300000 5.277584
6.350000 4.753423
6.400000 4.249817
6.450000 3.790748
6.500000 3.335104
6.550000 2.886312
6.600000 2.499187
6.650000 2.173728
6.700000 1.875675
6.750000 1.663270
6.800000 1.577623
6.850000 1.563919
6.900000 1.587900
6.950000 1.683825
7.000000 1.834565
7.050000 1.975026
7.100000 2.115488
7.150000 2.286782
7.200000 2.475206
7.250000 2.629371
7.300000 2.759555
7.350000 2.855480
7.400000 2.903442
7.450000 2.917146
7.500000 2.917145
7.550000 2.920572
7.600000 2.920571
7.650000 2.896590
7.700000 2.852054
7.750000 2.817795
7.800000 2.797239
7.850000 2.738999
7.900000 2.643074
7.950000 2.540298
8.000000 2.420392
8.050000 2.269652
8.100000 2.112061
8.150000 1.937341
8.200000 1.728362
8.250000 1.533086
8.300000 1.382346
8.350000 1.255588
8.400000 1.111701
8.450000 0.995221
8.500000 0.930129
8.550000 0.895870
8.600000 0.882167
8.650000 0.875315
8.700000 0.875315
8.750000 0.889018
8.800000 0.906148
8.850000 0.906148
8.900000 0.875315
8.950000 0.837630
9.000000 0.810223
9.050000 0.762260
9.100000 0.676613
9.150000 0.577263
9.200000 0.495041
9.250000 0.426523
9.300000 0.371709
9.350000 0.340876
9.400000 0.334025
9.450000 0.351154
9.500000 0.381987
9.550000 0.426523
9.600000 0.471060
9.650000 0.543003
9.700000 0.645781
9.750000 0.728001
9.800000 0.775965
9.850000 0.789667
9.900000 0.782816
9.950000 0.758835
10.000000 0.704020
10.050000 0.608096
10.100000 0.498467
10.150000 0.419672
10.200000 0.340876
10.250000 0.248377
10.300000 0.186711
10.350000 0.162729
10.400000 0.149026
10.450000 0.152453
10.500000 0.179859
10.550000 0.200414
10.600000 0.193563
10.650000 0.166155
10.700000 0.114768
10.750000 0.042824
10.800000 -0.029120
10.850000 -0.080509
10.900000 -0.138749
10.950000 -0.190137
11.000000 -0.207267
11.050000 -0.193563
11.100000 -0.169581
11.150000 -0.104489
11.200000 0.001713
11.250000 0.107916
11.300000 0.203841
11.350000 0.310043
11.400000 0.416246
11.450000 0.484764
11.500000 0.529301
11.550000 0.560133
11.600000 0.570411
11.650000 0.556707
11.700000 0.539578
11.750000 0.553282
11.800000 0.590966
11.850000 0.649206
11.900000 0.714298
11.950000 0.748557
12.000000 0.751983
12.050000 0.748557
12.100000 0.721150
12.150000 0.608095
12.200000 0.423098
12.250000 0.210693
12.300000 -0.029120
12.350000 -0.296339
12.400000 -0.543003
12.450000 -0.758835
12.500000 -0.947259
12.550000 -1.080868
12.600000 -1.104849
12.650000 -1.053461
12.700000 -0.957536
12.750000 -0.820501
12.800000 -0.628651
12.850000 -0.412820
12.900000 -0.241525
12.950000 -0.173008
13.000000 -0.173007
13.050000 -0.200415
13.100000 -0.255228
13.150000 -0.358006
13.200000 -0.474486
13.250000 -0.573837
13.300000 -0.662910
13.350000 -0.710872
13.400000 -0.669761
13.450000 -0.546429
13.500000 -0.402542
13.550000 -0.244951
13.600000 -0.094212
13.650000 0.042824
13.700000 0.176433
13.750000 0.268932
13.800000 0.296340
13.850000 0.265507
13.900000 0.203840
13.950000 0.118194
14.000000 0.015417
14.050000 -0.073657
14.100000 -0.142175
14.150000 -0.193562
14.200000 -0.193563
14.250000 -0.138748
14.300000 -0.077082
14.350000 -0.035971
14.400000 0.001713
14.450000 0.039397
14.500000 0.018843
14.550000 -0.066805
14.600000 -0.162729
14.650000 -0.286062
14.700000 -0.453930
14.750000 -0.625224
14.800000 -0.775964
14.850000 -0.916425
14.900000 -1.036332
14.950000 -1.121979
15.000000 -1.169942
15.050000 -1.166516
15.100000 -1.094572
15.150000 -0.967813
15.200000 -0.820500
15.250000 -0.656057
15.300000 -0.501893
15.350000 -0.361431
15.400000 -0.217544
15.450000 -0.104489
15.500000 -0.049676
15.550000 -0.008565
15.600000 0.018843
15.650000 -0.022268
15.700000 -0.107916
15.750000 -0.179859
15.800000 -0.275784
15.850000 -0.426524
15.900000 -0.553281
15.950000 -0.645781
16.000000 -0.751983
16.050000 -0.878740
16.100000 -0.967814
16.150000 -1.012350
16.200000 -1.039758
16.250000 -1.043184
16.300000 -1.029480
16.350000 -1.008924
16.400000 -0.964388
16.450000 -0.885593
16.500000 -0.806797
16.550000 -0.738279
16.600000 -0.645780
16.650000 -0.549856
16.700000 -0.464208
16.750000 -0.368283
16.800000 -0.279210
16.850000 -0.238099
16.900000 -0.241526
16.950000 -0.255229
17.000000 -0.286062
17.050000 -0.364858
17.100000 -0.453930
17.150000 -0.525874
17.200000 -0.590966
17.250000 -0.652632
17.300000 -0.683465
17.350000 -0.700595
17.400000 -0.710872
17.450000 -0.704021
17.500000 -0.676613
17.550000 -0.659484
17.600000 -0.649206
17.650000 -0.645780
17.700000 -0.638928
17.750000 -0.635502
17.800000 -0.649206
17.850000 -0.676613
17.900000 -0.704021
17.950000 -0.738280
18.000000 -0.786242
18.050000 -0.806797
18.100000 -0.786242
18.150000 -0.769112
18.200000 -0.762260
18.250000 -0.728002
18.300000 -0.686891
18.350000 -0.669761
18.400000 -0.680040
18.450000 -0.700595
18.500000 -0.731428
18.550000 -0.772538
18.600000 -0.823927
18.650000 -0.865037
18.700000 -0.885592
18.750000 -0.906147
18.800000 -0.909573
18.850000 -0.875314
18.900000 -0.820501
18.950000 -0.762260
19.000000 -0.680040
19.050000 -0.553282
19.100000 -0.423098
19.150000 -0.310043
19.200000 -0.186711
19.250000 -0.066805
19.300000 0.018843
19.350000 0.070231
19.400000 0.080508
19.450000 0.035972
19.500000 -0.035972
19.550000 -0.101064
19.600000 -0.193563
19.650000 -0.354579
19.700000 -0.549855
19.750000 -0.731428
19.800000 -0.885593
19.850000 -1.015776
19.900000 -1.128831
19.950000 -1.207626
20.000000 -1.235033
20.050000 -1.224756
20.100000 -1.190497
20.150000 -1.121979
20.200000 -1.022628
20.250000 -0.919852
20.300000 -0.817075
20.350000 -0.704020
20.400000 -0.614947
20.450000 -0.597817
20.500000 -0.618373
20.550000 -0.625225
20.600000 -0.662909
20.650000 -0.738279
20.700000 -0.803371
20.750000 -0.844482
20.800000 -0.851333
20.850000 -0.827352
20.900000 -0.796520
20.950000 -0.758835
21.000000 -0.676613
21.050000 -0.546429
21.100000 -0.429949
21.150000 -0.361431
21.200000 -0.320321
21.250000 -0.306617
21.300000 -0.313469
21.350000 -0.354580
21.400000 -0.450504
21.450000 -0.597817
21.500000 -0.755409
21.550000 -0.919852
21.600000 -1.077442
21.650000 -1.187071
21.700000 -1.245311
21.750000 -1.282996
21.800000 -1.276144
21.850000 -1.238459
21.900000 -1.183645
21.950000 -1.108276
22.000000 -0.995221
22.050000 -0.902722
22.100000 -0.854760
22.150000 -0.806797
22.200000 -0.758834
22.250000 -0.751982
22.300000 -0.782816
22.350000 -0.834204
22.400000 -0.895871
22.450000 -0.971239
22.500000 -1.046609
22.550000 -1.097998
22.600000 -1.094572
22.650000 -1.043184
22.700000 -0.981517
22.750000 -0.906148
22.800000 -0.803371
22.850000 -0.707446
22.900000 -0.659484
22.950000 -0.628650
23.000000 -0.608095
23.050000 -0.632077
23.100000 -0.683465
23.150000 -0.755408
23.200000 -0.844482
23.250000 -0.940406
23.300000 -1.012350
23.350000 -1.074016
23.400000 -1.125404
23.450000 -1.163090
23.500000 -1.193923
23.550000 -1.252163
23.600000 -1.296699
23.650000 -1.327532
23.700000 -1.392625
23.750000 -1.471420
23.800000 -1.533086
23.850000 -1.574196
23.900000 -1.605029
23.950000 -1.584474
24.000000 -1.509104
24.050000 -1.402901
24.100000 -1.265867
24.150000 -1.080869
24.200000 -0.913000
24.250000 -0.775964
24.300000 -0.649206
24.350000 -0.549855
24.400000 -0.512170
24.450000 -0.498467
24.500000 -0.484764
24.550000 -0.501893
24.600000 -0.553281
24.650000 -0.587540
24.700000 -0.597817
24.750000 -0.632076
24.800000 -0.673187
24.850000 -0.717724
24.900000 -0.782816
24.950000 -0.868463
25.000000 -0.960962
25.050000 -1.070591
25.100000 -1.197349
25.150000 -1.324106
25.200000 -1.461142
25.250000 -1.577623
25.300000 -1.646140
25.350000 -1.646140
25.400000 -1.598178
25.450000 -1.515956
25.500000 -1.409754
25.550000 -1.265866
25.600000 -1.094572
25.650000 -0.947258
25.700000 -0.841056
25.750000 -0.758835
25.800000 -0.707446
25.850000 -0.731427
25.900000 -0.820500
25.950000 -0.916426
26.000000 -1.015777
26.050000 -1.142535
26.100000 -1.252163
26.150000 -1.317255
26.200000 -1.344662
26.250000 -1.327532
26.300000 -1.262440
26.350000 -1.142534
26.400000 -0.964388
26.450000 -0.751983
26.500000 -0.573836
26.550000 -0.426524
26.600000 -0.292913
26.650000 -0.220970
26.700000 -0.241525
26.750000 -0.306617
26.800000 -0.409394
26.850000 -0.587540
26.900000 -0.806797
26.950000 -1.012350
27.000000 -1.211052
27.050000 -1.396050
27.100000 -1.515956
27.150000 -1.591326
27.200000 -1.659844
27.250000 -1.707806
27.300000 -1.707806
27.350000 -1.718084
27.400000 -1.748917
27.450000 -1.772898
27.500000 -1.817435
27.550000 -1.885952
27.600000 -1.903082
27.650000 -1.875674
27.700000 -1.858546
27.750000 -1.820860
27.800000 -1.721510
27.850000 -1.615308
27.900000 -1.509104
27.950000 -1.372069
28.000000 -1.262441
28.050000 -1.228182
28.100000 -1.200774
28.150000 -1.190497
28.200000 -1.276144
28.250000 -1.413179
28.300000 -1.512530
28.350000 -1.608455
28.400000 -1.724935
28.450000 -1.800305
28.500000 -1.810583
28.550000 -1.803731
28.600000 -1.748917
28.650000 -1.632437
28.700000 -1.485123
28.750000 -1.320681
28.800000 -1.115127
28.850000 -0.919851
28.900000 -0.782816
28.950000 -0.680039
29.000000 -0.590966
29.050000 -0.543003
29.100000 -0.556707
29.150000 -0.621799
29.200000 -0.710872
29.250000 -0.817075
29.300000 -0.957536
29.350000 -1.097998
29.400000 -1.204200
29.450000 -1.289847
29.500000 -1.368643
29.550000 -1.423457
29.600000 -1.430309
29.650000 -1.409753
29.700000 -1.378921
29.750000 -1.320680
29.800000 -1.235033
29.850000 -1.142534
29.900000 -1.063739
29.950000 -0.995221
30.000000 -0.930129
30.050000 -0.899296
30.100000 -0.902722
30.150000 -0.906148
30.200000 -0.899296
30.250000 -0.912999
30.300000 -0.960962
30.350000 -1.008925
30.400000 -1.032905
30.450000 -1.070591
30.500000 -1.152812
30.550000 -1.221330
30.600000 -1.259015
30.650000 -1.296699
30.700000 -1.382346
30.750000 -1.498826
30.800000 -1.598178
30.850000 -1.680399
30.900000 -1.772898
30.950000 -1.896230
31.000000 -2.012710
31.050000 -2.077802
31.100000 -2.091506
31.150000 -2.067524
31.200000 -2.005859
31.250000 -1.896230
31.300000 -1.748917
31.350000 -1.567344
31.400000 -1.348087
31.450000 -1.115127
31.500000 -0.906148
31.550000 -0.741705
31.600000 -0.625225
31.650000 -0.536151
31.700000 -0.491615
31.750000 -0.491615
31.800000 -0.539578
31.850000 -0.608095
31.900000 -0.676614
31.950000 -0.755409
32.000000 -0.827352
32.050000 -0.875315
32.100000 -0.895870
32.150000 -0.895870
32.200000 -0.858185
32.250000 -0.793093
32.300000 -0.734853
32.350000 -0.683465
32.400000 -0.618373
32.450000 -0.584114
32.500000 -0.621799
32.550000 -0.707447
32.600000 -0.806797
32.650000 -0.926704
32.700000 -1.074017
32.750000 -1.214477
32.800000 -1.334384
32.850000 -1.426884
32.900000 -1.491975
32.950000 -1.522808
33.000000 -1.509105
33.050000 -1.433735
33.100000 -1.313828
33.150000 -1.187071
33.200000 -1.036332
33.250000 -0.875314
33.300000 -0.738279
33.350000 -0.635503
33.400000 -0.536152
33.450000 -0.436801
33.500000 -0.388838
33.550000 -0.381987
33.600000 -0.402542
33.650000 -0.457356
33.700000 -0.532726
33.750000 -0.635503
33.800000 -0.762261
33.850000 -0.895871
33.900000 -1.012351
33.950000 -1.104850
34.000000 -1.166515
34.050000 -1.200775
34.100000 -1.217904
34.150000 -1.211053
34.200000 -1.166516
34.250000 -1.101424
34.300000 -1.046609
34.350000 -0.998647
34.400000 -0.954110
34.450000 -0.933555
34.500000 -0.954110
34.550000 -1.015776
34.600000 -1.111701
34.650000 -1.231607
34.700000 -1.372069
34.750000 -1.512530
34.800000 -1.632436
34.850000 -1.711232
34.900000 -1.769472
34.950000 -1.800306
35.000000 -1.762621
35.050000 -1.663269
35.100000 -1.543364
35.150000 -1.402902
35.200000 -1.228182
35.250000 -1.063739
35.300000 -0.933555
35.350000 -0.820501
35.400000 -0.738279
35.450000 -0.724576
35.500000 -0.748557
35.550000 -0.793093
35.600000 -0.882167
35.650000 -0.988369
35.700000 -1.063739
35.750000 -1.125405
35.800000 -1.200774
35.850000 -1.231608
35.900000 -1.200775
35.950000 -1.149386
36.000000 -1.080869
36.050000 -0.981517
36.100000 -0.919852
36.150000 -0.909574
36.200000 -0.895870
36.250000 -0.895870
36.300000 -0.954110
36.350000 -1.032906
36.400000 -1.087720
36.450000 -1.132257
36.500000 -1.193923
36.550000 -1.228181
36.600000 -1.235033
36.650000 -1.214478
36.700000 -1.173367
36.750000 -1.111701
36.800000 -1.043183
36.850000 -0.971240
36.900000 -0.919852
36.950000 -0.895870
37.000000 -0.871889
37.050000 -0.834204
37.100000 -0.820501
37.150000 -0.823927
37.200000 -0.806797
37.250000 -0.772538
37.300000 -0.741705
37.350000 -0.721149
37.400000 -0.714298
37.450000 -0.717724
37.500000 -0.714298
37.550000 -0.710872
37.600000 -0.745131
37.650000 -0.813648
37.700000 -0.875315
37.750000 -0.923278
37.800000 -0.974666
37.850000 -1.032906
37.900000 -1.091146
37.950000 -1.163090
38.000000 -1.221330
38.050000 -1.238459
38.100000 -1.224755
38.150000 -1.221330
38.200000 -1.214478
38.250000 -1.166516
38.300000 -1.074017
38.350000 -1.005499
38.400000 -0.995221
38.450000 -1.002073
38.500000 -0.998647
38.550000 -1.029480
38.600000 -1.111701
38.650000 -1.197349
38.700000 -1.276144
38.750000 -1.368643
38.800000 -1.444012
38.850000 -1.471420
38.900000 -1.505679
38.950000 -1.560493
39.000000 -1.563919
39.050000 -1.498827
39.100000 -1.447439
39.150000 -1.420031
39.200000 -1.344662
39.250000 -1.241885
39.300000 -1.152812
39.350000 -1.067165
39.400000 -0.964388
39.450000 -0.875315
39.500000 -0.793094
39.550000 -0.700594
39.600000 -0.625225
39.650000 -0.580688
39.700000 -0.549855
39.750000 -0.529300
39.800000 -0.560133
39.850000 -0.638928
39.900000 -0.745131
39.950000 -0.871889
40.000000 -1.005499
40.050000 -1.139108
40.100000 -1.286422
40.150000 -1.416605
40.200000 -1.502253
40.250000 -1.550216
40.300000 -1.574197
40.350000 -1.533086
40.400000 -1.444013
40.450000 -1.361791
40.500000 -1.279570
40.550000 -1.139108
40.600000 -0.984944
40.650000 -0.899296
40.700000 -0.875314
40.750000 -0.865038
40.800000 -0.868463
40.850000 -0.899296
40.900000 -0.960962
40.950000 -1.022628
41.000000 -1.053461
41.050000 -1.074016
41.100000 -1.118553
41.150000 -1.142535
41.200000 -1.111702
41.250000 -1.070591
41.300000 -1.067165
41.350000 -1.043183
41.400000 -0.984943
41.450000 -0.971239
41.500000 -1.015777
41.550000 -1.060313
41.600000 -1.097998
41.650000 -1.142534
41.700000 -1.180219
41.750000 -1.190497
41.800000 -1.204200
41.850000 -1.231607
41.900000 -1.252163
41.950000 -1.259015
42.000000 -1.282996
42.050000 -1.313829
42.100000 -1.341236
42.150000 -1.385772
42.200000 -1.444013
42.250000 -1.474846
42.300000 -1.478271
42.350000 -1.471420
42.400000 -1.423457
42.450000 -1.317254
42.500000 -1.190497
42.550000 -1.077443
42.600000 -0.971240
42.650000 -0.871889
42.700000 -0.782816
42.750000 -0.710872
42.800000 -0.686891
42.850000 -0.714298
42.900000 -0.758834
42.950000 -0.813649
43.000000 -0.868464
43.050000 -0.913000
43.100000 -0.971240
43.150000 -1.053461
43.200000 -1.094571
43.250000 -1.087720
43.300000 -1.101424
43.350000 -1.135682
43.400000 -1.118553
43.450000 -1.074017
43.500000 -1.050035
43.550000 -1.026054
43.600000 -0.971239
43.650000 -0.919852
43.700000 -0.878741
43.750000 -0.858186
43.800000 -0.851333
43.850000 -0.861612
43.900000 -0.892444
43.950000 -0.981517
44.000000 -1.084295
44.050000 -1.169941
44.100000 -1.255588
44.150000 -1.337810
44.200000 -1.378920
44.250000 -1.378920
44.300000 -1.358365
44.350000 -1.293274
44.400000 -1.187071
44.450000 -1.074016
44.500000 -0.978091
44.550000 -0.895871
44.600000 -0.844481
44.650000 -0.823926
44.700000 -0.834204
44.750000 -0.858185
44.800000 -0.899297
44.850000 -0.950684
44.900000 -0.995221
44.950000 -1.022629
45.000000 -1.026054
45.050000 -1.012351
45.100000 -1.005498
45.150000 -1.002073
45.200000 -1.015776
45.250000 -1.039758
45.300000 -1.070591
45.350000 -1.111701
45.400000 -1.156238
45.450000 -1.207626
45.500000 -1.272718
45.550000 -1.341235
45.600000 -1.382346
45.650000 -1.361792
45.700000 -1.330958
45.750000 -1.313829
45.800000 -1.293274
45.850000 -1.265866
45.900000 -1.259015
45.950000 -1.272718
46.000000 -1.286421
46.050000 -1.300125
46.100000 -1.330958
46.150000 -1.341236
46.200000 -1.348088
46.250000 -1.351513
46.300000 -1.358365
46.350000 -1.341236
46.400000 -1.306977
46.450000 -1.265866
46.500000 -1.238459
46.550000 -1.259014
46.600000 -1.289847
46.650000 -1.310403
46.700000 -1.327532
46.750000 -1.344662
46.800000 -1.358365
46.850000 -1.378921
46.900000 -1.399476
46.950000 -1.385772
47.000000 -1.330958
47.050000 -1.262441
47.100000 -1.193923
47.150000 -1.125405
47.200000 -1.046609
47.250000 -0.964388
47.300000 -0.936981
47.350000 -0.978091
47.400000 -1.026054
47.450000 -1.060313
47.500000 -1.142534
47.550000 -1.272718
47.600000 -1.358365
47.650000 -1.402902
47.700000 -1.447439
47.750000 -1.478271
47.800000 -1.437160
47.850000 -1.365217
47.900000 -1.289848
47.950000 -1.200775
48.000000 -1.091145
48.050000 -1.012351
48.100000 -0.974666
48.150000 -0.967814
48.200000 -0.988369
48.250000 -1.060313
48.300000 -1.169941
48.350000 -1.282995
48.400000 -1.396050
48.450000 -1.512530
48.500000 -1.598177
48.550000 -1.629010
48.600000 -1.611881
48.650000 -1.584474
48.700000 -1.539938
48.750000 -1.457716
48.800000 -1.358365
48.850000 -1.289848
48.900000 -1.252163
48.950000 -1.200775
49.000000 -1.152812
49.050000 -1.149386
49.100000 -1.176794
49.150000 -1.197349
49.200000 -1.224755
49.250000 -1.276144
49.300000 -1.334384
49.350000 -1.385772
49.400000 -1.447438
49.450000 -1.495401
49.500000 -1.509105
49.550000 -1.526233
49.600000 -1.557067
49.650000 -1.546789
49.700000 -1.502253
49.750000 -1.444013
49.800000 -1.361791
49.850000 -1.231607
49.900000 -1.077443
49.950000 -0.933555
50.000000 -0.789668
50.050000 -0.659484
50.100000 -0.556708
50.150000 -0.481338
50.200000 -0.443653
50.250000 -0.447079
50.300000 -0.457356
50.350000 -0.474486
50.400000 -0.508744
50.450000 -0.553281
50.500000 -0.570411
50.550000 -0.584114
50.600000 -0.618373
50.650000 -0.645780
50.700000 -0.686891
50.750000 -0.755408
50.800000 -0.827352
50.850000 -0.892444
50.900000 -1.002072
50.950000 -1.132257
51.000000 -1.235033
51.050000 -1.317254
51.100000 -1.406328
51.150000 -1.474846
51.200000 -1.498827
51.250000 -1.491975
51.300000 -1.467994
51.350000 -1.423457
51.400000 -1.382346
51.450000 -1.341236
51.500000 -1.313829
51.550000 -1.310403
51.600000 -1.324107
51.650000 -1.341236
51.700000 -1.365217
51.750000 -1.382346
51.800000 -1.375494
51.850000 -1.344662
51.900000 -1.296699
51.950000 -1.228182
52.000000 -1.145960
52.050000 -1.046610
52.100000 -0.940407
52.150000 -0.847907
52.200000 -0.789668
52.250000 -0.745131
52.300000 -0.721150
52.350000 -0.734854
52.400000 -0.782816
52.450000 -0.841056
52.500000 -0.916425
52.550000 -0.988369
52.600000 -1.036332
52.650000 -1.087720
52.700000 -1.173367
52.750000 -1.276144
52.800000 -1.330958
52.850000 -1.348088
52.900000 -1.396051
52.950000 -1.478272
53.000000 -1.546789
53.050000 -1.594752
53.100000 -1.663269
53.150000 -1.724936
53.200000 -1.728361
53.250000 -1.680399
53.300000 -1.622159
53.350000 -1.529660
53.400000 -1.382346
53.450000 -1.211052
53.500000 -1.067164
53.550000 -0.943832
53.600000 -0.827353
53.650000 -0.738279
53.700000 -0.704021
53.750000 -0.714298
53.800000 -0.751983
53.850000 -0.830779
53.900000 -0.967814
53.950000 -1.135682
54.000000 -1.282995
54.050000 -1.406328
54.100000 -1.522808
54.150000 -1.618733
54.200000 -1.649566
54.250000 -1.632437
54.300000 -1.611881
54.350000 -1.598178
54.400000 -1.539937
54.450000 -1.447439
54.500000 -1.375495
54.550000 -1.324107
54.600000 -1.248737
54.650000 -1.152812
54.700000 -1.097998
54.750000 -1.094572
54.800000 -1.084294
54.850000 -1.060313
54.900000 -1.046610
54.950000 -1.053461
55.000000 -1.043184
55.050000 -1.002072
55.100000 -0.971240
55.150000 -0.950684
55.200000 -0.906148
55.250000 -0.841056
55.300000 -0.786242
55.350000 -0.765686
55.400000 -0.762261
55.450000 -0.765686
55.500000 -0.793093
55.550000 -0.847907
55.600000 -0.889019
55.650000 -0.916426
55.700000 -0.981517
55.750000 -1.097998
55.800000 -1.193922
55.850000 -1.245311
55.900000 -1.279570
55.950000 -1.310403
56.000000 -1.279569
56.050000 -1.211052
56.100000 -1.145960
56.150000 -1.080869
56.200000 -0.998646
56.250000 -0.919851
56.300000 -0.858185
56.350000 -0.813648
56.400000 -0.796520
56.450000 -0.806797
56.500000 -0.847907
56.550000 -0.943833
56.600000 -1.056887
56.650000 -1.166516
56.700000 -1.293273
56.750000 -1.423457
56.800000 -1.485124
56.850000 -1.478271
56.900000 -1.464568
56.950000 -1.420031
57.000000 -1.330958
57.050000 -1.252162
57.100000 -1.197349
57.150000 -1.121979
57.200000 -1.036332
57.250000 -0.995221
57.300000 -0.984943
57.350000 -0.978092
57.400000 -0.984943
57.450000 -0.998646
57.500000 -1.008925
57.550000 -1.012350
57.600000 -0.978091
57.650000 -0.892444
57.700000 -0.796519
57.750000 -0.717724
57.800000 -0.642355
57.850000 -0.560133
57.900000 -0.501893
57.950000 -0.464208
58.000000 -0.440227
58.050000 -0.440227
58.100000 -0.457357
58.150000 -0.477911
58.200000 -0.515597
58.250000 -0.573837
58.300000 -0.638929
58.350000 -0.700594
58.400000 -0.758835
58.450000 -0.837630
58.500000 -0.919851
58.550000 -0.974666
58.600000 -1.005498
58.650000 -1.032906
58.700000 -1.039758
58.750000 -1.012351
58.800000 -0.954111
58.850000 -0.882167
58.900000 -0.803371
58.950000 -0.710872
59.000000 -0.594392
59.050000 -0.495041
59.100000 -0.423097
59.150000 -0.385413
59.200000 -0.381986
59.250000 -0.419671
59.300000 -0.495041
59.350000 -0.611521
59.400000 -0.762260
59.450000 -0.909574
59.500000 -1.063739
59.550000 -1.207626
59.600000 -1.306977
59.650000 -1.337810
59.700000 -1.341236
59.750000 -1.313829
59.800000 -1.235033
59.850000 -1.111701
59.900000 -0.978092
59.950000 -0.854759
60.000000 -0.738280
60.050000 -0.652632
60.100000 -0.611521
60.150000 -0.608095
60.200000 -0.614947
60.250000 -0.632077
60.300000 -0.686891
60.350000 -0.775964
60.400000 -0.875315
60.450000 -0.988369
60.500000 -1.097997
60.550000 -1.183645
60.600000 -1.255589
60.650000 -1.348088
60.700000 -1.437161
60.750000 -1.481697
60.800000 -1.505679
60.850000 -1.546790
60.900000 -1.587900
60.950000 -1.608456
61.000000 -1.601603
61.050000 -1.567345
61.100000 -1.509104
61.150000 -1.444013
61.200000 -1.361792
61.250000 -1.245311
61.300000 -1.139108
61.350000 -1.039757
61.400000 -0.916425
61.450000 -0.793093
61.500000 -0.697168
61.550000 -0.608095
61.600000 -0.495041
61.650000 -0.429949
61.700000 -0.429949
61.750000 -0.436801
61.800000 -0.419671
61.850000 -0.426523
61.900000 -0.460782
61.950000 -0.498467
62.000000 -0.525874
62.050000 -0.553281
62.100000 -0.590966
62.150000 -0.621799
62.200000 -0.638929
62.250000 -0.662910
62.300000 -0.728002
62.350000 -0.799945
62.400000 -0.844482
62.450000 -0.892444
62.500000 -0.964388
62.550000 -1.029480
62.600000 -1.080868
62.650000 -1.115127
62.700000 -1.135683
62.750000 -1.142534
62.800000 -1.139109
62.850000 -1.097998
62.900000 -1.019202
62.950000 -0.923278
63.000000 -0.823927
63.050000 -0.714298
63.100000 -0.611522
63.150000 -0.525874
63.200000 -0.460782
63.250000 -0.409394
63.300000 -0.371709
63.350000 -0.354579
63.400000 -0.378560
63.450000 -0.436801
63.500000 -0.512171
63.550000 -0.597818
63.600000 -0.697168
63.650000 -0.810223
63.700000 -0.933555
63.750000 -1.063738
63.800000 -1.173368
63.850000 -1.252163
63.900000 -1.341236
63.950000 -1.423458
64.000000 -1.461142
64.050000 -1.467994
64.100000 -1.467994
64.150000 -1.433735
64.200000 -1.365217
64.250000 -1.279570
64.300000 -1.176793
64.350000 -1.077442
64.400000 -1.005499
64.450000 -0.950684
64.500000 -0.899297
64.550000 -0.871889
64.600000 -0.871889
64.650000 -0.895870
64.700000 -0.940406
64.750000 -1.002073
64.800000 -1.074016
64.850000 -1.163090
64.900000 -1.262440
64.950000 -1.317255
65.000000 -1.337810
65.050000 -1.358366
65.100000 -1.337810
65.150000 -1.252162
65.200000 -1.163089
65.250000 -1.084294
65.300000 -0.967814
65.350000 -0.847907
65.400000 -0.789667
65.450000 -0.755409
65.500000 -0.710872
65.550000 -0.704021
65.600000 -0.758835
65.650000 -0.844482
65.700000 -0.960962
65.750000 -1.135682
65.800000 -1.293274
65.850000 -1.420031
65.900000 -1.563919
65.950000 -1.683825
66.000000 -1.680399
66.050000 -1.587900
66.100000 -1.481697
66.150000 -1.344662
66.200000 -1.125405
66.250000 -0.875315
66.300000 -0.656058
66.350000 -0.471059
66.400000 -0.306617
66.450000 -0.193563
66.500000 -0.155878
66.550000 -0.173008
66.600000 -0.210692
66.650000 -0.303191
66.700000 -0.484764
66.750000 -0.680039
66.800000 -0.803371
66.850000 -0.899296
66.900000 -1.012351
66.950000 -1.094572
67.000000 -1.111701
67.050000 -1.118553
67.100000 -1.111701
67.150000 -1.060313
67.200000 -0.995221
67.250000 -0.933555
67.300000 -0.868463
67.350000 -0.796520
67.400000 -0.721150
67.450000 -0.642354
67.500000 -0.594392
67.550000 -0.587540
67.600000 -0.594392
67.650000 -0.608095
67.700000 -0.659484
67.750000 -0.748557
67.800000 -0.854760
67.850000 -0.960963
67.900000 -1.080868
67.950000 -1.200775
68.000000 -1.300126
68.050000 -1.358366
68.100000 -1.382347
68.150000 -1.344662
68.200000 -1.255589
68.250000 -1.128831
68.300000 -0.978092
68.350000 -0.803371
68.400000 -0.621799
68.450000 -0.477911
68.500000 -0.405968
68.550000 -0.375135
68.600000 -0.368283
68.650000 -0.409393
68.700000 -0.512171
68.750000 -0.652632
68.800000 -0.789667
68.850000 -0.919852
68.900000 -1.022628
68.950000 -1.091146
69.000000 -1.111701
69.050000 -1.080869
69.100000 -1.002073
69.150000 -0.885593
69.200000 -0.748557
69.250000 -0.625225
69.300000 -0.556707
69.350000 -0.543003
69.400000 -0.570410
69.450000 -0.659484
69.500000 -0.813648
69.550000 -0.981518
69.600000 -1.125404
69.650000 -1.272718
69.700000 -1.409754
69.750000 -1.502252
69.800000 -1.543364
69.850000 -1.553641
69.900000 -1.522808
69.950000 -1.440586
70.000000 -1.337810
70.050000 -1.228181
70.100000 -1.128831
70.150000 -1.046609
70.200000 -0.967814
70.250000 -0.906148
70.300000 -0.892445
70.350000 -0.919852
70.400000 -0.940407
70.450000 -0.960963
70.500000 -1.005499
70.550000 -1.039758
70.600000 -1.067165
70.650000 -1.108275
70.700000 -1.156238
70.750000 -1.180219
70.800000 -1.204200
70.850000 -1.228182
70.900000 -1.214478
70.950000 -1.183645
71.000000 -1.176793
71.050000 -1.149386
71.100000 -1.094572
71.150000 -1.036331
71.200000 -0.998647
71.250000 -0.947259
71.300000 -0.882167
71.350000 -0.810223
71.400000 -0.721150
71.450000 -0.632076
71.500000 -0.566985
71.550000 -0.498467
71.600000 -0.416246
71.650000 -0.378560
71.700000 -0.409394
71.750000 -0.481337
71.800000 -0.560133
71.850000 -0.649206
71.900000 -0.772538
71.950000 -0.933555
72.000000 -1.101423
72.050000 -1.228181
72.100000 -1.337810
72.150000 -1.447438
72.200000 -1.509105
72.250000 -1.512531
72.300000 -1.485123
72.350000 -1.444013
72.400000 -1.354940
72.450000 -1.262440
72.500000 -1.197348
72.550000 -1.142534
72.600000 -1.084294
72.650000 -1.022629
72.700000 -0.954110
72.750000 -0.916425
72.800000 -0.902722
72.850000 -0.895870
72.900000 -0.889019
72.950000 -0.902721
73.000000 -0.919851
73.050000 -0.940407
73.100000 -0.974666
73.150000 -1.022628
73.200000 -1.060313
73.250000 -1.084294
73.300000 -1.104849
73.350000 -1.101424
73.400000 -1.094572
73.450000 -1.074017
73.500000 -1.026054
73.550000 -0.974666
73.600000 -0.909574
73.650000 -0.830779
73.700000 -0.775964
73.750000 -0.748557
73.800000 -0.704020
73.850000 -0.645781
73.900000 -0.638929
73.950000 -0.635503
74.000000 -0.601244
74.050000 -0.590966
74.100000 -0.604670
74.150000 -0.566985
74.200000 -0.498467
74.250000 -0.471060
74.300000 -0.460783
74.350000 -0.409394
74.400000 -0.371709
74.450000 -0.381987
74.500000 -0.429949
74.550000 -0.495041
74.600000 -0.590966
74.650000 -0.710872
74.700000 -0.844482
74.750000 -0.974666
74.800000 -1.080868
74.850000 -1.180219
74.900000 -1.276144
74.950000 -1.348087
75.000000 -1.365217
75.050000 -1.361791
75.100000 -1.358366
75.150000 -1.354939
75.200000 -1.354939
75.250000 -1.358365
75.300000 -1.344662
75.350000 -1.317255
75.400000 -1.282996
75.450000 -1.245311
75.500000 -1.173368
75.550000 -1.087720
75.600000 -1.002073
75.650000 -0.875315
75.700000 -0.728002
75.750000 -0.608095
75.800000 -0.522448
75.850000 -0.440227
75.900000 -0.358005
75.950000 -0.310043
76.000000 -0.313469
76.050000 -0.344302
76.100000 -0.378561
76.150000 -0.416246
76.200000 -0.491615
76.250000 -0.573837
76.300000 -0.638929
76.350000 -0.707446
76.400000 -0.806797
76.450000 -0.871889
76.500000 -0.919851
76.550000 -1.019202
76.600000 -1.104849
76.650000 -1.104850
76.700000 -1.097998
76.750000 -1.101424
76.800000 -1.015776
76.850000 -0.865037
76.900000 -0.755409
76.950000 -0.652632
77.000000 -0.501893
77.050000 -0.375135
77.100000 -0.310043
77.150000 -0.268932
77.200000 -0.275784
77.250000 -0.371709
77.300000 -0.515597
77.350000 -0.680039
77.400000 -0.895870
77.450000 -1.121979
77.500000 -1.293273
77.550000 -1.437161
77.600000 -1.560493
77.650000 -1.587900
77.700000 -1.515956
77.750000 -1.413180
77.800000 -1.272718
77.850000 -1.084294
77.900000 -0.889018
77.950000 -0.690317
78.000000 -0.477911
78.050000 -0.303191
78.100000 -0.214118
78.150000 -0.169581
78.200000 -0.173008
78.250000 -0.255228
78.300000 -0.381986
78.350000 -0.515596
78.400000 -0.652632
78.450000 -0.793093
78.500000 -0.923277
78.550000 -1.053461
78.600000 -1.163089
78.650000 -1.217904
78.700000 -1.235033
78.750000 -1.245311
78.800000 -1.238459
78.850000 -1.228181
78.900000 -1.214478
78.950000 -1.190497
79.000000 -1.142534
79.050000 -1.104850
79.100000 -1.084294
79.150000 -1.046609
79.200000 -1.019203
79.250000 -0.991795
79.300000 -0.954110
79.350000 -0.933555
79.400000 -0.933555
79.450000 -0.912999
79.500000 -0.889018
79.550000 -0.885592
79.600000 -0.878740
79.650000 -0.841056
79.700000 -0.796519
79.750000 -0.751983
79.800000 -0.666335
79.850000 -0.566985
79.900000 -0.491615
79.950000 -0.447078
80.000000 -0.419672
80.050000 -0.416246
80.100000 -0.450505
80.150000 -0.498467
80.200000 -0.587540
80.250000 -0.704020
80.300000 -0.817075
80.350000 -0.909574
80.400000 -1.005499
80.450000 -1.080869
80.500000 -1.135682
80.550000 -1.152812
80.600000 -1.118553
80.650000 -1.043184
80.700000 -0.981518
80.750000 -0.923278
80.800000 -0.847908
80.850000 -0.779390
80.900000 -0.762261
80.950000 -0.793094
81.000000 -0.841056
81.050000 -0.895870
81.100000 -0.954111
81.150000 -1.022628
81.200000 -1.074016
81.250000 -1.097998
81.300000 -1.097997
81.350000 -1.080868
81.400000 -1.022628
81.450000 -0.926704
81.500000 -0.830778
81.550000 -0.738279
81.600000 -0.621799
81.650000 -0.522448
81.700000 -0.484763
81.750000 -0.481338
81.800000 -0.477911
81.850000 -0.498467
81.900000 -0.549855
81.950000 -0.625224
82.000000 -0.714298
82.050000 -0.793093
82.100000 -0.837630
82.150000 -0.851334
82.200000 -0.834204
82.250000 -0.789668
82.300000 -0.734854
82.350000 -0.673188
82.400000 -0.584114
82.450000 -0.488189
82.500000 -0.419672
82.550000 -0.381987
82.600000 -0.358006
82.650000 -0.371709
82.700000 -0.409394
82.750000 -0.443653
82.800000 -0.505319
82.850000 -0.594392
82.900000 -0.669761
82.950000 -0.700594
83.000000 -0.717724
83.050000 -0.745131
83.100000 -0.772538
83.150000 -0.789668
83.200000 -0.799945
83.250000 -0.806797
83.300000 -0.844482
83.350000 -0.895870
83.400000 -0.936980
83.450000 -0.988369
83.500000 -1.046609
83.550000 -1.101424
83.600000 -1.139109
83.650000 -1.163090
83.700000 -1.166516
83.750000 -1.128831
83.800000 -1.050035
83.850000 -0.943833
83.900000 -0.834204
83.950000 -0.745131
84.000000 -0.656057
84.050000 -0.563559
84.100000 -0.529300
84.150000 -0.543003
84.200000 -0.560133
84.250000 -0.590966
84.300000 -0.676613
84.350000 -0.745131
84.400000 -0.779390
84.450000 -0.817075
84.500000 -0.861611
84.550000 -0.865037
84.600000 -0.858185
84.650000 -0.844482
84.700000 -0.799945
84.750000 -0.765686
84.800000 -0.775964
84.850000 -0.786242
84.900000 -0.806797
84.950000 -0.906148
85.000000 -1.036332
85.050000 -1.128830
85.100000 -1.235034
85.150000 -1.372069
85.200000 -1.457716
85.250000 -1.481697
85.300000 -1.485123
85.350000 -1.450864
85.400000 -1.341236
85.450000 -1.176793
85.500000 -0.984943
85.550000 -0.772538
85.600000 -0.566984
85.650000 -0.364858
85.700000 -0.207266
85.750000 -0.152452
85.800000 -0.173007
85.850000 -0.196988
85.900000 -0.265507
85.950000 -0.409394
86.000000 -0.556707
86.050000 -0.673187
86.100000 -0.803371
86.150000 -0.892444
86.200000 -0.895871
86.250000 -0.854759
86.300000 -0.786241
86.350000 -0.649206
86.400000 -0.488189
86.450000 -0.368284
86.500000 -0.272358
86.550000 -0.190137
86.600000 -0.179859
86.650000 -0.248377
86.700000 -0.344302
86.750000 -0.467634
86.800000 -0.604670
86.850000 -0.731428
86.900000 -0.847908
86.950000 -0.943833
87.000000 -0.998647
87.050000 -0.998646
87.100000 -0.984943
87.150000 -0.954110
87.200000 -0.906148
87.250000 -0.871889
87.300000 -0.865037
87.350000 -0.847908
87.400000 -0.837630
87.450000 -0.878741
87.500000 -0.950685
87.550000 -1.029480
87.600000 -1.104850
87.650000 -1.169942
87.700000 -1.224755
87.750000 -1.269292
87.800000 -1.300125
87.850000 -1.313829
87.900000 -1.320681
87.950000 -1.334384
88.000000 -1.327532
88.050000 -1.296699
88.100000 -1.259015
88.150000 -1.217903
88.200000 -1.176793
88.250000 -1.128831
88.300000 -1.070591
88.350000 -1.029480
88.400000 -1.019202
88.450000 -1.012350
88.500000 -0.998647
88.550000 -1.032906
88.600000 -1.125405
88.650000 -1.211052
88.700000 -1.282996
88.750000 -1.354940
88.800000 -1.416605
88.850000 -1.461142
88.900000 -1.485123
88.950000 -1.454290
89.000000 -1.365218
89.050000 -1.259014
89.100000 -1.159664
89.150000 -1.036332
89.200000 -0.878741
89.250000 -0.734854
89.300000 -0.635502
89.350000 -0.577263
89.400000 -0.536151
89.450000 -0.508744
89.500000 -0.512170
89.550000 -0.549855
89.600000 -0.601243
89.650000 -0.669761
89.700000 -0.772538
89.750000 -0.895870
89.800000 -0.984943
89.850000 -1.043183
89.900000 -1.115127
89.950000 -1.204200
90.000000 -1.238459
90.050000 -1.224756
90.100000 -1.238459
90.150000 -1.265867
90.200000 -1.235033
90.250000 -1.163089
90.300000 -1.111701
90.350000 -1.056888
90.400000 -0.991796
90.450000 -0.947258
90.500000 -0.933555
90.550000 -0.930129
90.600000 -0.957536
90.650000 -1.026054
90.700000 -1.115127
90.750000 -1.211052
90.800000 -1.306977
90.850000 -1.378920
90.900000 -1.406328
90.950000 -1.389198
91.000000 -1.320680
91.050000 -1.221330
91.100000 -1.097998
91.150000 -0.947259
91.200000 -0.769112
91.250000 -0.594391
91.300000 -0.460782
91.350000 -0.392265
91.400000 -0.395690
91.450000 -0.460783
91.500000 -0.566985
91.550000 -0.707446
91.600000 -0.844482
91.650000 -0.960962
91.700000 -1.056887
91.750000 -1.115128
91.800000 -1.111701
91.850000 -1.063739
91.900000 -0.984943
91.950000 -0.878740
92.000000 -0.762260
92.050000 -0.666335
92.100000 -0.594391
92.150000 -0.536152
92.200000 -0.471059
92.250000 -0.429949
92.300000 -0.429950
92.350000 -0.443653
92.400000 -0.433375
92.450000 -0.399116
92.500000 -0.378561
92.550000 -0.358006
92.600000 -0.323747
92.650000 -0.299765
92.700000 -0.289488
92.750000 -0.262080
92.800000 -0.241525
92.850000 -0.272359
92.900000 -0.351153
92.950000 -0.436801
93.000000 -0.525874
93.050000 -0.618373
93.100000 -0.714298
93.150000 -0.830778
93.200000 -0.933555
93.250000 -1.005498
93.300000 -1.067165
93.350000 -1.125405
93.400000 -1.163090
93.450000 -1.193922
93.500000 -1.228181
93.550000 -1.238459
93.600000 -1.235033
93.650000 -1.252163
93.700000 -1.272718
93.750000 -1.248737
93.800000 -1.231608
93.850000 -1.269292
93.900000 -1.310403
93.950000 -1.317255
94.000000 -1.330958
94.050000 -1.341236
94.100000 -1.306977
94.150000 -1.259014
94.200000 -1.200775
94.250000 -1.108276
94.300000 -0.988369
94.350000 -0.882167
94.400000 -0.775964
94.450000 -0.676613
94.500000 -0.604670
94.550000 -0.536152
94.600000 -0.495041
94.650000 -0.522448
94.700000 -0.590966
94.750000 -0.638928
94.800000 -0.721150
94.850000 -0.844482
94.900000 -0.943833
94.950000 -1.015776
95.000000 -1.101424
95.050000 -1.169941
95.100000 -1.187071
95.150000 -1.197349
95.200000 -1.190497
95.250000 -1.139109
95.300000 -1.118553
95.350000 -1.159664
95.400000 -1.190497
95.450000 -1.190497
95.500000 -1.231608
95.550000 -1.306977
95.600000 -1.365217
95.650000 -1.406327
95.700000 -1.433735
95.750000 -1.433735
95.800000 -1.420032
95.850000 -1.399476
95.900000 -1.354939
95.950000 -1.300125
96.000000 -1.241885
96.050000 -1.166515
96.100000 -1.101424
96.150000 -1.067165
96.200000 -1.050035
96.250000 -1.032906
96.300000 -1.029480
96.350000 -1.005498
96.400000 -0.919852
96.450000 -0.823926
96.500000 -0.765687
96.550000 -0.704020
96.600000 -0.618373
96.650000 -0.549855
96.700000 -0.543003
96.750000 -0.546430
96.800000 -0.529300
96.850000 -0.532726
96.900000 -0.577262
96.950000 -0.638929
97.000000 -0.683465
97.050000 -0.748557
97.100000 -0.837631
97.150000 -0.930129
97.200000 -1.002072
97.250000 -1.080868
97.300000 -1.166515
97.350000 -1.248737
97.400000 -1.313829
97.450000 -1.372069
97.500000 -1.420032
97.550000 -1.488550
97.600000 -1.557067
97.650000 -1.594752
97.700000 -1.598178
97.750000 -1.605030
97.800000 -1.611881
97.850000 -1.584474
97.900000 -1.519382
97.950000 -1.440586
98.000000 -1.344662
98.050000 -1.235034
98.100000 -1.125405
98.150000 -1.029480
98.200000 -0.940407
98.250000 -0.854760
98.300000 -0.796520
98.350000 -0.775964
98.400000 -0.769113
98.450000 -0.772538
98.500000 -0.789668
98.550000 -0.803371
98.600000 -0.782816
98.650000 -0.751983
98.700000 -0.741705
98.750000 -0.721150
98.800000 -0.680039
98.850000 -0.656058
98.900000 -0.666336
98.950000 -0.676613
99.000000 -0.704021
99.050000 -0.755408
99.100000 -0.813649
99.150000 -0.851334
99.200000 -0.871889
99.250000 -0.882167
99.300000 -0.868463
99.350000 -0.796519
99.400000 -0.669762
99.450000 -0.549855
99.500000 -0.426523
99.550000 -0.265507
99.600000 -0.118193
99.650000 -0.049675
99.700000 -0.008564
99.750000 0.025695
99.800000 0.005139
99.850000 -0.090786
99.900000 -0.207266
99.950000 -0.334024
100.000000 -0.474486
100.050000 -0.590966
100.100000 -0.673188
100.150000 -0.745131
100.200000 -0.772538
100.250000 -0.748557
100.300000 -0.717723
100.350000 -0.673187
100.400000 -0.601243
100.450000 -0.546430
100.500000 -0.536152
100.550000 -0.529300
100.600000 -0.525874
100.650000 -0.566985
100.700000 -0.652632
100.750000 -0.755408
100.800000 -0.858185
100.850000 -0.940407
100.900000 -1.008924
100.950000 -1.063739
101.000000 -1.091146
101.050000 -1.084294
101.100000 -1.060313
101.150000 -1.043184
101.200000 -1.026054
101.250000 -1.012350
101.300000 -1.002073
101.350000 -0.984943
101.400000 -0.947258
101.450000 -0.923278
101.500000 -0.936981
101.550000 -0.943833
101.600000 -0.923278
101.650000 -0.899296
101.700000 -0.885593
101.750000 -0.889018
101.800000 -0.878741
101.850000 -0.861612
101.900000 -0.861612
101.950000 -0.909573
102.000000 -0.957536
102.050000 -0.971240
102.100000 -1.005498
102.150000 -1.056887
102.200000 -1.063739
102.250000 -1.067165
102.300000 -1.094572
102.350000 -1.091146
102.400000 -1.053461
102.450000 -1.032906
102.500000 -1.005499
102.550000 -0.943833
102.600000 -0.889019
102.650000 -0.841056
102.700000 -0.782816
102.750000 -0.724575
102.800000 -0.669762
102.850000 -0.608096
102.900000 -0.556707
102.950000 -0.522449
103.000000 -0.488189
103.050000 -0.450504
103.100000 -0.436800
103.150000 -0.433375
103.200000 -0.426524
103.250000 -0.433375
103.300000 -0.460782
103.350000 -0.495041
103.400000 -0.536152
103.450000 -0.570411
103.500000 -0.587540
103.550000 -0.608096
103.600000 -0.625224
103.650000 -0.625225
103.700000 -0.628650
103.750000 -0.662909
103.800000 -0.680039
103.850000 -0.676614
103.900000 -0.693743
103.950000 -0.728002
104.000000 -0.717723
104.050000 -0.710872
104.100000 -0.745131
104.150000 -0.748557
104.200000 -0.686891
104.250000 -0.621799
104.300000 -0.563559
104.350000 -0.447079
104.400000 -0.316895
104.450000 -0.231247
104.500000 -0.166155
104.550000 -0.138749
104.600000 -0.179859
104.650000 -0.262080
104.700000 -0.354580
104.750000 -0.471060
104.800000 -0.608095
104.850000 -0.728002
104.900000 -0.810223
104.950000 -0.861611
105.000000 -0.868463
105.050000 -0.841056
105.100000 -0.786242
105.150000 -0.697168
105.200000 -0.584114
105.250000 -0.495041
105.300000 -0.416245
105.350000 -0.344302
105.400000 -0.310043
105.450000 -0.299766
105.500000 -0.313469
105.550000 -0.364858
105.600000 -0.433375
105.650000 -0.484763
105.700000 -0.546429
105.750000 -0.611521
105.800000 -0.597817
105.850000 -0.549856
105.900000 -0.519022
105.950000 -0.488189
106.000000 -0.423097
106.050000 -0.392264
106.100000 -0.405968
106.150000 -0.409394
106.200000 -0.429949
106.250000 -0.508745
106.300000 -0.597817
106.350000 -0.700595
106.400000 -0.837630
106.450000 -0.960962
106.500000 -1.026054
106.550000 -1.080868
106.600000 -1.118553
106.650000 -1.084294
106.700000 -1.012350
106.750000 -0.933555
106.800000 -0.806797
106.850000 -0.628651
106.900000 -0.464208
106.950000 -0.316895
107.000000 -0.176433
107.050000 -0.094211
107.100000 -0.070231
107.150000 -0.063379
107.200000 -0.077082
107.250000 -0.125045
107.300000 -0.176433
107.350000 -0.224396
107.400000 -0.299765
107.450000 -0.364857
107.500000 -0.381987
107.550000 -0.395690
107.600000 -0.433375
107.650000 -0.457356
107.700000 -0.460782
107.750000 -0.474486
107.800000 -0.498467
107.850000 -0.532726
107.900000 -0.587540
107.950000 -0.632076
108.000000 -0.656058
108.050000 -0.686891
108.100000 -0.717723
108.150000 -0.724575
108.200000 -0.741705
108.250000 -0.779390
108.300000 -0.817074
108.350000 -0.865037
108.400000 -0.940407
108.450000 -1.022628
108.500000 -1.094571
108.550000 -1.190497
108.600000 -1.310402
108.650000 -1.406328
108.700000 -1.467993
108.750000 -1.536511
108.800000 -1.581049
108.850000 -1.563919
108.900000 -1.529660
108.950000 -1.485123
109.000000 -1.409754
109.050000 -1.296700
109.100000 -1.180219
109.150000 -1.070591
109.200000 -0.950684
109.250000 -0.820501
109.300000 -0.717724
109.350000 -0.656058
109.400000 -0.601244
109.450000 -0.556707
109.500000 -0.556707
109.550000 -0.580689
109.600000 -0.614948
109.650000 -0.676613
109.700000 -0.775964
109.750000 -0.875315
109.800000 -0.950684
109.850000 -1.026054
109.900000 -1.125405
109.950000 -1.197349
110.000000 -1.190497
110.050000 -1.135683
110.100000 -1.084294
110.150000 -1.022628
110.200000 -0.902722
110.250000 -0.755409
110.300000 -0.649206
110.350000 -0.566984
110.400000 -0.453930
110.450000 -0.354580
110.500000 -0.320321
110.550000 -0.347728
110.600000 -0.392264
110.650000 -0.464208
110.700000 -0.573836
110.750000 -0.707446
110.800000 -0.827353
110.850000 -0.926703
110.900000 -1.032906
110.950000 -1.104850
111.000000 -1.139109
111.050000 -1.173367
111.100000 -1.217904
111.150000 -1.217904
111.200000 -1.193923
111.250000 -1.211052
111.300000 -1.252162
111.350000 -1.282996
111.400000 -1.310403
111.450000 -1.337810
111.500000 -1.365217
111.550000 -1.416605
111.600000 -1.450864
111.650000 -1.444013
111.700000 -1.423457
111.750000 -1.378920
111.800000 -1.310403
111.850000 -1.241885
111.900000 -1.176793
111.950000 -1.091146
112.000000 -1.002073
112.050000 -0.947259
112.100000 -0.923278
112.150000 -0.889019
112.200000 -0.858185
112.250000 -0.834205
112.300000 -0.844482
112.350000 -0.885593
112.400000 -0.930129
112.450000 -0.974666
112.500000 -1.022628
112.550000 -1.060313
112.600000 -1.091146
112.650000 -1.128831
112.700000 -1.156238
112.750000 -1.132256
112.800000 -1.084294
112.850000 -1.063739
112.900000 -1.032906
112.950000 -0.978092
113.000000 -0.923277
113.050000 -0.885592
113.100000 -0.854759
113.150000 -0.827352
113.200000 -0.810223
113.250000 -0.796519
113.300000 -0.782816
113.350000 -0.748557
113.400000 -0.700594
113.450000 -0.642355
113.500000 -0.580689
113.550000 -0.536152
113.600000 -0.508745
113.650000 -0.508745
113.700000 -0.539578
113.750000 -0.594392
113.800000 -0.649206
113.850000 -0.714298
113.900000 -0.762260
113.950000 -0.823926
114.000000 -0.902722
114.050000 -0.957536
114.100000 -0.967814
114.150000 -0.981517
114.200000 -1.015777
114.250000 -1.019202
114.300000 -0.984944
114.350000 -0.967813
114.400000 -0.978092
114.450000 -0.981517
114.500000 -1.005498
114.550000 -1.056887
114.600000 -1.104850
114.650000 -1.135683
114.700000 -1.169942
114.750000 -1.217904
114.800000 -1.245311
114.850000 -1.255588
114.900000 -1.276144
114.950000 -1.303551
115.000000 -1.296699
115.050000 -1.262441
115.100000 -1.255588
115.150000 -1.248737
115.200000 -1.217904
115.250000 -1.187071
115.300000 -1.173367
115.350000 -1.135682
115.400000 -1.074017
115.450000 -1.012350
115.500000 -0.940407
115.550000 -0.854760
115.600000 -0.789668
115.650000 -0.751983
115.700000 -0.728001
115.750000 -0.745131
115.800000 -0.796519
115.850000 -0.854760
115.900000 -0.950685
115.950000 -1.080868
116.000000 -1.190496
116.050000 -1.282996
116.100000 -1.372069
116.150000 -1.406328
116.200000 -1.358365
116.250000 -1.293273
116.300000 -1.228181
116.350000 -1.097998
116.400000 -0.916426
116.450000 -0.755409
116.500000 -0.642355
116.550000 -0.529300
116.600000 -0.447079
116.650000 -0.409393
116.700000 -0.412819
116.750000 -0.443653
116.800000 -0.484763
116.850000 -0.525874
116.900000 -0.563559
116.950000 -0.608095
117.000000 -0.635502
117.050000 -0.645780
117.100000 -0.649206
117.150000 -0.638928
117.200000 -0.625225
117.250000 -0.628650
117.300000 -0.662910
117.350000 -0.714298
117.400000 -0.796519
117.450000 -0.912999
117.500000 -1.032906
117.550000 -1.139108
117.600000 -1.231607
117.650000 -1.303551
117.700000 -1.337811
117.750000 -1.324106
117.800000 -1.259015
117.850000 -1.159664
117.900000 -1.043184
117.950000 -0.885593
118.000000 -0.714298
118.050000 -0.560133
118.100000 -0.423098
118.150000 -0.310043
118.200000 -0.227821
118.250000 -0.162730
118.300000 -0.138749
118.350000 -0.200414
118.400000 -0.340876
118.450000 -0.501892
118.500000 -0.642355
118.550000 -0.806797
118.600000 -0.978092
118.650000 -1.115127
118.700000 -1.173368
118.750000 -1.159663
118.800000 -1.104849
118.850000 -1.029480
118.900000 -0.902722
118.950000 -0.728002
119.000000 -0.549855
119.050000 -0.388839
119.100000 -0.238099
119.150000 -0.128470
119.200000 -0.077083
119.250000 -0.066805
119.300000 -0.094212
119.350000 -0.183285
119.400000 -0.282636
119.450000 -0.399116
119.500000 -0.539577
119.550000 -0.666335
119.600000 -0.724576
119.650000 -0.762260
119.700000 -0.803371
119.750000 -0.803371
119.800000 -0.755409
119.850000 -0.714298
119.900000 -0.669762
119.950000 -0.621799
120.000000 -0.604669
120.050000 -0.618373
120.100000 -0.645780
120.150000 -0.704020
120.200000 -0.810223
120.250000 -0.906147
120.300000 -0.984943
120.350000 -1.101424
120.400000 -1.224755
120.450000 -1.293274
120.500000 -1.320681
120.550000 -1.348088
120.600000 -1.330958
120.650000 -1.259015
120.700000 -1.187070
120.750000 -1.115127
120.800000 -1.032905
120.850000 -0.960962
120.900000 -0.919851
120.950000 -0.895871
121.000000 -0.858186
121.050000 -0.827353
121.100000 -0.837630
121.150000 -0.858185
121.200000 -0.841056
121.250000 -0.827353
121.300000 -0.847908
121.350000 -0.871889
121.400000 -0.847908
121.450000 -0.817074
121.500000 -0.799946
121.550000 -0.765686
121.600000 -0.721150
121.650000 -0.697169
121.700000 -0.652632
121.750000 -0.590966
121.800000 -0.556707
121.850000 -0.556707
121.900000 -0.563559
121.950000 -0.590966
122.000000 -0.656058
122.050000 -0.717723
122.100000 -0.769112
122.150000 -0.830778
122.200000 -0.902722
122.250000 -0.957536
122.300000 -1.012351
122.350000 -1.070591
122.400000 -1.115127
122.450000 -1.135682
122.500000 -1.135682
122.550000 -1.128831
122.600000 -1.128831
122.650000 -1.139108
122.700000 -1.156238
122.750000 -1.197349
122.800000 -1.262441
122.850000 -1.313829
122.900000 -1.358365
122.950000 -1.430309
123.000000 -1.478271
123.050000 -1.464568
123.100000 -1.423457
123.150000 -1.365218
123.200000 -1.231607
123.250000 -1.084294
123.300000 -0.978092
123.350000 -0.868463
123.400000 -0.724576
123.450000 -0.608096
123.500000 -0.546429
123.550000 -0.488189
123.600000 -0.467634
123.650000 -0.498467
123.700000 -0.529300
123.750000 -0.566984
123.800000 -0.625225
123.850000 -0.656058
123.900000 -0.645781
123.950000 -0.645780
124.000000 -0.649206
124.050000 -0.608095
124.100000 -0.584114
124.150000 -0.611521
124.200000 -0.642354
124.250000 -0.676613
124.300000 -0.762260
124.350000 -0.851334
124.400000 -0.899296
124.450000 -0.960962
124.500000 -1.060312
124.550000 -1.173368
124.600000 -1.235033
124.650000 -1.221330
124.700000 -1.187071
124.750000 -1.159664
124.800000 -1.097998
124.850000 -1.002073
124.900000 -0.936981
124.950000 -0.892444
125.000000 -0.799945
125.050000 -0.693742
125.100000 -0.635502
125.150000 -0.590966
125.200000 -0.512170
125.250000 -0.460782
125.300000 -0.481338
125.350000 -0.532726
125.400000 -0.597818
125.450000 -0.666336
125.500000 -0.731427
125.550000 -0.779390
125.600000 -0.827353
125.650000 -0.882166
125.700000 -0.899296
125.750000 -0.878741
125.800000 -0.854760
125.850000 -0.834204
125.900000 -0.789668
125.950000 -0.748557
126.000000 -0.731427
126.050000 -0.731427
126.100000 -0.741705
126.150000 -0.779390
126.200000 -0.844482
126.250000 -0.899296
126.300000 -0.923277
126.350000 -0.909574
126.400000 -0.868463
126.450000 -0.810223
126.500000 -0.710872
126.550000 -0.584114
126.600000 -0.443652
126.650000 -0.310043
126.700000 -0.186710
126.750000 -0.080508
126.800000 -0.005138
126.850000 -0.005139
126.900000 -0.077083
126.950000 -0.152452
127.000000 -0.234674
127.050000 -0.371709
127.100000 -0.515597
127.150000 -0.604669
127.200000 -0.680039
127.250000 -0.758835
127.300000 -0.799945
127.350000 -0.810223
127.400000 -0.844482
127.450000 -0.882167
127.500000 -0.878741
127.550000 -0.868463
127.600000 -0.871889
127.650000 -0.892444
127.700000 -0.923277
127.750000 -0.936981
127.800000 -0.930129
127.850000 -0.933554
127.900000 -0.930129
127.950000 -0.885593
128.000000 -0.830778
128.050000 -0.786242
128.100000 -0.714298
128.150000 -0.635503
128.200000 -0.584114
128.250000 -0.532726
128.300000 -0.453931
128.350000 -0.402542
128.400000 -0.388839
128.450000 -0.385413
128.500000 -0.375134
128.550000 -0.344301
128.600000 -0.296339
128.650000 -0.292914
128.700000 -0.323747
128.750000 -0.323747
128.800000 -0.296340
128.850000 -0.306617
128.900000 -0.320320
128.950000 -0.296340
129.000000 -0.310043
129.050000 -0.375135
129.100000 -0.423098
129.150000 -0.457356
129.200000 -0.505319
129.250000 -0.546429
129.300000 -0.584114
129.350000 -0.649206
129.400000 -0.704021
129.450000 -0.724575
129.500000 -0.758835
129.550000 -0.817075
129.600000 -0.823926
129.650000 -0.793094
129.700000 -0.786242
129.750000 -0.775964
129.800000 -0.731427
129.850000 -0.693743
129.900000 -0.645780
129.950000 -0.573836
130.000000 -0.536152
130.050000 -0.553282
130.100000 -0.570411
130.150000 -0.584114
130.200000 -0.638929
130.250000 -0.700594
130.300000 -0.745131
130.350000 -0.806797
130.400000 -0.875315
130.450000 -0.906148
130.500000 -0.916426
130.550000 -0.889018
130.600000 -0.806797
130.650000 -0.714298
130.700000 -0.652632
130.750000 -0.556707
130.800000 -0.423097
130.850000 -0.344302
130.900000 -0.344302
130.950000 -0.361432
131.000000 -0.412819
131.050000 -0.522448
131.100000 -0.642354
131.150000 -0.751983
131.200000 -0.858186
131.250000 -0.954110
131.300000 -1.012351
131.350000 -1.029480
131.400000 -0.995221
131.450000 -0.947259
131.500000 -0.923277
131.550000 -0.906148
131.600000 -0.871888
131.650000 -0.878741
131.700000 -0.954110
131.750000 -1.032906
131.800000 -1.097998
131.850000 -1.190497
131.900000 -1.269292
131.950000 -1.303551
132.000000 -1.337810
132.050000 -1.372069
132.100000 -1.372069
132.150000 -1.351514
132.200000 -1.313829
132.250000 -1.228181
132.300000 -1.135683
132.350000 -1.050035
132.400000 -0.964388
132.450000 -0.889018
132.500000 -0.858185
132.550000 -0.823927
132.600000 -0.765687
132.650000 -0.714298
132.700000 -0.669762
132.750000 -0.601243
132.800000 -0.522449
132.850000 -0.457356
132.900000 -0.385413
132.950000 -0.320321
133.000000 -0.272358
133.050000 -0.196989
133.100000 -0.121619
133.150000 -0.131897
133.200000 -0.173007
133.250000 -0.196988
133.300000 -0.282636
133.350000 -0.464208
133.400000 -0.645780
133.450000 -0.803371
133.500000 -0.984943
133.550000 -1.152812
133.600000 -1.235033
133.650000 -1.279570
133.700000 -1.306977
133.750000 -1.279569
133.800000 -1.197348
133.850000 -1.115127
133.900000 -1.026054
133.950000 -0.926703
134.000000 -0.837630
134.050000 -0.779390
134.100000 -0.734854
134.150000 -0.724576
134.200000 -0.765686
134.250000 -0.810223
134.300000 -0.827352
134.350000 -0.868463
134.400000 -0.933555
134.450000 -0.981517
134.500000 -1.026054
134.550000 -1.094571
134.600000 -1.152811
134.650000 -1.173367
134.700000 -1.200775
134.750000 -1.238459
134.800000 -1.262440
134.850000 -1.252163
134.900000 -1.235034
134.950000 -1.214478
135.000000 -1.156237
135.050000 -1.050036
135.100000 -0.926703
135.150000 -0.803371
135.200000 -0.680039
135.250000 -0.584114
135.300000 -0.539578
135.350000 -0.519022
135.400000 -0.522448
135.450000 -0.566984
135.500000 -0.656058
135.550000 -0.779390
135.600000 -0.930129
135.650000 -1.080868
135.700000 -1.204200
135.750000 -1.313829
135.800000 -1.399476
135.850000 -1.423457
135.900000 -1.420031
135.950000 -1.402902
136.000000 -1.334384
136.050000 -1.259014
136.100000 -1.214478
136.150000 -1.149386
136.200000 -1.019202
136.250000 -0.899296
136.300000 -0.823926
136.350000 -0.745131
136.400000 -0.666336
136.450000 -0.604669
136.500000 -0.546429
136.550000 -0.481338
136.600000 -0.453931
136.650000 -0.453931
136.700000 -0.436800
136.750000 -0.416245
136.800000 -0.416246
136.850000 -0.419671
136.900000 -0.423097
136.950000 -0.443653
137.000000 -0.460782
137.050000 -0.481337
137.100000 -0.529300
137.150000 -0.580688
137.200000 -0.625225
137.250000 -0.676614
137.300000 -0.755408
137.350000 -0.851333
137.400000 -0.930129
137.450000 -0.974665
137.500000 -1.005499
137.550000 -1.039757
137.600000 -1.036331
137.650000 -0.988369
137.700000 -0.957536
137.750000 -0.947258
137.800000 -0.892445
137.850000 -0.823927
137.900000 -0.827353
137.950000 -0.868463
138.000000 -0.889019
138.050000 -0.895870
138.100000 -0.940407
138.150000 -1.002073
138.200000 -1.032906
138.250000 -1.043184
138.300000 -1.032906
138.350000 -0.984943
138.400000 -0.926703
138.450000 -0.851334
138.500000 -0.758835
138.550000 -0.652632
138.600000 -0.556707
138.650000 -0.471060
138.700000 -0.419672
138.750000 -0.399116
138.800000 -0.399116
138.850000 -0.440227
138.900000 -0.498467
138.950000 -0.543003
139.000000 -0.597818
139.050000 -0.683465
139.100000 -0.721150
139.150000 -0.707447
139.200000 -0.697168
139.250000 -0.697169
139.300000 -0.656058
139.350000 -0.597818
139.400000 -0.580688
139.450000 -0.566985
139.500000 -0.532725
139.550000 -0.515597
139.600000 -0.539577
139.650000 -0.584114
139.700000 -0.628651
139.750000 -0.662910
139.800000 -0.693742
139.850000 -0.728002
139.900000 -0.745131
139.950000 -0.738279
140.000000 -0.717724
140.050000 -0.710872
140.100000 -0.693742
140.150000 -0.652632
140.200000 -0.614947
140.250000 -0.601244
140.300000 -0.587540
140.350000 -0.580688
140.400000 -0.570411
140.450000 -0.536152
140.500000 -0.495041
140.550000 -0.453931
140.600000 -0.405968
140.650000 -0.337450
140.700000 -0.286062
140.750000 -0.251803
140.800000 -0.214118
140.850000 -0.210692
140.900000 -0.268932
140.950000 -0.327172
141.000000 -0.385413
141.050000 -0.488189
141.100000 -0.611521
141.150000 -0.680039
141.200000 -0.728001
141.250000 -0.775964
141.300000 -0.755409
141.350000 -0.669762
141.400000 -0.570411
141.450000 -0.447079
141.500000 -0.289488
141.550000 -0.145600
141.600000 -0.035972
141.650000 0.070231
141.700000 0.159304
141.750000 0.179860
141.800000 0.149026
141.850000 0.090786
141.900000 0.029120
141.950000 -0.039397
142.000000 -0.121619
142.050000 -0.214118
142.100000 -0.289488
142.150000 -0.364857
142.200000 -0.429950
142.250000 -0.464208
142.300000 -0.515596
142.350000 -0.608095
142.400000 -0.676614
142.450000 -0.721150
142.500000 -0.817075
142.550000 -0.954110
142.600000 -1.036332
142.650000 -1.108276
142.700000 -1.197349
142.750000 -1.224755
142.800000 -1.173368
142.850000 -1.101423
142.900000 -1.008924
142.950000 -0.871889
143.000000 -0.745131
143.050000 -0.625225
143.100000 -0.464208
143.150000 -0.334025
143.200000 -0.275784
143.250000 -0.241525
143.300000 -0.214118
143.350000 -0.244951
143.400000 -0.282636
143.450000 -0.303191
143.500000 -0.361431
143.550000 -0.450505
143.600000 -0.484763
143.650000 -0.515596
143.700000 -0.556707
143.750000 -0.539578
143.800000 -0.488189
143.850000 -0.467634
143.900000 -0.467634
143.950000 -0.450504
144.000000 -0.457356
144.050000 -0.488189
144.100000 -0.519022
144.150000 -0.570410
144.200000 -0.632076
144.250000 -0.686891
144.300000 -0.751982
144.350000 -0.858185
144.400000 -0.947258
144.450000 -0.981517
144.500000 -0.984944
144.550000 -0.964388
144.600000 -0.913000
144.650000 -0.861611
144.700000 -0.806797
144.750000 -0.724575
144.800000 -0.618373
144.850000 -0.515597
144.900000 -0.429950
144.950000 -0.378561
145.000000 -0.358005
145.050000 -0.358006
145.100000 -0.361432
145.150000 -0.399116
145.200000 -0.460782
145.250000 -0.522448
145.300000 -0.570410
145.350000 -0.618373
145.400000 -0.649206
145.450000 -0.638928
145.500000 -0.614947
145.550000 -0.584114
145.600000 -0.549856
145.650000 -0.522449
145.700000 -0.522448
145.750000 -0.553282
145.800000 -0.590966
145.850000 -0.642354
145.900000 -0.721150
145.950000 -0.799945
146.000000 -0.844482
146.050000 -0.878741
146.100000 -0.926703
146.150000 -0.950684
146.200000 -0.930130
146.250000 -0.878740
146.300000 -0.810223
146.350000 -0.738279
146.400000 -0.700594
146.450000 -0.707447
146.500000 -0.714298
146.550000 -0.731428
146.600000 -0.789668
146.650000 -0.865038
146.700000 -0.916425
146.750000 -0.943832
146.800000 -0.957536
146.850000 -0.936981
146.900000 -0.895870
146.950000 -0.820500
147.000000 -0.721150
147.050000 -0.618373
147.100000 -0.536151
147.150000 -0.460782
147.200000 -0.409394
147.250000 -0.447079
147.300000 -0.563559
147.350000 -0.700595
147.400000 -0.854760
147.450000 -1.039758
147.500000 -1.207626
147.550000 -1.354939
147.600000 -1.461142
147.650000 -1.512531
147.700000 -1.509104
147.750000 -1.478272
147.800000 -1.406328
147.850000 -1.276144
147.900000 -1.118553
147.950000 -0.984943
148.000000 -0.875315
148.050000 -0.755408
148.100000 -0.621799
148.150000 -0.529300
148.200000 -0.484763
148.250000 -0.460782
148.300000 -0.453930
148.350000 -0.488190
148.400000 -0.532726
148.450000 -0.573836
148.500000 -0.642355
148.550000 -0.721150
148.600000 -0.765686
148.650000 -0.803371
148.700000 -0.878741
148.750000 -0.943833
148.800000 -0.967814
148.850000 -0.978091
148.900000 -1.005499
148.950000 -1.032906
149.000000 -1.043184
149.050000 -1.053461
149.100000 -1.070590
149.150000 -1.053461
149.200000 -0.974665
149.250000 -0.885592
149.300000 -0.806797
149.350000 -0.717724
149.400000 -0.604669
149.450000 -0.505319
149.500000 -0.419671
149.550000 -0.364857
149.600000 -0.334025
149.650000 -0.330598
149.700000 -0.364857
149.750000 -0.450504
149.800000 -0.546429
149.850000 -0.621799
149.900000 -0.690317
149.950000 -0.765686
150.000000 -0.827352
150.050000 -0.854760
150.100000 -0.847907
150.150000 -0.841056
150.200000 -0.810222
150.250000 -0.769112
150.300000 -0.751982
150.350000 -0.741705
150.400000 -0.704021
150.450000 -0.666335
150.500000 -0.680039
150.550000 -0.717724
150.600000 -0.734854
150.650000 -0.738279
150.700000 -0.769112
150.750000 -0.803372
150.800000 -0.796520
150.850000 -0.772539
150.900000 -0.779389
150.950000 -0.796520
151.000000 -0.782816
151.050000 -0.775964
151.100000 -0.806797
151.150000 -0.834204
151.200000 -0.847908
151.250000 -0.885593
151.300000 -0.960962
151.350000 -1.029480
151.400000 -1.084294
151.450000 -1.145960
151.500000 -1.204200
151.550000 -1.238459
151.600000 -1.231607
151.650000 -1.169942
151.700000 -1.070590
151.750000 -0.933555
151.800000 -0.769112
151.850000 -0.573836
151.900000 -0.381987
151.950000 -0.214118
152.000000 -0.070231
152.050000 0.042824
152.100000 0.114768
152.150000 0.104490
152.200000 0.015416
152.250000 -0.080508
152.300000 -0.173007
152.350000 -0.330599
152.400000 -0.501892
152.450000 -0.604669
152.500000 -0.686891
152.550000 -0.793093
152.600000 -0.858186
152.650000 -0.895870
152.700000 -0.957536
152.750000 -0.998647
152.800000 -1.019202
152.850000 -1.091146
152.900000 -1.197348
152.950000 -1.272718
153.000000 -1.348087
153.050000 -1.426883
153.100000 -1.457716
153.150000 -1.440587
153.200000 -1.416606
153.250000 -1.378921
153.300000 -1.327532
153.350000 -1.296699
153.400000 -1.265866
153.450000 -1.235033
153.500000 -1.248737
153.550000 -1.317254
153.600000 -1.402902
153.650000 -1.495401
153.700000 -1.587900
153.750000 -1.676973
153.800000 -1.728362
153.850000 -1.724936
153.900000 -1.663270
153.950000 -1.550215
154.000000 -1.396050
154.050000 -1.190497
154.100000 -0.943833
154.150000 -0.710872
154.200000 -0.515596
154.250000 -0.347728
154.300000 -0.224396
154.350000 -0.176434
154.400000 -0.193563
154.450000 -0.220970
154.500000 -0.258655
154.550000 -0.334024
154.600000 -0.436801
154.650000 -0.536152
154.700000 -0.645780
154.750000 -0.751982
154.800000 -0.834204
154.850000 -0.902722
154.900000 -0.974665
154.950000 -1.012351
155.000000 -1.012351
155.050000 -0.991795
155.100000 -0.947258
155.150000 -0.878741
155.200000 -0.803371
155.250000 -0.707447
155.300000 -0.608095
155.350000 -0.532726
155.400000 -0.457356
155.450000 -0.368283
155.500000 -0.306618
155.550000 -0.289487
155.600000 -0.275785
155.650000 -0.248377
155.700000 -0.220970
155.750000 -0.186711
155.800000 -0.138748
155.850000 -0.097637
155.900000 -0.059953
155.950000 -0.018842
156.000000 0.022268
156.050000 0.056527
156.100000 0.063379
156.150000 0.049676
156.200000 0.039398
156.250000 0.029120
156.300000 -0.015416
156.350000 -0.097638
156.400000 -0.200414
156.450000 -0.313468
156.500000 -0.433375
156.550000 -0.549855
156.600000 -0.666335
156.650000 -0.745131
156.700000 -0.796519
156.750000 -0.837630
156.800000 -0.899296
156.850000 -0.936981
156.900000 -0.902722
156.950000 -0.820500
157.000000 -0.728001
157.050000 -0.649206
157.100000 -0.560133
157.150000 -0.471060
157.200000 -0.402542
157.250000 -0.354579
157.300000 -0.337450
157.350000 -0.364857
157.400000 -0.440227
157.450000 -0.536151
157.500000 -0.635503
157.550000 -0.751983
157.600000 -0.885593
157.650000 -0.991795
157.700000 -1.046610
157.750000 -1.067165
157.800000 -1.077442
157.850000 -1.032906
157.900000 -0.930129
157.950000 -0.803371
158.000000 -0.676613
158.050000 -0.549856
158.100000 -0.464208
158.150000 -0.405968
158.200000 -0.344302
158.250000 -0.316895
158.300000 -0.361431
158.350000 -0.436801
158.400000 -0.495041
158.450000 -0.556707
158.500000 -0.625225
158.550000 -0.669761
158.600000 -0.680039
158.650000 -0.690316
158.700000 -0.710872
158.750000 -0.728002
158.800000 -0.731428
158.850000 -0.714298
158.900000 -0.721150
158.950000 -0.779390
159.000000 -0.851334
159.050000 -0.930129
159.100000 -1.060313
159.150000 -1.221330
159.200000 -1.365217
159.250000 -1.485124
159.300000 -1.581048
159.350000 -1.615307
159.400000 -1.598178
159.450000 -1.560493
159.500000 -1.474846
159.550000 -1.327532
159.600000 -1.159663
159.650000 -0.978092
159.700000 -0.796519
159.750000 -0.625225
159.800000 -0.477911
159.850000 -0.344302
159.900000 -0.268932
159.950000 -0.262080
160.000000 -0.275784
160.050000 -0.310043
160.100000 -0.426524
160.150000 -0.584114
160.200000 -0.693742
160.250000 -0.762260
160.300000 -0.851334
160.350000 -0.940406
160.400000 -0.978092
160.450000 -0.991795
160.500000 -1.008925
160.550000 -0.995221
160.600000 -0.936981
160.650000 -0.882166
160.700000 -0.851334
160.750000 -0.827352
160.800000 -0.793093
160.850000 -0.762261
160.900000 -0.775964
160.950000 -0.810223
161.000000 -0.823926
161.050000 -0.820500
161.100000 -0.827352
161.150000 -0.827353
161.200000 -0.793094
161.250000 -0.748557
161.300000 -0.734853
161.350000 -0.714298
161.400000 -0.669762
161.450000 -0.649206
161.500000 -0.666336
161.550000 -0.676614
161.600000 -0.676613
161.650000 -0.693742
161.700000 -0.724576
161.750000 -0.741705
161.800000 -0.755408
161.850000 -0.775964
161.900000 -0.775964
161.950000 -0.769112
162.000000 -0.765686
162.050000 -0.738280
162.100000 -0.676613
162.150000 -0.625225
162.200000 -0.601243
162.250000 -0.580688
162.300000 -0.546429
162.350000 -0.512171
162.400000 -0.453931
162.450000 -0.385413
162.500000 -0.347728
162.550000 -0.316894
162.600000 -0.258655
162.650000 -0.224396
162.700000 -0.248377
162.750000 -0.299765
162.800000 -0.330598
162.850000 -0.368283
162.900000 -0.429949
162.950000 -0.488189
163.000000 -0.529300
163.050000 -0.560133
163.100000 -0.584115
163.150000 -0.611522
163.200000 -0.638929
163.250000 -0.642355
163.300000 -0.635503
163.350000 -0.652632
163.400000 -0.656058
163.450000 -0.645780
163.500000 -0.676613
163.550000 -0.745131
163.600000 -0.793093
163.650000 -0.844482
163.700000 -0.899296
163.750000 -0.930129
163.800000 -0.916426
163.850000 -0.912999
163.900000 -0.916426
163.950000 -0.909574
164.000000 -0.899297
164.050000 -0.861611
164.100000 -0.820501
164.150000 -0.827352
164.200000 -0.854760
164.250000 -0.847907
164.300000 -0.851334
164.350000 -0.913000
164.400000 -0.954111
164.450000 -0.947258
164.500000 -0.950684
164.550000 -0.940407
164.600000 -0.858185
164.650000 -0.748557
164.700000 -0.645781
164.750000 -0.508745
164.800000 -0.358005
164.850000 -0.258655
164.900000 -0.193562
164.950000 -0.131896
165.000000 -0.111341
165.050000 -0.145600
165.100000 -0.169582
165.150000 -0.190137
165.200000 -0.248377
165.250000 -0.327172
165.300000 -0.399116
165.350000 -0.450504
165.400000 -0.484763
165.450000 -0.501893
165.500000 -0.532726
165.550000 -0.560133
165.600000 -0.560133
165.650000 -0.566985
165.700000 -0.608096
165.750000 -0.666336
165.800000 -0.717724
165.850000 -0.775964
165.900000 -0.827353
165.950000 -0.844482
166.000000 -0.841056
166.050000 -0.858185
166.100000 -0.847907
166.150000 -0.796519
166.200000 -0.765687
166.250000 -0.762260
166.300000 -0.745131
166.350000 -0.710872
166.400000 -0.710872
166.450000 -0.741705
166.500000 -0.772538
166.550000 -0.810223
166.600000 -0.854760
166.650000 -0.875315
166.700000 -0.868463
166.750000 -0.875315
166.800000 -0.861611
166.850000 -0.782816
166.900000 -0.697169
166.950000 -0.659484
167.000000 -0.614947
167.050000 -0.560133
167.100000 -0.549855
167.150000 -0.573836
167.200000 -0.604669
167.250000 -0.649206
167.300000 -0.710872
167.350000 -0.755409
167.400000 -0.799945
167.450000 -0.847907
167.500000 -0.868464
167.550000 -0.858185
167.600000 -0.844482
167.650000 -0.806797
167.700000 -0.745131
167.750000 -0.704020
167.800000 -0.683465
167.850000 -0.628650
167.900000 -0.560133
167.950000 -0.556707
168.000000 -0.594392
168.050000 -0.614947
168.100000 -0.642354
168.150000 -0.693742
168.200000 -0.748557
168.250000 -0.813649
168.300000 -0.889019
168.350000 -0.954111
168.400000 -1.005498
168.450000 -1.060313
168.500000 -1.111701
168.550000 -1.142535
168.600000 -1.152812
168.650000 -1.135682
168.700000 -1.074016
168.750000 -0.981517
168.800000 -0.885593
168.850000 -0.796519
168.900000 -0.700595
168.950000 -0.618373
169.000000 -0.563559
169.050000 -0.556707
169.100000 -0.584114
169.150000 -0.642354
169.200000 -0.724576
169.250000 -0.806797
169.300000 -0.868463
169.350000 -0.906148
169.400000 -0.926703
169.450000 -0.899296
169.500000 -0.799945
169.550000 -0.652632
169.600000 -0.505319
169.650000 -0.368283
169.700000 -0.255229
169.750000 -0.210692
169.800000 -0.214118
169.850000 -0.248377
169.900000 -0.347728
169.950000 -0.512171
170.000000 -0.669761
170.050000 -0.789667
170.100000 -0.899296
170.150000 -0.984943
170.200000 -1.008925
170.250000 -0.984943
170.300000 -0.940406
170.350000 -0.865037
170.400000 -0.755409
170.450000 -0.649206
170.500000 -0.584114
170.550000 -0.539578
170.600000 -0.501892
170.650000 -0.484763
170.700000 -0.498467
170.750000 -0.525874
170.800000 -0.577262
170.850000 -0.642354
170.900000 -0.686891
170.950000 -0.717724
171.000000 -0.755409
171.050000 -0.786242
171.100000 -0.796520
171.150000 -0.799946
171.200000 -0.806797
171.250000 -0.799945
171.300000 -0.789668
171.350000 -0.779390
171.400000 -0.758834
171.450000 -0.728002
171.500000 -0.707447
171.550000 -0.686891
171.600000 -0.656058
171.650000 -0.645780
171.700000 -0.669761
171.750000 -0.683465
171.800000 -0.680039
171.850000 -0.704020
171.900000 -0.755409
171.950000 -0.789667
172.000000 -0.803371
172.050000 -0.834204
172.100000 -0.889019
172.150000 -0.919851
172.200000 -0.919851
172.250000 -0.933555
172.300000 -0.974666
172.350000 -1.008925
172.400000 -1.026054
172.450000 -1.043184
172.500000 -1.046609
172.550000 -1.026054
172.600000 -0.995221
172.650000 -0.954110
172.700000 -0.895871
172.750000 -0.820500
172.800000 -0.734853
172.850000 -0.642354
172.900000 -0.539577
172.950000 -0.416246
173.000000 -0.306617
173.050000 -0.241526
173.100000 -0.207266
173.150000 -0.190137
173.200000 -0.203840
173.250000 -0.251803
173.300000 -0.323747
173.350000 -0.409394
173.400000 -0.512171
173.450000 -0.608095
173.500000 -0.676614
173.550000 -0.748557
173.600000 -0.841056
173.650000 -0.913000
173.700000 -0.930129
173.750000 -0.943832
173.800000 -0.974665
173.850000 -0.981517
173.900000 -0.957536
173.950000 -0.957536
174.000000 -0.981517
174.050000 -0.978092
174.100000 -0.947259
174.150000 -0.926704
174.200000 -0.909574
174.250000 -0.875315
174.300000 -0.854759
174.350000 -0.844481
174.400000 -0.817075
174.450000 -0.796519
174.500000 -0.799945
174.550000 -0.803371
174.600000 -0.823927
174.650000 -0.865038
174.700000 -0.899296
174.750000 -0.919852
174.800000 -0.964388
174.850000 -1.015776
174.900000 -1.036332
174.950000 -1.060313
175.000000 -1.084294
175.050000 -1.080868
175.100000 -1.070590
175.150000 -1.074017
175.200000 -1.043184
175.250000 -0.991795
175.300000 -0.964388
175.350000 -0.936980
175.400000 -0.878741
175.450000 -0.817075
175.500000 -0.758834
175.550000 -0.704020
175.600000 -0.656058
175.650000 -0.625225
175.700000 -0.608095
175.750000 -0.597818
175.800000 -0.594392
175.850000 -0.608095
175.900000 -0.645781
175.950000 -0.683465
176.000000 -0.721150
176.050000 -0.779390
176.100000 -0.878740
176.150000 -0.967814
176.200000 -1.046609
176.250000 -1.139108
176.300000 -1.238459
176.350000 -1.313829
176.400000 -1.392625
176.450000 -1.461142
176.500000 -1.488550
176.550000 -1.485123
176.600000 -1.464567
176.650000 -1.402902
176.700000 -1.317254
176.750000 -1.241885
176.800000 -1.152812
176.850000 -1.026054
176.900000 -0.892444
176.950000 -0.772538
177.000000 -0.649206
177.050000 -0.525874
177.100000 -0.436801
177.150000 -0.381987
177.200000 -0.358005
177.250000 -0.381987
177.300000 -0.447078
177.350000 -0.529300
177.400000 -0.632077
177.450000 -0.745131
177.500000 -0.830778
177.550000 -0.899296
177.600000 -0.967814
177.650000 -1.012350
177.700000 -0.991795
177.750000 -0.940407
177.800000 -0.878741
177.850000 -0.796519
177.900000 -0.710872
177.950000 -0.621799
178.000000 -0.546429
178.050000 -0.498466
178.100000 -0.491616
178.150000 -0.515596
178.200000 -0.560133
178.250000 -0.608095
178.300000 -0.662910
178.350000 -0.738279
178.400000 -0.813648
178.450000 -0.830778
178.500000 -0.786242
178.550000 -0.745131
178.600000 -0.700594
178.650000 -0.614947
178.700000 -0.508744
178.750000 -0.423097
178.800000 -0.361431
178.850000 -0.334024
178.900000 -0.340876
178.950000 -0.378561
179.000000 -0.443652
179.050000 -0.536152
179.100000 -0.642354
179.150000 -0.748557
179.200000 -0.858186
179.250000 -0.947258
179.300000 -1.019202
179.350000 -1.074016
179.400000 -1.070590
179.450000 -1.008924
179.500000 -0.936980
179.550000 -0.861612
179.600000 -0.758835
179.650000 -0.628651
179.700000 -0.522448
179.750000 -0.447078
179.800000 -0.399116
179.850000 -0.385413
179.900000 -0.405968
179.950000 -0.457357
180.000000 -0.515597
180.050000 -0.566985
180.100000 -0.659484
180.150000 -0.813648
180.200000 -0.957536
180.250000 -1.043184
180.300000 -1.118553
180.350000 -1.200775
180.400000 -1.245311
180.450000 -1.252163
180.500000 -1.248737
180.550000 -1.245311
180.600000 -1.211052
180.650000 -1.152812
180.700000 -1.091146
180.750000 -1.043183
180.800000 -1.008925
180.850000 -0.947258
180.900000 -0.892444
180.950000 -0.885592
181.000000 -0.895871
181.050000 -0.878740
181.100000 -0.851334
181.150000 -0.847907
181.200000 -0.847907
181.250000 -0.841056
181.300000 -0.834204
181.350000 -0.810223
181.400000 -0.772538
181.450000 -0.741705
181.500000 -0.704021
181.550000 -0.656058
181.600000 -0.621799
181.650000 -0.590966
181.700000 -0.553281
181.750000 -0.536151
181.800000 -0.536151
181.850000 -0.508745
181.900000 -0.464208
181.950000 -0.453930
182.000000 -0.450504
182.050000 -0.405968
182.100000 -0.358006
182.150000 -0.337450
182.200000 -0.306617
182.250000 -0.262081
182.300000 -0.255229
182.350000 -0.262081
182.400000 -0.251802
182.450000 -0.255229
182.500000 -0.282636
182.550000 -0.313469
182.600000 -0.364857
182.650000 -0.440226
182.700000 -0.491615
182.750000 -0.532726
182.800000 -0.608096
182.850000 -0.683465
182.900000 -0.741705
182.950000 -0.786242
183.000000 -0.803371
183.050000 -0.782816
183.100000 -0.775964
183.150000 -0.796519
183.200000 -0.769112
183.250000 -0.693743
183.300000 -0.632076
183.350000 -0.580688
183.400000 -0.505318
183.450000 -0.440227
183.500000 -0.392265
183.550000 -0.358005
183.600000 -0.378561
183.650000 -0.450505
183.700000 -0.549855
183.750000 -0.673187
183.800000 -0.834204
183.850000 -1.022628
183.900000 -1.211052
183.950000 -1.372069
184.000000 -1.495401
184.050000 -1.560493
184.100000 -1.557067
184.150000 -1.502253
184.200000 -1.416605
184.250000 -1.286422
184.300000 -1.097997
184.350000 -0.882166
184.400000 -0.693742
184.450000 -0.512170
184.500000 -0.316895
184.550000 -0.155878
184.600000 -0.049675
184.650000 -0.005139
184.700000 -0.032546
184.750000 -0.087360
184.800000 -0.145600
184.850000 -0.234673
184.900000 -0.368283
184.950000 -0.508744
185.000000 -0.625225
185.050000 -0.734853
185.100000 -0.858185
185.150000 -0.971240
185.200000 -1.050035
185.250000 -1.087720
185.300000 -1.104850
185.350000 -1.115128
185.400000 -1.115127
185.450000 -1.070590
185.500000 -1.008924
185.550000 -0.967814
185.600000 -0.933555
185.650000 -0.892444
185.700000 -0.847908
185.750000 -0.789668
185.800000 -0.741705
185.850000 -0.707447
185.900000 -0.686891
185.950000 -0.683465
186.000000 -0.707446
186.050000 -0.728001
186.100000 -0.741705
186.150000 -0.762260
186.200000 -0.793094
186.250000 -0.803371
186.300000 -0.786242
186.350000 -0.751983
186.400000 -0.710872
186.450000 -0.666335
186.500000 -0.635503
186.550000 -0.601244
186.600000 -0.566985
186.650000 -0.563559
186.700000 -0.601244
186.750000 -0.662910
186.800000 -0.741706
186.850000 -0.830779
186.900000 -0.919851
186.950000 -1.015777
187.000000 -1.111701
187.050000 -1.156237
187.100000 -1.118553
187.150000 -1.067165
187.200000 -1.019202
187.250000 -0.933555
187.300000 -0.810223
187.350000 -0.690317
187.400000 -0.601244
187.450000 -0.539577
187.500000 -0.515596
187.550000 -0.525874
187.600000 -0.553281
187.650000 -0.601243
187.700000 -0.666336
187.750000 -0.748557
187.800000 -0.837630
187.850000 -0.930129
187.900000 -1.002072
187.950000 -1.050035
188.000000 -1.101423
188.050000 -1.142534
188.100000 -1.149386
188.150000 -1.152812
188.200000 -1.166516
188.250000 -1.166516
188.300000 -1.152812
188.350000 -1.132256
188.400000 -1.084295
188.450000 -1.002073
188.500000 -0.926704
188.550000 -0.851333
188.600000 -0.755408
188.650000 -0.652632
188.700000 -0.566984
188.750000 -0.481337
188.800000 -0.399116
188.850000 -0.344301
188.900000 -0.306617
