time[ns] Raw_signal[mV]
-11.250000 0.411381
-11.200000 0.329160
-11.150000 0.240087
-11.100000 0.130458
-11.050000 0.031107
-11.000000 -0.020281
-10.950000 -0.044262
-10.900000 -0.057966
-10.850000 -0.054540
-10.800000 -0.030559
-10.750000 -0.006577
-10.700000 -0.010004
-10.650000 -0.044262
-10.600000 -0.061391
-10.550000 -0.061392
-10.500000 -0.071670
-10.450000 -0.102502
-10.400000 -0.143613
-10.350000 -0.167594
-10.300000 -0.164168
-10.250000 -0.153891
-10.200000 -0.181298
-10.150000 -0.208704
-10.100000 -0.181298
-10.050000 -0.116206
-10.000000 -0.064817
-9.950000 -0.013429
-9.900000 0.044812
-9.850000 0.075644
-9.800000 0.085922
-9.750000 0.085922
-9.700000 0.068792
-9.650000 0.037959
-9.600000 0.037959
-9.550000 0.065366
-9.500000 0.061940
-9.450000 0.048237
-9.400000 0.061940
-9.350000 0.082496
-9.300000 0.065366
-9.250000 0.037960
-9.200000 0.031108
-9.150000 0.041385
-9.100000 0.037960
-9.050000 0.013978
-9.000000 -0.013429
-8.950000 -0.027132
-8.900000 -0.047687
-8.850000 -0.054539
-8.800000 -0.023707
-8.750000 0.044811
-8.700000 0.106477
-8.650000 0.147588
-8.600000 0.209254
-8.550000 0.291475
-8.500000 0.356567
-8.450000 0.380548
-8.400000 0.373696
-8.350000 0.363419
-8.300000 0.356567
-8.250000 0.329160
-8.200000 0.291475
-8.150000 0.257216
-8.100000 0.222958
-8.050000 0.164717
-8.000000 0.096199
-7.950000 0.041385
-7.900000 0.020830
-7.850000 0.007126
-7.800000 -0.016855
-7.750000 -0.033984
-7.700000 -0.027132
-7.650000 -0.006577
-7.600000 -0.013429
-7.550000 -0.047688
-7.500000 -0.088798
-7.450000 -0.133335
-7.400000 -0.171020
-7.350000 -0.198427
-7.300000 -0.222408
-7.250000 -0.246390
-7.200000 -0.249815
-7.150000 -0.225834
-7.100000 -0.188149
-7.050000 -0.123058
-7.000000 -0.037411
-6.950000 0.048237
-6.900000 0.116755
-6.850000 0.185272
-6.800000 0.260642
-6.750000 0.336012
-6.700000 0.370270
-6.650000 0.359993
-6.600000 0.349716
-6.550000 0.353141
-6.500000 0.363419
-6.450000 0.366845
-6.400000 0.373696
-6.350000 0.397678
-6.300000 0.428511
-6.250000 0.473047
-6.200000 0.521009
-6.150000 0.551843
-6.100000 0.586102
-6.050000 0.620361
-6.000000 0.630638
-5.950000 0.623787
-5.900000 0.606657
-5.850000 0.575824
-5.800000 0.527862
-5.750000 0.486750
-5.700000 0.431936
-5.650000 0.363418
-5.600000 0.294901
-5.550000 0.233235
-5.500000 0.192124
-5.450000 0.185272
-5.400000 0.212680
-5.350000 0.236660
-5.300000 0.267494
-5.250000 0.325734
-5.200000 0.407956
-5.150000 0.469622
-5.100000 0.507306
-5.050000 0.531288
-5.000000 0.548417
-4.950000 0.534713
-4.900000 0.490177
-4.850000 0.435363
-4.800000 0.390826
-4.750000 0.366845
-4.700000 0.366844
-4.650000 0.377122
-4.600000 0.387401
-4.550000 0.428511
-4.500000 0.476473
-4.450000 0.490177
-4.400000 0.500455
-4.350000 0.534713
-4.300000 0.558695
-4.250000 0.551843
-4.200000 0.544991
-4.150000 0.534714
-4.100000 0.493602
-4.050000 0.452492
-4.000000 0.442214
-3.950000 0.428511
-3.900000 0.394252
-3.850000 0.353141
-3.800000 0.329159
-3.750000 0.305179
-3.700000 0.291475
-3.650000 0.308605
-3.600000 0.342864
-3.550000 0.370271
-3.500000 0.421659
-3.450000 0.500455
-3.400000 0.510732
-3.350000 0.449066
-3.300000 0.452492
-3.250000 0.534714
-3.200000 0.524436
-3.150000 0.418233
-3.100000 0.418233
-3.050000 0.486751
-3.000000 0.425085
-2.950000 0.329160
-2.900000 0.312031
-2.850000 0.243513
-2.800000 0.195550
-2.750000 0.356567
-2.700000 0.479899
-2.650000 0.329160
-2.600000 0.267494
-2.550000 0.425085
-2.500000 0.407956
-2.450000 0.236661
-2.400000 0.305179
-2.350000 0.435363
-2.300000 0.332586
-2.250000 0.308604
-2.200000 0.527861
-2.150000 0.582676
-2.100000 0.377122
-2.050000 0.257216
-2.000000 0.294901
-1.950000 0.329160
-1.900000 0.359993
-1.850000 0.301753
-1.800000 0.099625
-1.750000 -0.003151
-1.700000 0.051663
-1.650000 0.003700
-1.600000 -0.071669
-1.550000 0.123607
-1.500000 0.407956
-1.450000 0.524436
-1.400000 0.623787
-1.350000 0.740267
-1.300000 0.709433
-1.250000 0.716285
-1.200000 0.891006
-1.150000 0.822488
-1.100000 0.462769
-1.050000 0.308605
-1.000000 0.383975
-0.950000 0.270920
-0.900000 0.082496
-0.850000 0.106477
-0.800000 0.154440
-0.750000 0.092774
-0.700000 0.157865
-0.650000 0.325735
-0.600000 0.394252
-0.550000 0.435363
-0.500000 0.575824
-0.450000 0.695730
-0.400000 0.695731
-0.350000 0.634064
-0.300000 0.538139
-0.250000 0.411382
-0.200000 0.301753
-0.150000 0.202402
-0.100000 0.130459
-0.050000 0.116755
0.000000 0.089348
0.050000 0.024256
0.100000 0.082496
0.150000 0.274346
0.200000 0.346290
0.250000 0.318882
0.300000 0.438789
0.350000 0.637490
0.400000 0.685453
0.450000 0.664897
0.500000 0.736841
0.550000 0.788229
0.600000 0.760823
0.650000 0.822488
0.700000 1.028042
0.750000 1.332945
0.800000 1.812570
0.850000 2.583395
0.900000 3.662551
0.950000 5.152813
1.000000 7.252884
1.050000 10.024428
1.100000 13.416059
1.150000 17.434627
1.200000 22.148654
1.250000 27.445081
1.300000 33.056685
1.350000 38.819039
1.400000 44.704714
1.450000 50.590390
1.500000 56.212278
1.550000 61.416204
1.600000 66.226157
1.650000 70.566767
1.700000 74.294127
1.750000 77.428817
1.800000 80.077027
1.850000 82.252477
1.900000 83.917457
1.950000 85.075407
2.000000 85.770857
2.050000 86.014097
2.100000 85.801697
2.150000 85.041137
2.200000 83.691337
2.250000 81.837937
2.300000 79.552877
2.350000 76.801877
2.400000 73.584967
2.450000 70.008337
2.500000 66.157637
2.550000 62.080827
2.600000 57.911517
2.650000 53.779897
2.700000 49.709947
2.750000 45.777017
2.800000 42.176407
2.850000 38.976627
2.900000 36.126287
2.950000 33.697327
3.000000 31.806237
3.050000 30.384487
3.100000 29.346446
3.150000 28.729784
3.200000 28.517379
3.250000 28.592751
3.300000 28.887382
3.350000 29.425242
3.400000 30.127551
3.450000 30.891524
3.500000 31.686337
3.550000 32.518827
3.600000 33.337609
3.650000 34.084454
3.700000 34.759351
3.750000 35.321200
3.800000 35.691197
3.850000 35.838517
3.900000 35.814527
3.950000 35.588417
4.000000 35.088237
4.050000 34.296857
4.100000 33.286217
4.150000 32.094007
4.200000 30.703107
4.250000 29.106637
4.300000 27.393697
4.350000 25.646487
4.400000 23.885585
4.450000 22.090414
4.500000 20.326077
4.550000 18.654242
4.600000 17.081761
4.650000 15.632615
4.700000 14.375314
4.750000 13.340689
4.800000 12.497926
4.850000 11.847001
4.900000 11.429040
4.950000 11.237191
5.000000 11.261180
5.050000 11.483863
5.100000 11.870984
5.150000 12.367734
5.200000 12.943292
5.250000 13.580507
5.300000 14.234851
5.350000 14.844660
5.400000 15.392796
5.450000 15.872421
5.500000 16.266402
5.550000 16.561024
5.600000 16.732326
5.650000 16.749449
5.700000 16.632969
5.750000 16.417139
5.800000 16.122516
5.850000 15.725107
5.900000 15.221509
5.950000 14.642530
6.000000 14.008739
6.050000 13.337260
6.100000 12.631529
6.150000 11.898391
6.200000 11.168676
6.250000 10.466368
6.300000 9.798320
6.350000 9.154253
6.400000 8.534167
6.450000 7.948339
6.500000 7.400197
6.550000 6.865757
6.600000 6.341596
6.650000 5.858546
6.700000 5.454291
6.750000 5.108277
6.800000 4.810225
6.850000 4.611523
6.900000 4.549857
6.950000 4.584116
7.000000 4.738281
7.050000 5.046611
7.100000 5.450865
7.150000 5.896232
7.200000 6.389559
7.250000 6.906869
7.300000 7.372790
7.350000 7.756490
7.400000 8.061394
7.450000 8.277224
7.500000 8.390279
7.550000 8.393705
7.600000 8.314909
7.650000 8.147040
7.700000 7.907228
7.750000 7.612602
7.800000 7.307698
7.850000 6.992516
7.900000 6.646501
7.950000 6.293634
8.000000 5.951045
8.050000 5.584475
8.100000 5.173368
8.150000 4.779390
8.200000 4.426525
8.250000 4.073658
8.300000 3.700236
8.350000 3.371350
8.400000 3.121261
8.450000 2.891726
8.500000 2.669043
8.550000 2.484045
8.600000 2.360713
8.650000 2.292195
8.700000 2.268214
8.750000 2.268214
8.800000 2.309324
8.850000 2.436082
8.900000 2.627933
8.950000 2.812930
9.000000 3.035613
9.050000 3.354221
9.100000 3.700236
9.150000 4.008566
9.200000 4.320322
9.250000 4.614948
9.300000 4.810225
9.350000 4.899298
9.400000 4.954112
9.450000 4.957537
9.500000 4.844483
9.550000 4.645781
9.600000 4.426524
9.650000 4.193564
9.700000 3.892086
9.750000 3.559775
9.800000 3.258296
9.850000 2.973947
9.900000 2.662191
9.950000 2.353861
10.000000 2.100345
10.050000 1.870810
10.100000 1.624147
10.150000 1.380908
10.200000 1.189058
10.250000 1.031467
10.300000 0.880728
10.350000 0.750545
10.400000 0.664897
10.450000 0.610082
10.500000 0.548416
10.550000 0.500454
10.600000 0.490177
10.650000 0.497028
10.700000 0.493603
10.750000 0.517584
10.800000 0.592954
10.850000 0.678601
10.900000 0.781378
10.950000 0.942394
11.000000 1.134244
11.050000 1.332946
11.100000 1.538500
11.150000 1.757756
11.200000 1.966736
11.250000 2.120901
11.300000 2.244233
11.350000 2.316176
11.400000 2.319602
11.450000 2.257937
11.500000 2.158586
11.550000 2.011272
11.600000 1.822848
11.650000 1.617295
11.700000 1.394612
11.750000 1.154799
11.800000 0.952672
11.850000 0.798507
11.900000 0.654619
11.950000 0.514158
12.000000 0.411381
12.050000 0.342863
12.100000 0.298327
12.150000 0.270920
12.200000 0.240087
12.250000 0.209254
12.300000 0.188698
12.350000 0.133884
12.400000 0.041386
12.450000 -0.010003
12.500000 -0.006577
12.550000 -0.006577
12.600000 -0.003151
12.650000 0.082496
12.700000 0.202402
12.750000 0.274345
12.800000 0.349715
12.850000 0.479899
12.900000 0.627212
12.950000 0.733415
13.000000 0.825914
13.050000 0.894432
13.100000 0.891006
13.150000 0.808784
13.200000 0.712859
13.250000 0.606657
13.300000 0.445640
13.350000 0.270920
13.400000 0.137310
13.450000 0.000275
13.500000 -0.157316
13.550000 -0.266945
13.600000 -0.304630
13.650000 -0.301204
13.700000 -0.277223
13.750000 -0.239538
13.800000 -0.177872
13.850000 -0.078521
13.900000 0.037959
13.950000 0.120180
14.000000 0.174995
14.050000 0.233235
14.100000 0.267493
14.150000 0.250365
14.200000 0.229809
14.250000 0.240087
14.300000 0.240087
14.350000 0.222957
14.400000 0.219531
14.450000 0.246939
14.500000 0.274346
14.550000 0.288049
14.600000 0.312030
14.650000 0.346289
14.700000 0.353141
14.750000 0.322308
14.800000 0.250364
14.850000 0.147588
14.900000 0.010552
14.950000 -0.147038
15.000000 -0.308055
15.050000 -0.462221
15.100000 -0.616386
15.150000 -0.763699
15.200000 -0.835643
15.250000 -0.808235
15.300000 -0.739718
15.350000 -0.674626
15.400000 -0.585552
15.450000 -0.458794
15.500000 -0.345741
15.550000 -0.270371
15.600000 -0.263519
15.650000 -0.308056
15.700000 -0.362870
15.750000 -0.431388
15.800000 -0.551293
15.850000 -0.684903
15.900000 -0.780828
15.950000 -0.869901
16.000000 -0.965826
16.050000 -0.996659
16.100000 -0.976104
16.150000 -0.955549
16.200000 -0.931567
16.250000 -0.880180
16.300000 -0.828791
16.350000 -0.784254
16.400000 -0.732866
16.450000 -0.698608
16.500000 -0.667774
16.550000 -0.636941
16.600000 -0.612959
16.650000 -0.599256
16.700000 -0.588979
16.750000 -0.602683
16.800000 -0.660922
16.850000 -0.708884
16.900000 -0.726014
16.950000 -0.770551
17.000000 -0.835643
17.050000 -0.852772
17.100000 -0.856198
17.150000 -0.897308
17.200000 -0.928142
17.250000 -0.911013
17.300000 -0.897309
17.350000 -0.893883
17.400000 -0.897309
17.450000 -0.924715
17.500000 -0.976104
17.550000 -1.024067
17.600000 -1.096010
17.650000 -1.202213
17.700000 -1.291286
17.750000 -1.328971
17.800000 -1.363230
17.850000 -1.380359
17.900000 -1.332396
17.950000 -1.222768
18.000000 -1.078880
18.050000 -0.921290
18.100000 -0.736292
18.150000 -0.541016
18.200000 -0.342314
18.250000 -0.174446
18.300000 -0.064817
18.350000 0.000274
18.400000 0.031108
18.450000 0.013979
18.500000 -0.030559
18.550000 -0.102502
18.600000 -0.232686
18.650000 -0.390277
18.700000 -0.513609
18.750000 -0.616386
18.800000 -0.726014
18.850000 -0.797958
18.900000 -0.808236
18.950000 -0.784254
19.000000 -0.753421
19.050000 -0.691755
19.100000 -0.609534
19.150000 -0.520460
19.200000 -0.400555
19.250000 -0.253242
19.300000 -0.123058
19.350000 -0.027133
19.400000 0.089348
19.450000 0.209254
19.500000 0.246939
19.550000 0.202402
19.600000 0.144162
19.650000 0.051663
19.700000 -0.116205
19.750000 -0.308056
19.800000 -0.475924
19.850000 -0.640367
19.900000 -0.787680
19.950000 -0.887031
20.000000 -0.958975
20.050000 -1.010363
20.100000 -1.000085
20.150000 -0.945271
20.200000 -0.873328
20.250000 -0.787680
20.300000 -0.705458
20.350000 -0.647219
20.400000 -0.609534
20.450000 -0.588979
20.500000 -0.592404
20.550000 -0.633515
20.600000 -0.688330
20.650000 -0.749995
20.700000 -0.828791
20.750000 -0.914438
20.800000 -0.979530
20.850000 -1.020641
20.900000 -1.075455
20.950000 -1.154250
21.000000 -1.222769
21.050000 -1.270731
21.100000 -1.322119
21.150000 -1.352952
21.200000 -1.315267
21.250000 -1.233046
21.300000 -1.161102
21.350000 -1.099436
21.400000 -1.013789
21.450000 -0.911012
21.500000 -0.821940
21.550000 -0.732866
21.600000 -0.654070
21.650000 -0.592405
21.700000 -0.585552
21.750000 -0.612960
21.800000 -0.647218
21.850000 -0.681478
21.900000 -0.715736
21.950000 -0.749996
22.000000 -0.780828
22.050000 -0.804810
22.100000 -0.825365
22.150000 -0.832216
22.200000 -0.815087
22.250000 -0.777402
22.300000 -0.732866
22.350000 -0.684903
22.400000 -0.616386
22.450000 -0.551294
22.500000 -0.510183
22.550000 -0.475925
22.600000 -0.441666
22.650000 -0.400555
22.700000 -0.379999
22.750000 -0.403981
22.800000 -0.458795
22.850000 -0.506757
22.900000 -0.561572
22.950000 -0.681477
23.000000 -0.828791
23.050000 -0.938419
23.100000 -1.037770
23.150000 -1.157676
23.200000 -1.243324
23.250000 -1.267305
23.300000 -1.270730
23.350000 -1.250175
23.400000 -1.167954
23.450000 -1.048047
23.500000 -0.931567
23.550000 -0.797958
23.600000 -0.643792
23.650000 -0.499905
23.700000 -0.407406
23.750000 -0.352592
23.800000 -0.301204
23.850000 -0.287500
23.900000 -0.345740
23.950000 -0.438240
24.000000 -0.520461
24.050000 -0.619812
24.100000 -0.722588
24.150000 -0.801384
24.200000 -0.863049
24.250000 -0.914438
24.300000 -0.924716
24.350000 -0.893883
24.400000 -0.887031
24.450000 -0.883605
24.500000 -0.825365
24.550000 -0.743143
24.600000 -0.681478
24.650000 -0.630090
24.700000 -0.578701
24.750000 -0.523887
24.800000 -0.475924
24.850000 -0.479350
24.900000 -0.541016
24.950000 -0.612960
25.000000 -0.667774
25.050000 -0.743143
25.100000 -0.828791
25.150000 -0.880179
25.200000 -0.904161
25.250000 -0.934994
25.300000 -0.941845
25.350000 -0.897308
25.400000 -0.832216
25.450000 -0.763699
25.500000 -0.688329
25.550000 -0.612960
25.600000 -0.544442
25.650000 -0.499905
25.700000 -0.486202
25.750000 -0.520460
25.800000 -0.578701
25.850000 -0.633515
25.900000 -0.684903
25.950000 -0.753421
26.000000 -0.835643
26.050000 -0.917865
26.100000 -0.972678
26.150000 -1.006938
26.200000 -1.030919
26.250000 -1.027493
26.300000 -1.003512
26.350000 -0.989808
26.400000 -0.996660
26.450000 -1.017215
26.500000 -1.030919
26.550000 -1.048047
26.600000 -1.068604
26.650000 -1.082307
26.700000 -1.099437
26.750000 -1.116566
26.800000 -1.113139
26.850000 -1.089159
26.900000 -1.075455
26.950000 -1.082307
27.000000 -1.092585
27.050000 -1.126843
27.100000 -1.181658
27.150000 -1.253601
27.200000 -1.335822
27.250000 -1.448877
27.300000 -1.582487
27.350000 -1.719522
27.400000 -1.839429
27.450000 -1.925076
27.500000 -1.959334
27.550000 -1.969612
27.600000 -1.942205
27.650000 -1.856558
27.700000 -1.729800
27.750000 -1.599616
27.800000 -1.452303
27.850000 -1.281008
27.900000 -1.126844
27.950000 -1.024066
28.000000 -0.945271
28.050000 -0.887031
28.100000 -0.873327
28.150000 -0.880180
28.200000 -0.904160
28.250000 -0.958975
28.300000 -1.020641
28.350000 -1.034344
28.400000 -1.013789
28.450000 -1.010363
28.500000 -0.996659
28.550000 -0.945271
28.600000 -0.890456
28.650000 -0.863050
28.700000 -0.842494
28.750000 -0.821939
28.800000 -0.845920
28.850000 -0.897309
28.900000 -0.941845
28.950000 -0.989807
29.000000 -1.048047
29.050000 -1.096011
29.100000 -1.109713
29.150000 -1.096010
29.200000 -1.072029
29.250000 -1.030918
29.300000 -0.958975
29.350000 -0.866475
29.400000 -0.815088
29.450000 -0.794532
29.500000 -0.773977
29.550000 -0.777402
29.600000 -0.842495
29.650000 -0.917864
29.700000 -0.986382
29.750000 -1.092584
29.800000 -1.202213
29.850000 -1.260453
29.900000 -1.281009
29.950000 -1.335823
30.000000 -1.400915
30.050000 -1.442025
30.100000 -1.455729
30.150000 -1.462580
30.200000 -1.472859
30.250000 -1.517395
30.300000 -1.592764
30.350000 -1.674986
30.400000 -1.760633
30.450000 -1.832577
30.500000 -1.866836
30.550000 -1.883965
30.600000 -1.901095
30.650000 -1.870261
30.700000 -1.770910
30.750000 -1.661282
30.800000 -1.527672
30.850000 -1.349527
30.900000 -1.178232
30.950000 -1.058325
31.000000 -0.962401
31.050000 -0.904161
31.100000 -0.917864
31.150000 -0.989808
31.200000 -1.072029
31.250000 -1.178231
31.300000 -1.332397
31.350000 -1.479710
31.400000 -1.575635
31.450000 -1.627023
31.500000 -1.644152
31.550000 -1.609894
31.600000 -1.517394
31.650000 -1.373507
31.700000 -1.202213
31.750000 -1.020640
31.800000 -0.863050
31.850000 -0.749995
31.900000 -0.657497
31.950000 -0.619812
32.000000 -0.647218
32.050000 -0.695181
32.100000 -0.773977
32.150000 -0.907586
32.200000 -1.027492
32.250000 -1.072029
32.300000 -1.106288
32.350000 -1.157676
32.400000 -1.150825
32.450000 -1.082307
32.500000 -1.024067
32.550000 -0.965827
32.600000 -0.876753
32.650000 -0.818513
32.700000 -0.832217
32.750000 -0.876753
32.800000 -0.921290
32.850000 -1.000085
32.900000 -1.133695
32.950000 -1.284435
33.000000 -1.404340
33.050000 -1.493414
33.100000 -1.565357
33.150000 -1.616745
33.200000 -1.616746
33.250000 -1.555080
33.300000 -1.459154
33.350000 -1.346100
33.400000 -1.236472
33.450000 -1.137121
33.500000 -1.034344
33.550000 -0.955549
33.600000 -0.928141
33.650000 -0.945271
33.700000 -1.010363
33.750000 -1.113140
33.800000 -1.209064
33.850000 -1.274156
33.900000 -1.346101
33.950000 -1.414618
34.000000 -1.445451
34.050000 -1.421470
34.100000 -1.359804
34.150000 -1.257027
34.200000 -1.126843
34.250000 -1.000085
34.300000 -0.938420
34.350000 -0.924716
34.400000 -0.928141
34.450000 -0.962401
34.500000 -1.061751
34.550000 -1.198787
34.600000 -1.311842
34.650000 -1.397488
34.700000 -1.496840
34.750000 -1.599616
34.800000 -1.664708
34.850000 -1.709245
34.900000 -1.760633
34.950000 -1.805170
35.000000 -1.822299
35.050000 -1.825725
35.100000 -1.839428
35.150000 -1.863409
35.200000 -1.866835
35.250000 -1.859984
35.300000 -1.842854
35.350000 -1.822299
35.400000 -1.788041
35.450000 -1.746929
35.500000 -1.698967
35.550000 -1.654431
35.600000 -1.623597
35.650000 -1.623597
35.700000 -1.644153
35.750000 -1.688689
35.800000 -1.753781
35.850000 -1.825725
35.900000 -1.887391
35.950000 -1.938779
36.000000 -1.983316
36.050000 -1.979890
36.100000 -1.935354
36.150000 -1.894243
36.200000 -1.839428
36.250000 -1.736652
36.300000 -1.620171
36.350000 -1.531098
36.400000 -1.452302
36.450000 -1.363230
36.500000 -1.318693
36.550000 -1.315267
36.600000 -1.301564
36.650000 -1.277583
36.700000 -1.281008
36.750000 -1.304990
36.800000 -1.322119
36.850000 -1.363230
36.900000 -1.448877
36.950000 -1.565357
37.000000 -1.695541
37.050000 -1.832577
37.100000 -1.959334
37.150000 -2.072389
37.200000 -2.154610
37.250000 -2.178591
37.300000 -2.154611
37.350000 -2.123778
37.400000 -2.048408
37.450000 -1.897669
37.500000 -1.726374
37.550000 -1.568783
37.600000 -1.383785
37.650000 -1.205639
37.700000 -1.099437
37.750000 -1.048048
37.800000 -1.006937
37.850000 -1.003511
37.900000 -1.078881
37.950000 -1.171380
38.000000 -1.236472
38.050000 -1.294712
38.100000 -1.363230
38.150000 -1.411192
38.200000 -1.428322
38.250000 -1.424896
38.300000 -1.380359
38.350000 -1.298137
38.400000 -1.212490
38.450000 -1.130269
38.500000 -1.030918
38.550000 -0.931568
38.600000 -0.845921
38.650000 -0.794531
38.700000 -0.797958
38.750000 -0.849346
38.800000 -0.887031
38.850000 -0.914438
38.900000 -0.962401
38.950000 -1.013789
39.000000 -1.030918
39.050000 -1.037771
39.100000 -1.072029
39.150000 -1.092584
39.200000 -1.092585
39.250000 -1.085733
39.300000 -1.102862
39.350000 -1.140547
39.400000 -1.209064
39.450000 -1.304990
39.500000 -1.414618
39.550000 -1.537950
39.600000 -1.647579
39.650000 -1.716097
39.700000 -1.757207
39.750000 -1.794892
39.800000 -1.801744
39.850000 -1.767484
39.900000 -1.716096
39.950000 -1.651004
40.000000 -1.558505
40.050000 -1.479710
40.100000 -1.424896
40.150000 -1.363230
40.200000 -1.294712
40.250000 -1.253601
40.300000 -1.226194
40.350000 -1.209065
40.400000 -1.202213
40.450000 -1.191935
40.500000 -1.188509
40.550000 -1.215916
40.600000 -1.243323
40.650000 -1.267304
40.700000 -1.342674
40.750000 -1.431747
40.800000 -1.472858
40.850000 -1.496839
40.900000 -1.579061
40.950000 -1.647579
41.000000 -1.661282
41.050000 -1.657857
41.100000 -1.668134
41.150000 -1.627023
41.200000 -1.544801
41.250000 -1.486561
41.300000 -1.448877
41.350000 -1.390637
41.400000 -1.342674
41.450000 -1.325545
41.500000 -1.315267
41.550000 -1.304989
41.600000 -1.335822
41.650000 -1.390637
41.700000 -1.421470
41.750000 -1.424895
41.800000 -1.424896
41.850000 -1.431747
41.900000 -1.445451
41.950000 -1.459154
42.000000 -1.455729
42.050000 -1.442025
42.100000 -1.442026
42.150000 -1.431748
42.200000 -1.400915
42.250000 -1.383785
42.300000 -1.383785
42.350000 -1.376934
42.400000 -1.363230
42.450000 -1.352952
42.500000 -1.349526
42.550000 -1.346100
42.600000 -1.349527
42.650000 -1.370082
42.700000 -1.414618
42.750000 -1.462580
42.800000 -1.489988
42.850000 -1.524247
42.900000 -1.548227
42.950000 -1.534525
43.000000 -1.496839
43.050000 -1.476284
43.100000 -1.455728
43.150000 -1.424896
43.200000 -1.411192
43.250000 -1.394063
43.300000 -1.339248
43.350000 -1.291286
43.400000 -1.287861
43.450000 -1.270730
43.500000 -1.246749
43.550000 -1.274157
43.600000 -1.301564
43.650000 -1.284434
43.700000 -1.267304
43.750000 -1.287860
43.800000 -1.298138
43.850000 -1.294712
43.900000 -1.308416
43.950000 -1.342674
44.000000 -1.366656
44.050000 -1.390637
44.100000 -1.438600
44.150000 -1.472858
44.200000 -1.476284
44.250000 -1.520821
44.300000 -1.609894
44.350000 -1.692115
44.400000 -1.740077
44.450000 -1.794892
44.500000 -1.863410
44.550000 -1.887391
44.600000 -1.873687
44.650000 -1.859984
44.700000 -1.815448
44.750000 -1.733226
44.800000 -1.633876
44.850000 -1.531098
44.900000 -1.424896
44.950000 -1.332397
45.000000 -1.270731
45.050000 -1.239898
45.100000 -1.215916
45.150000 -1.198787
45.200000 -1.209065
45.250000 -1.246750
45.300000 -1.291287
45.350000 -1.349526
45.400000 -1.424896
45.450000 -1.493414
45.500000 -1.537950
45.550000 -1.579060
45.600000 -1.596190
45.650000 -1.582487
45.700000 -1.555080
45.750000 -1.531099
45.800000 -1.469432
45.850000 -1.370082
45.900000 -1.260453
45.950000 -1.126843
46.000000 -0.934993
46.050000 -0.715737
46.100000 -0.513609
46.150000 -0.349166
46.200000 -0.212131
46.250000 -0.126484
46.300000 -0.133335
46.350000 -0.205279
46.400000 -0.301204
46.450000 -0.445092
46.500000 -0.643793
46.550000 -0.852772
46.600000 -1.027493
46.650000 -1.171380
46.700000 -1.294712
46.750000 -1.387211
46.800000 -1.404340
46.850000 -1.356378
46.900000 -1.291286
46.950000 -1.202213
47.000000 -1.048048
47.050000 -0.893883
47.100000 -0.828791
47.150000 -0.801384
47.200000 -0.756847
47.250000 -0.767125
47.300000 -0.876753
47.350000 -1.000085
47.400000 -1.140547
47.450000 -1.328970
47.500000 -1.524247
47.550000 -1.705819
47.600000 -1.918224
47.650000 -2.110073
47.700000 -2.223128
47.750000 -2.281368
47.800000 -2.301924
47.850000 -2.250536
47.900000 -2.158036
47.950000 -2.051833
48.000000 -1.897668
48.050000 -1.719523
48.100000 -1.565357
48.150000 -1.418044
48.200000 -1.260453
48.250000 -1.150825
48.300000 -1.092584
48.350000 -1.030918
48.400000 -0.979530
48.450000 -0.952123
48.500000 -0.921290
48.550000 -0.869902
48.600000 -0.835642
48.650000 -0.801383
48.700000 -0.743143
48.750000 -0.684904
48.800000 -0.664348
48.850000 -0.691756
48.900000 -0.791106
48.950000 -0.938420
49.000000 -1.078881
49.050000 -1.226195
49.100000 -1.414618
49.150000 -1.613320
49.200000 -1.774337
49.250000 -1.918224
49.300000 -2.031278
49.350000 -2.075815
49.400000 -2.075815
49.450000 -2.055259
49.500000 -1.983315
49.550000 -1.866836
49.600000 -1.805169
49.650000 -1.788040
49.700000 -1.757207
49.750000 -1.746929
49.800000 -1.784614
49.850000 -1.836002
49.900000 -1.890817
49.950000 -1.949057
50.000000 -1.983316
50.050000 -1.979890
50.100000 -1.979890
50.150000 -1.976464
50.200000 -1.935353
50.250000 -1.873687
50.300000 -1.798318
50.350000 -1.702393
50.400000 -1.609894
50.450000 -1.527672
50.500000 -1.431747
50.550000 -1.322119
50.600000 -1.233046
50.650000 -1.167954
50.700000 -1.126844
50.750000 -1.119991
50.800000 -1.154250
50.850000 -1.212490
50.900000 -1.294712
50.950000 -1.421470
51.000000 -1.582486
51.050000 -1.750355
51.100000 -1.901095
51.150000 -2.031278
51.200000 -2.127203
51.250000 -2.171740
51.300000 -2.188869
51.350000 -2.178592
51.400000 -2.120352
51.450000 -2.014149
51.500000 -1.921650
51.550000 -1.853132
51.600000 -1.784614
51.650000 -1.743504
51.700000 -1.764059
51.750000 -1.808595
51.800000 -1.859984
51.850000 -1.938780
51.900000 -2.038130
51.950000 -2.123777
52.000000 -2.161462
52.050000 -2.171740
52.100000 -2.164888
52.150000 -2.120352
52.200000 -2.021000
52.250000 -1.890817
52.300000 -1.743504
52.350000 -1.592764
52.400000 -1.435173
52.450000 -1.294712
52.500000 -1.185083
52.550000 -1.096010
52.600000 -1.041196
52.650000 -1.020641
52.700000 -1.034344
52.750000 -1.082307
52.800000 -1.150824
52.850000 -1.236472
52.900000 -1.349526
52.950000 -1.442025
53.000000 -1.493414
53.050000 -1.531098
53.100000 -1.565358
53.150000 -1.575635
53.200000 -1.558506
53.250000 -1.548228
53.300000 -1.537951
53.350000 -1.513969
53.400000 -1.479710
53.450000 -1.472858
53.500000 -1.489987
53.550000 -1.527673
53.600000 -1.582486
53.650000 -1.640727
53.700000 -1.698967
53.750000 -1.764059
53.800000 -1.818873
53.850000 -1.829151
53.900000 -1.815447
53.950000 -1.801744
54.000000 -1.753782
54.050000 -1.661283
54.100000 -1.572209
54.150000 -1.500266
54.200000 -1.418044
54.250000 -1.322119
54.300000 -1.253601
54.350000 -1.219343
54.400000 -1.202213
54.450000 -1.181658
54.500000 -1.181658
54.550000 -1.195361
54.600000 -1.191935
54.650000 -1.150825
54.700000 -1.092585
54.750000 -1.030919
54.800000 -0.965826
54.850000 -0.897309
54.900000 -0.832216
54.950000 -0.760273
55.000000 -0.684903
55.050000 -0.643793
55.100000 -0.650645
55.150000 -0.688329
55.200000 -0.715736
55.250000 -0.753421
55.300000 -0.818513
55.350000 -0.893883
55.400000 -0.952123
55.450000 -1.020641
55.500000 -1.109713
55.550000 -1.205639
55.600000 -1.291286
55.650000 -1.380359
55.700000 -1.493413
55.750000 -1.613320
55.800000 -1.716097
55.850000 -1.801743
55.900000 -1.890817
55.950000 -1.983316
56.000000 -2.034704
56.050000 -2.034704
56.100000 -2.041556
56.150000 -2.044982
56.200000 -2.000445
56.250000 -1.918224
56.300000 -1.853132
56.350000 -1.788040
56.400000 -1.698967
56.450000 -1.620172
56.500000 -1.585913
56.550000 -1.558506
56.600000 -1.531098
56.650000 -1.517394
56.700000 -1.517395
56.750000 -1.524247
56.800000 -1.534524
56.850000 -1.534524
56.900000 -1.544802
56.950000 -1.572209
57.000000 -1.603042
57.050000 -1.592764
57.100000 -1.555080
57.150000 -1.500266
57.200000 -1.431748
57.250000 -1.370082
57.300000 -1.318693
57.350000 -1.263879
57.400000 -1.219342
57.450000 -1.188509
57.500000 -1.174806
57.550000 -1.171380
57.600000 -1.198787
57.650000 -1.239897
57.700000 -1.253601
57.750000 -1.260453
57.800000 -1.287860
57.850000 -1.304990
57.900000 -1.284434
57.950000 -1.257027
58.000000 -1.222768
58.050000 -1.154250
58.100000 -1.072029
58.150000 -0.996659
58.200000 -0.945271
58.250000 -0.924715
58.300000 -0.931568
58.350000 -0.945271
58.400000 -0.986381
58.450000 -1.061752
58.500000 -1.140547
58.550000 -1.198787
58.600000 -1.281008
58.650000 -1.376933
58.700000 -1.431748
58.750000 -1.462581
58.800000 -1.493414
58.850000 -1.489988
58.900000 -1.462581
58.950000 -1.435173
59.000000 -1.404341
59.050000 -1.335823
59.100000 -1.281008
59.150000 -1.263879
59.200000 -1.233046
59.250000 -1.157677
59.300000 -1.133695
59.350000 -1.157676
59.400000 -1.157677
59.450000 -1.147399
59.500000 -1.181657
59.550000 -1.233046
59.600000 -1.257027
59.650000 -1.291286
59.700000 -1.346100
59.750000 -1.383785
59.800000 -1.383785
59.850000 -1.390637
59.900000 -1.418044
59.950000 -1.438600
60.000000 -1.455729
60.050000 -1.459155
60.100000 -1.462580
60.150000 -1.486562
60.200000 -1.513969
60.250000 -1.524246
60.300000 -1.531098
60.350000 -1.555080
60.400000 -1.548228
60.450000 -1.500265
60.500000 -1.462581
60.550000 -1.431748
60.600000 -1.366656
60.650000 -1.267305
60.700000 -1.191936
60.750000 -1.143973
60.800000 -1.096011
60.850000 -1.068603
60.900000 -1.075455
60.950000 -1.109714
61.000000 -1.150825
61.050000 -1.202213
61.100000 -1.267304
61.150000 -1.335823
61.200000 -1.376933
61.250000 -1.383785
61.300000 -1.394063
61.350000 -1.387211
61.400000 -1.359804
61.450000 -1.342675
61.500000 -1.366655
61.550000 -1.387211
61.600000 -1.387211
61.650000 -1.387211
61.700000 -1.411192
61.750000 -1.452303
61.800000 -1.493413
61.850000 -1.524247
61.900000 -1.551654
61.950000 -1.579061
62.000000 -1.592764
62.050000 -1.568783
62.100000 -1.493414
62.150000 -1.370082
62.200000 -1.229620
62.250000 -1.106288
62.300000 -0.989808
62.350000 -0.866476
62.400000 -0.784254
62.450000 -0.756847
62.500000 -0.760273
62.550000 -0.801384
62.600000 -0.914438
62.650000 -1.065177
62.700000 -1.215916
62.750000 -1.373507
62.800000 -1.527672
62.850000 -1.623598
62.900000 -1.681837
62.950000 -1.712671
63.000000 -1.644152
63.050000 -1.496839
63.100000 -1.352952
63.150000 -1.202213
63.200000 -1.027493
63.250000 -0.887031
63.300000 -0.825365
63.350000 -0.797957
63.400000 -0.787681
63.450000 -0.821939
63.500000 -0.900734
63.550000 -0.982956
63.600000 -1.065177
63.650000 -1.143973
63.700000 -1.212491
63.750000 -1.260453
63.800000 -1.281008
63.850000 -1.277582
63.900000 -1.267305
63.950000 -1.257027
64.000000 -1.267304
64.050000 -1.287860
64.100000 -1.281008
64.150000 -1.284434
64.200000 -1.328971
64.250000 -1.380359
64.300000 -1.418044
64.350000 -1.483136
64.400000 -1.555080
64.450000 -1.592764
64.500000 -1.620172
64.550000 -1.681837
64.600000 -1.719522
64.650000 -1.702393
64.700000 -1.681838
64.750000 -1.664708
64.800000 -1.623597
64.850000 -1.565357
64.900000 -1.479710
64.950000 -1.359804
65.000000 -1.233046
65.050000 -1.106288
65.100000 -0.976104
65.150000 -0.873328
65.200000 -0.832217
65.250000 -0.811662
65.300000 -0.787680
65.350000 -0.811661
65.400000 -0.890457
65.450000 -0.938419
65.500000 -0.962401
65.550000 -1.024067
65.600000 -1.116566
65.650000 -1.161102
65.700000 -1.195361
65.750000 -1.236472
65.800000 -1.250176
65.850000 -1.246749
65.900000 -1.274157
65.950000 -1.304990
66.000000 -1.315268
66.050000 -1.342675
66.100000 -1.390637
66.150000 -1.428322
66.200000 -1.438599
66.250000 -1.414618
66.300000 -1.373508
66.350000 -1.315267
66.400000 -1.250175
66.450000 -1.164528
66.500000 -1.116565
66.550000 -1.133695
66.600000 -1.167954
66.650000 -1.219342
66.700000 -1.332397
66.750000 -1.510543
66.800000 -1.698967
66.850000 -1.853132
66.900000 -1.986742
66.950000 -2.068963
67.000000 -2.068963
67.050000 -2.010723
67.100000 -1.907947
67.150000 -1.757207
67.200000 -1.579061
67.250000 -1.407767
67.300000 -1.243323
67.350000 -1.085733
67.400000 -0.982956
67.450000 -0.965827
67.500000 -1.003511
67.550000 -1.065177
67.600000 -1.137121
67.650000 -1.195361
67.700000 -1.236472
67.750000 -1.260453
67.800000 -1.263879
67.850000 -1.226194
67.900000 -1.174806
67.950000 -1.143973
68.000000 -1.133695
68.050000 -1.137121
68.100000 -1.181657
68.150000 -1.287860
68.200000 -1.418044
68.250000 -1.513969
68.300000 -1.603042
68.350000 -1.705819
68.400000 -1.774336
68.450000 -1.774337
68.500000 -1.733226
68.550000 -1.671560
68.600000 -1.561931
68.650000 -1.428322
68.700000 -1.318693
68.750000 -1.226195
68.800000 -1.167954
68.850000 -1.171380
68.900000 -1.202213
68.950000 -1.253601
69.000000 -1.332396
69.050000 -1.421469
69.100000 -1.489988
69.150000 -1.568783
69.200000 -1.627023
69.250000 -1.623597
69.300000 -1.585913
69.350000 -1.548228
69.400000 -1.469432
69.450000 -1.376933
69.500000 -1.328971
69.550000 -1.304989
69.600000 -1.267305
69.650000 -1.246750
69.700000 -1.246749
69.750000 -1.236472
69.800000 -1.253602
69.850000 -1.311842
69.900000 -1.383785
69.950000 -1.472858
70.000000 -1.592764
70.050000 -1.692115
70.100000 -1.750355
70.150000 -1.822299
70.200000 -1.904520
70.250000 -1.928502
70.300000 -1.911372
70.350000 -1.859984
70.400000 -1.743503
70.450000 -1.555080
70.500000 -1.363229
70.550000 -1.174806
70.600000 -0.976104
70.650000 -0.811661
70.700000 -0.726015
70.750000 -0.684903
70.800000 -0.684904
70.850000 -0.753421
70.900000 -0.859624
70.950000 -0.986382
71.000000 -1.116566
71.050000 -1.226194
71.100000 -1.304989
71.150000 -1.359804
71.200000 -1.383785
71.250000 -1.363230
71.300000 -1.322119
71.350000 -1.257027
71.400000 -1.157676
71.450000 -1.078881
71.500000 -1.058325
71.550000 -1.054899
71.600000 -1.065178
71.650000 -1.126843
71.700000 -1.226194
71.750000 -1.328971
71.800000 -1.442025
71.850000 -1.575635
71.900000 -1.702393
71.950000 -1.822299
72.000000 -1.969612
72.050000 -2.096370
72.100000 -2.144332
72.150000 -2.134055
72.200000 -2.103222
72.250000 -2.038130
72.300000 -1.942206
72.350000 -1.839428
72.400000 -1.702393
72.450000 -1.541376
72.500000 -1.383785
72.550000 -1.250175
72.600000 -1.137121
72.650000 -1.058325
72.700000 -1.041197
72.750000 -1.061752
72.800000 -1.123417
72.850000 -1.229620
72.900000 -1.363230
72.950000 -1.500265
73.000000 -1.647579
73.050000 -1.791466
73.100000 -1.883965
73.150000 -1.907946
73.200000 -1.859984
73.250000 -1.760633
73.300000 -1.637301
73.350000 -1.507117
73.400000 -1.359804
73.450000 -1.191936
73.500000 -1.051474
73.550000 -0.976104
73.600000 -0.952123
73.650000 -0.969252
73.700000 -1.044622
73.750000 -1.171379
73.800000 -1.294712
73.850000 -1.394063
73.900000 -1.466006
73.950000 -1.493414
74.000000 -1.469432
74.050000 -1.407767
74.100000 -1.325545
74.150000 -1.219343
74.200000 -1.085732
74.250000 -0.928142
74.300000 -0.811661
74.350000 -0.763699
74.400000 -0.760273
74.450000 -0.767125
74.500000 -0.804809
74.550000 -0.890457
74.600000 -1.000085
74.650000 -1.116566
74.700000 -1.239897
74.750000 -1.370082
74.800000 -1.500265
74.850000 -1.620171
74.900000 -1.733226
74.950000 -1.856558
75.000000 -1.993594
75.050000 -2.116926
75.100000 -2.199147
75.150000 -2.260813
75.200000 -2.298497
75.250000 -2.277942
75.300000 -2.209425
75.350000 -2.134055
75.400000 -2.048407
75.450000 -1.959334
75.500000 -1.894242
75.550000 -1.883965
75.600000 -1.897669
75.650000 -1.925076
75.700000 -2.000445
75.750000 -2.103222
75.800000 -2.175166
75.850000 -2.199147
75.900000 -2.185444
75.950000 -2.116925
76.000000 -1.969612
76.050000 -1.757207
76.100000 -1.510543
76.150000 -1.250176
76.200000 -0.996660
76.250000 -0.784254
76.300000 -0.616386
76.350000 -0.510183
76.400000 -0.503331
76.450000 -0.592404
76.500000 -0.746570
76.550000 -0.965827
76.600000 -1.215917
76.650000 -1.442025
76.700000 -1.651005
76.750000 -1.856558
76.800000 -1.993594
76.850000 -2.034704
76.900000 -2.038130
76.950000 -2.024427
77.000000 -1.955909
77.050000 -1.846280
77.100000 -1.750356
77.150000 -1.654431
77.200000 -1.544802
77.250000 -1.445451
77.300000 -1.387211
77.350000 -1.363230
77.400000 -1.363230
77.450000 -1.390637
77.500000 -1.435173
77.550000 -1.476284
77.600000 -1.493413
77.650000 -1.503691
77.700000 -1.503692
77.750000 -1.483136
77.800000 -1.455729
77.850000 -1.428321
77.900000 -1.390637
77.950000 -1.332397
78.000000 -1.294712
78.050000 -1.287860
78.100000 -1.287861
78.150000 -1.322119
78.200000 -1.390637
78.250000 -1.438599
78.300000 -1.459155
78.350000 -1.503691
78.400000 -1.503691
78.450000 -1.411192
78.500000 -1.294712
78.550000 -1.198787
78.600000 -1.092585
78.650000 -0.955549
78.700000 -0.825365
78.750000 -0.753421
78.800000 -0.749995
78.850000 -0.794532
78.900000 -0.876754
78.950000 -1.006937
79.000000 -1.171380
79.050000 -1.322119
79.100000 -1.448877
79.150000 -1.558506
79.200000 -1.613319
79.250000 -1.592764
79.300000 -1.537950
79.350000 -1.448877
79.400000 -1.308415
79.450000 -1.161103
79.500000 -1.051473
79.550000 -0.965826
79.600000 -0.904161
79.650000 -0.893883
79.700000 -0.945271
79.750000 -1.044622
79.800000 -1.178232
79.850000 -1.335822
79.900000 -1.472858
79.950000 -1.568783
80.000000 -1.620171
80.050000 -1.620172
80.100000 -1.582487
80.150000 -1.500266
80.200000 -1.359804
80.250000 -1.181658
80.300000 -1.037770
80.350000 -0.934993
80.400000 -0.821939
80.450000 -0.715736
80.500000 -0.681478
80.550000 -0.708885
80.600000 -0.736292
80.650000 -0.767125
80.700000 -0.818513
80.750000 -0.856198
80.800000 -0.876754
80.850000 -0.883606
80.900000 -0.866476
80.950000 -0.842495
81.000000 -0.835643
81.050000 -0.849346
81.100000 -0.849346
81.150000 -0.835643
81.200000 -0.832217
81.250000 -0.832217
81.300000 -0.828791
81.350000 -0.828791
81.400000 -0.828791
81.450000 -0.832217
81.500000 -0.856198
81.550000 -0.890457
81.600000 -0.928142
81.650000 -0.972678
81.700000 -1.027492
81.750000 -1.099436
81.800000 -1.198787
81.850000 -1.298138
81.900000 -1.383785
81.950000 -1.459155
82.000000 -1.524246
82.050000 -1.582487
82.100000 -1.623598
82.150000 -1.654431
82.200000 -1.668134
82.250000 -1.647579
82.300000 -1.585913
82.350000 -1.520821
82.400000 -1.459155
82.450000 -1.383785
82.500000 -1.308415
82.550000 -1.253601
82.600000 -1.191935
82.650000 -1.123417
82.700000 -1.072029
82.750000 -1.030919
82.800000 -1.006937
82.850000 -1.034345
82.900000 -1.096011
82.950000 -1.154250
83.000000 -1.219342
83.050000 -1.304990
83.100000 -1.383785
83.150000 -1.462581
83.200000 -1.551654
83.250000 -1.613320
83.300000 -1.620171
83.350000 -1.609893
83.400000 -1.565357
83.450000 -1.496839
83.500000 -1.414619
83.550000 -1.325545
83.600000 -1.209065
83.650000 -1.119992
83.700000 -1.075455
83.750000 -1.034344
83.800000 -0.993234
83.850000 -0.993234
83.900000 -1.030918
83.950000 -1.082307
84.000000 -1.140547
84.050000 -1.209065
84.100000 -1.291286
84.150000 -1.376933
84.200000 -1.452302
84.250000 -1.476284
84.300000 -1.452303
84.350000 -1.435173
84.400000 -1.424896
84.450000 -1.373507
84.500000 -1.267305
84.550000 -1.157676
84.600000 -1.048048
84.650000 -0.928142
84.700000 -0.839069
84.750000 -0.770550
84.800000 -0.691756
84.850000 -0.664349
84.900000 -0.743143
84.950000 -0.859624
85.000000 -0.969252
85.050000 -1.123418
85.100000 -1.328971
85.150000 -1.510543
85.200000 -1.633875
85.250000 -1.716096
85.300000 -1.743504
85.350000 -1.698967
85.400000 -1.592764
85.450000 -1.424896
85.500000 -1.243324
85.550000 -1.075455
85.600000 -0.917864
85.650000 -0.787680
85.700000 -0.726014
85.750000 -0.715736
85.800000 -0.763699
85.850000 -0.863050
85.900000 -0.969252
85.950000 -1.058325
86.000000 -1.150824
86.050000 -1.212490
86.100000 -1.243323
86.150000 -1.267305
86.200000 -1.298138
86.250000 -1.294712
86.300000 -1.284434
86.350000 -1.301564
86.400000 -1.352953
86.450000 -1.414618
86.500000 -1.455729
86.550000 -1.500266
86.600000 -1.565358
86.650000 -1.620171
86.700000 -1.623597
86.750000 -1.623598
86.800000 -1.623598
86.850000 -1.555079
86.900000 -1.448877
86.950000 -1.390637
87.000000 -1.342675
87.050000 -1.253601
87.100000 -1.181658
87.150000 -1.147399
87.200000 -1.109714
87.250000 -1.082307
87.300000 -1.092584
87.350000 -1.096011
87.400000 -1.075455
87.450000 -1.065178
87.500000 -1.075455
87.550000 -1.061751
87.600000 -1.065177
87.650000 -1.113140
87.700000 -1.157676
87.750000 -1.174806
87.800000 -1.209064
87.850000 -1.263879
87.900000 -1.294712
87.950000 -1.281008
88.000000 -1.270730
88.050000 -1.222768
88.100000 -1.116566
88.150000 -1.020641
88.200000 -0.938419
88.250000 -0.797958
88.300000 -0.636942
88.350000 -0.530738
88.400000 -0.472498
88.450000 -0.448517
88.500000 -0.479350
88.550000 -0.544442
88.600000 -0.633515
88.650000 -0.756847
88.700000 -0.904161
88.750000 -1.048048
88.800000 -1.195361
88.850000 -1.298137
88.900000 -1.339249
88.950000 -1.356378
89.000000 -1.383785
89.050000 -1.363230
89.100000 -1.304989
89.150000 -1.267305
89.200000 -1.222768
89.250000 -1.147399
89.300000 -1.102862
89.350000 -1.089158
89.400000 -1.068604
89.450000 -1.048047
89.500000 -1.020640
89.550000 -0.969253
89.600000 -0.938419
89.650000 -0.955549
89.700000 -0.945271
89.750000 -0.928142
89.800000 -0.986381
89.850000 -1.082306
89.900000 -1.154250
89.950000 -1.243323
90.000000 -1.404340
90.050000 -1.565357
90.100000 -1.685264
90.150000 -1.798318
90.200000 -1.883965
90.250000 -1.887391
90.300000 -1.846281
90.350000 -1.753781
90.400000 -1.579061
90.450000 -1.363230
90.500000 -1.157677
90.550000 -0.952123
90.600000 -0.746569
90.650000 -0.595830
90.700000 -0.510183
90.750000 -0.445092
90.800000 -0.434814
90.850000 -0.503331
90.900000 -0.630090
90.950000 -0.787681
91.000000 -0.945271
91.050000 -1.092585
91.100000 -1.229620
91.150000 -1.359804
91.200000 -1.459155
91.250000 -1.524247
91.300000 -1.548228
91.350000 -1.524246
91.400000 -1.448877
91.450000 -1.373507
91.500000 -1.328971
91.550000 -1.291286
91.600000 -1.239898
91.650000 -1.195361
91.700000 -1.171380
91.750000 -1.185083
91.800000 -1.239898
91.850000 -1.325545
91.900000 -1.424896
91.950000 -1.527672
92.000000 -1.620171
92.050000 -1.668134
92.100000 -1.702393
92.150000 -1.716096
92.200000 -1.671560
92.250000 -1.582487
92.300000 -1.479710
92.350000 -1.356378
92.400000 -1.215917
92.450000 -1.092585
92.500000 -1.013789
92.550000 -0.972678
92.600000 -0.969252
92.650000 -1.006937
92.700000 -1.089159
92.750000 -1.188509
92.800000 -1.291286
92.850000 -1.400915
92.900000 -1.496839
92.950000 -1.568783
93.000000 -1.609894
93.050000 -1.640727
93.100000 -1.674986
93.150000 -1.685263
93.200000 -1.678412
93.250000 -1.688690
93.300000 -1.726374
93.350000 -1.757207
93.400000 -1.764059
93.450000 -1.774337
93.500000 -1.815447
93.550000 -1.849706
93.600000 -1.856557
93.650000 -1.839429
93.700000 -1.801744
93.750000 -1.729800
93.800000 -1.623598
93.850000 -1.496839
93.900000 -1.342675
93.950000 -1.178232
94.000000 -1.044622
94.050000 -0.952123
94.100000 -0.880179
94.150000 -0.845921
94.200000 -0.887031
94.250000 -0.979530
94.300000 -1.092584
94.350000 -1.212491
94.400000 -1.328970
94.450000 -1.421470
94.500000 -1.489987
94.550000 -1.527673
94.600000 -1.507117
94.650000 -1.438599
94.700000 -1.349526
94.750000 -1.219342
94.800000 -1.051474
94.850000 -0.921290
94.900000 -0.825365
94.950000 -0.719162
95.000000 -0.633515
95.050000 -0.619812
95.100000 -0.657496
95.150000 -0.691755
95.200000 -0.739718
95.250000 -0.828791
95.300000 -0.931568
95.350000 -1.027492
95.400000 -1.137121
95.450000 -1.263878
95.500000 -1.390636
95.550000 -1.486562
95.600000 -1.555080
95.650000 -1.575634
95.700000 -1.558505
95.750000 -1.496839
95.800000 -1.404341
95.850000 -1.298137
95.900000 -1.185084
95.950000 -1.054900
96.000000 -0.941846
96.050000 -0.873327
96.100000 -0.828791
96.150000 -0.777402
96.200000 -0.763699
96.250000 -0.808235
96.300000 -0.869902
96.350000 -0.924716
96.400000 -0.989808
96.450000 -1.037770
96.500000 -1.041196
96.550000 -1.034344
96.600000 -1.051474
96.650000 -1.072029
96.700000 -1.096010
96.750000 -1.154250
96.800000 -1.233046
96.850000 -1.304990
96.900000 -1.387211
96.950000 -1.496840
97.000000 -1.589339
97.050000 -1.657856
97.100000 -1.722948
97.150000 -1.770911
97.200000 -1.781189
97.250000 -1.781189
97.300000 -1.770910
97.350000 -1.719522
97.400000 -1.637301
97.450000 -1.561932
97.500000 -1.493414
97.550000 -1.414618
97.600000 -1.332396
97.650000 -1.281008
97.700000 -1.243324
97.750000 -1.222768
97.800000 -1.212491
97.850000 -1.205639
97.900000 -1.198787
97.950000 -1.195361
98.000000 -1.198787
98.050000 -1.212491
98.100000 -1.243324
98.150000 -1.287860
98.200000 -1.332397
98.250000 -1.383785
98.300000 -1.455729
98.350000 -1.537950
98.400000 -1.589338
98.450000 -1.592764
98.500000 -1.582487
98.550000 -1.548228
98.600000 -1.486562
98.650000 -1.397489
98.700000 -1.291286
98.750000 -1.174805
98.800000 -1.061751
98.850000 -0.982956
98.900000 -0.945271
98.950000 -0.938420
99.000000 -0.965826
99.050000 -1.044622
99.100000 -1.147398
99.150000 -1.243324
99.200000 -1.346100
99.250000 -1.445451
99.300000 -1.500265
99.350000 -1.496840
99.400000 -1.466007
99.450000 -1.390637
99.500000 -1.270731
99.550000 -1.137121
99.600000 -1.003511
99.650000 -0.869901
99.700000 -0.770551
99.750000 -0.719163
99.800000 -0.708885
99.850000 -0.736292
99.900000 -0.818513
99.950000 -0.931567
100.000000 -1.068603
100.050000 -1.198787
100.100000 -1.304989
100.150000 -1.407766
100.200000 -1.507117
100.250000 -1.555079
100.300000 -1.541376
100.350000 -1.503691
100.400000 -1.431748
100.450000 -1.315267
100.500000 -1.181657
100.550000 -1.048048
100.600000 -0.924716
100.650000 -0.849346
100.700000 -0.845920
100.750000 -0.880179
100.800000 -0.931568
100.850000 -1.024066
100.900000 -1.137121
100.950000 -1.229620
101.000000 -1.311841
101.050000 -1.356378
101.100000 -1.366656
101.150000 -1.387211
101.200000 -1.376933
101.250000 -1.291286
101.300000 -1.219343
101.350000 -1.205638
101.400000 -1.181657
101.450000 -1.137121
101.500000 -1.143973
101.550000 -1.202213
101.600000 -1.260453
101.650000 -1.315268
101.700000 -1.394063
101.750000 -1.462580
101.800000 -1.489988
101.850000 -1.472858
101.900000 -1.428322
101.950000 -1.359804
102.000000 -1.257027
102.050000 -1.143973
102.100000 -1.065177
102.150000 -1.010363
102.200000 -0.948697
102.250000 -0.924716
102.300000 -0.958974
102.350000 -1.006937
102.400000 -1.048048
102.450000 -1.092585
102.500000 -1.130269
102.550000 -1.150824
102.600000 -1.150825
102.650000 -1.102862
102.700000 -1.003512
102.750000 -0.907586
102.800000 -0.815088
102.850000 -0.698607
102.900000 -0.568423
102.950000 -0.499905
103.000000 -0.489628
103.050000 -0.523886
103.100000 -0.606108
103.150000 -0.743143
103.200000 -0.914439
103.250000 -1.092584
103.300000 -1.304990
103.350000 -1.524247
103.400000 -1.678411
103.450000 -1.757207
103.500000 -1.805170
103.550000 -1.798317
103.600000 -1.698967
103.650000 -1.537950
103.700000 -1.359804
103.750000 -1.178232
103.800000 -0.996660
103.850000 -0.832217
103.900000 -0.684903
103.950000 -0.564998
104.000000 -0.479350
104.050000 -0.427961
104.100000 -0.424536
104.150000 -0.451943
104.200000 -0.451943
104.250000 -0.434814
104.300000 -0.465646
104.350000 -0.520461
104.400000 -0.541016
104.450000 -0.558145
104.500000 -0.609534
104.550000 -0.674626
104.600000 -0.729440
104.650000 -0.780828
104.700000 -0.839068
104.750000 -0.917864
104.800000 -0.989808
104.850000 -1.000085
104.900000 -0.993233
104.950000 -1.017215
105.000000 -1.044622
105.050000 -1.013789
105.100000 -0.955549
105.150000 -0.931568
105.200000 -0.914438
105.250000 -0.880179
105.300000 -0.873328
105.350000 -0.900735
105.400000 -0.934993
105.450000 -0.965827
105.500000 -1.006937
105.550000 -1.041196
105.600000 -1.051474
105.650000 -1.044622
105.700000 -1.020641
105.750000 -0.993234
105.800000 -0.989808
105.850000 -0.979530
105.900000 -0.948697
105.950000 -0.945271
106.000000 -0.945271
106.050000 -0.897309
106.100000 -0.842495
106.150000 -0.839068
106.200000 -0.849346
106.250000 -0.811662
106.300000 -0.780829
106.350000 -0.797958
106.400000 -0.835643
106.450000 -0.873328
106.500000 -0.921290
106.550000 -0.976105
106.600000 -1.051474
106.650000 -1.161103
106.700000 -1.250175
106.750000 -1.298138
106.800000 -1.346100
106.850000 -1.428321
106.900000 -1.489988
106.950000 -1.520821
107.000000 -1.551654
107.050000 -1.565358
107.100000 -1.534524
107.150000 -1.493414
107.200000 -1.442025
107.250000 -1.380359
107.300000 -1.294712
107.350000 -1.191935
107.400000 -1.085733
107.450000 -0.972678
107.500000 -0.856198
107.550000 -0.732866
107.600000 -0.633515
107.650000 -0.578701
107.700000 -0.561572
107.750000 -0.599256
107.800000 -0.678052
107.850000 -0.739717
107.900000 -0.791106
107.950000 -0.856198
108.000000 -0.924716
108.050000 -0.952123
108.100000 -0.962401
108.150000 -0.972678
108.200000 -0.969252
108.250000 -0.938420
108.300000 -0.938419
108.350000 -0.965827
108.400000 -0.976104
108.450000 -0.979530
108.500000 -1.037770
108.550000 -1.116566
108.600000 -1.167954
108.650000 -1.181657
108.700000 -1.181657
108.750000 -1.167954
108.800000 -1.123417
108.850000 -1.048047
108.900000 -0.958975
108.950000 -0.887031
109.000000 -0.811661
109.050000 -0.736292
109.100000 -0.695182
109.150000 -0.684903
109.200000 -0.674626
109.250000 -0.684904
109.300000 -0.743144
109.350000 -0.797958
109.400000 -0.832217
109.450000 -0.880179
109.500000 -0.945271
109.550000 -0.979531
109.600000 -0.979530
109.650000 -0.993233
109.700000 -1.000085
109.750000 -0.965826
109.800000 -0.911013
109.850000 -0.883605
109.900000 -0.883605
109.950000 -0.883605
110.000000 -0.887031
110.050000 -0.917864
110.100000 -0.979530
110.150000 -1.068603
110.200000 -1.143973
110.250000 -1.185084
110.300000 -1.222768
110.350000 -1.263879
110.400000 -1.267305
110.450000 -1.239898
110.500000 -1.188509
110.550000 -1.126843
110.600000 -1.065178
110.650000 -0.993233
110.700000 -0.897309
110.750000 -0.804809
110.800000 -0.760273
110.850000 -0.739718
110.900000 -0.726014
110.950000 -0.756847
111.000000 -0.828791
111.050000 -0.904161
111.100000 -0.979530
111.150000 -1.068603
111.200000 -1.167954
111.250000 -1.263878
111.300000 -1.376933
111.350000 -1.483136
111.400000 -1.575635
111.450000 -1.657856
111.500000 -1.712671
111.550000 -1.740078
111.600000 -1.760633
111.650000 -1.781189
111.700000 -1.781189
111.750000 -1.774337
111.800000 -1.764059
111.850000 -1.736652
111.900000 -1.705819
111.950000 -1.685264
112.000000 -1.661282
112.050000 -1.644152
112.100000 -1.644153
112.150000 -1.647579
112.200000 -1.661283
112.250000 -1.692115
112.300000 -1.692115
112.350000 -1.623597
112.400000 -1.579061
112.450000 -1.589338
112.500000 -1.568783
112.550000 -1.479710
112.600000 -1.390637
112.650000 -1.339249
112.700000 -1.284434
112.750000 -1.209065
112.800000 -1.143973
112.850000 -1.092584
112.900000 -1.048048
112.950000 -1.003511
113.000000 -0.952123
113.050000 -0.893883
113.100000 -0.849346
113.150000 -0.835642
113.200000 -0.808236
113.250000 -0.780829
113.300000 -0.770551
113.350000 -0.801383
113.400000 -0.856198
113.450000 -0.911012
113.500000 -0.979530
113.550000 -1.078881
113.600000 -1.198787
113.650000 -1.304989
113.700000 -1.390637
113.750000 -1.486562
113.800000 -1.589339
113.850000 -1.678411
113.900000 -1.722948
113.950000 -1.736652
114.000000 -1.740077
114.050000 -1.736652
114.100000 -1.698967
114.150000 -1.627024
114.200000 -1.548227
114.250000 -1.472859
114.300000 -1.414618
114.350000 -1.352952
114.400000 -1.287861
114.450000 -1.250175
114.500000 -1.246750
114.550000 -1.233046
114.600000 -1.171380
114.650000 -1.082306
114.700000 -1.006937
114.750000 -0.931567
114.800000 -0.839068
114.850000 -0.736292
114.900000 -0.664348
114.950000 -0.609534
115.000000 -0.558146
115.050000 -0.530739
115.100000 -0.534165
115.150000 -0.568423
115.200000 -0.599256
115.250000 -0.616385
115.300000 -0.630089
115.350000 -0.660923
115.400000 -0.698607
115.450000 -0.719162
115.500000 -0.763699
115.550000 -0.863050
115.600000 -0.976104
115.650000 -1.072029
115.700000 -1.178232
115.750000 -1.325545
115.800000 -1.483136
115.850000 -1.599616
115.900000 -1.664708
115.950000 -1.695541
116.000000 -1.702393
116.050000 -1.671559
116.100000 -1.603042
116.150000 -1.486561
116.200000 -1.366656
116.250000 -1.277582
116.300000 -1.222768
116.350000 -1.161102
116.400000 -1.092584
116.450000 -1.065178
116.500000 -1.085732
116.550000 -1.092585
116.600000 -1.089158
116.650000 -1.078881
116.700000 -1.085733
116.750000 -1.099436
116.800000 -1.096010
116.850000 -1.092584
116.900000 -1.106288
116.950000 -1.137121
117.000000 -1.164528
117.050000 -1.157676
117.100000 -1.119991
117.150000 -1.072030
117.200000 -1.006937
117.250000 -0.921290
117.300000 -0.828791
117.350000 -0.749996
117.400000 -0.678052
117.450000 -0.619812
117.500000 -0.606108
117.550000 -0.623237
117.600000 -0.674625
117.650000 -0.791106
117.700000 -0.958975
117.750000 -1.137121
117.800000 -1.308416
117.850000 -1.472858
117.900000 -1.640727
117.950000 -1.757207
118.000000 -1.801744
118.050000 -1.805169
118.100000 -1.815447
118.150000 -1.788040
118.200000 -1.712671
118.250000 -1.654431
118.300000 -1.627023
118.350000 -1.572209
118.400000 -1.472859
118.450000 -1.407766
118.500000 -1.418044
118.550000 -1.462581
118.600000 -1.476284
118.650000 -1.459154
118.700000 -1.435173
118.750000 -1.414618
118.800000 -1.373507
118.850000 -1.304990
118.900000 -1.236472
118.950000 -1.191936
119.000000 -1.126843
119.050000 -1.041196
119.100000 -0.976104
119.150000 -0.945271
119.200000 -0.921290
119.250000 -0.897309
119.300000 -0.907586
119.350000 -0.948697
119.400000 -0.993233
119.450000 -1.034344
119.500000 -1.082306
119.550000 -1.130269
119.600000 -1.143973
119.650000 -1.143973
119.700000 -1.147399
119.750000 -1.130270
119.800000 -1.078881
119.850000 -1.024066
119.900000 -0.979530
119.950000 -0.934993
120.000000 -0.890457
120.050000 -0.869902
120.100000 -0.869901
120.150000 -0.904160
120.200000 -0.955549
120.250000 -1.003512
120.300000 -1.061751
120.350000 -1.137121
120.400000 -1.181657
120.450000 -1.188509
120.500000 -1.178232
120.550000 -1.140547
120.600000 -1.048048
120.650000 -0.945271
120.700000 -0.849347
120.750000 -0.763699
120.800000 -0.698608
120.850000 -0.698607
120.900000 -0.749995
120.950000 -0.839069
121.000000 -0.941845
121.050000 -1.065177
121.100000 -1.209064
121.150000 -1.339249
121.200000 -1.435173
121.250000 -1.503691
121.300000 -1.558505
121.350000 -1.585912
121.400000 -1.555079
121.450000 -1.507118
121.500000 -1.466006
121.550000 -1.411192
121.600000 -1.311841
121.650000 -1.250176
121.700000 -1.267304
121.750000 -1.287860
121.800000 -1.270731
121.850000 -1.257027
121.900000 -1.284434
121.950000 -1.308415
122.000000 -1.315268
122.050000 -1.318693
122.100000 -1.325545
122.150000 -1.325545
122.200000 -1.311842
122.250000 -1.304989
122.300000 -1.298138
122.350000 -1.287860
122.400000 -1.287860
122.450000 -1.304990
122.500000 -1.315268
122.550000 -1.291286
122.600000 -1.246749
122.650000 -1.222768
122.700000 -1.215917
122.750000 -1.202213
122.800000 -1.167954
122.850000 -1.109714
122.900000 -1.034344
122.950000 -0.965827
123.000000 -0.904161
123.050000 -0.815088
123.100000 -0.749995
123.150000 -0.739718
123.200000 -0.743144
123.250000 -0.722588
123.300000 -0.729440
123.350000 -0.797957
123.400000 -0.890457
123.450000 -0.972679
123.500000 -1.068603
123.550000 -1.174806
123.600000 -1.260453
123.650000 -1.322119
123.700000 -1.383785
123.750000 -1.448877
123.800000 -1.469432
123.850000 -1.442025
123.900000 -1.407766
123.950000 -1.380359
124.000000 -1.304990
124.050000 -1.178232
124.100000 -1.072029
124.150000 -1.017215
124.200000 -0.976104
124.250000 -0.934994
124.300000 -0.928142
124.350000 -0.965827
124.400000 -1.020641
124.450000 -1.085733
124.500000 -1.164528
124.550000 -1.257027
124.600000 -1.342674
124.650000 -1.394063
124.700000 -1.390637
124.750000 -1.352952
124.800000 -1.298138
124.850000 -1.205639
124.900000 -1.092584
124.950000 -0.972678
125.000000 -0.856198
125.050000 -0.777403
125.100000 -0.770551
125.150000 -0.791106
125.200000 -0.818513
125.250000 -0.863050
125.300000 -0.955548
125.350000 -1.061752
125.400000 -1.154251
125.450000 -1.246750
125.500000 -1.322119
125.550000 -1.342674
125.600000 -1.335823
125.650000 -1.318693
125.700000 -1.267305
125.750000 -1.191936
125.800000 -1.106288
125.850000 -1.020640
125.900000 -0.928141
125.950000 -0.839069
126.000000 -0.780828
126.050000 -0.749996
126.100000 -0.763699
126.150000 -0.821939
126.200000 -0.900735
126.250000 -0.986382
126.300000 -1.085733
126.350000 -1.191935
126.400000 -1.277582
126.450000 -1.335822
126.500000 -1.387211
126.550000 -1.428322
126.600000 -1.424896
126.650000 -1.404340
126.700000 -1.394063
126.750000 -1.404340
126.800000 -1.404341
126.850000 -1.421470
126.900000 -1.455728
126.950000 -1.493413
127.000000 -1.513969
127.050000 -1.517395
127.100000 -1.527672
127.150000 -1.524246
127.200000 -1.493413
127.250000 -1.428321
127.300000 -1.370081
127.350000 -1.332396
127.400000 -1.304990
127.450000 -1.277582
127.500000 -1.281009
127.550000 -1.315268
127.600000 -1.352952
127.650000 -1.359804
127.700000 -1.370082
127.750000 -1.397489
127.800000 -1.383785
127.850000 -1.308415
127.900000 -1.222769
127.950000 -1.164528
128.000000 -1.092584
128.050000 -1.020640
128.100000 -0.996659
128.150000 -1.017215
128.200000 -1.054899
128.250000 -1.137121
128.300000 -1.260453
128.350000 -1.376933
128.400000 -1.476284
128.450000 -1.551654
128.500000 -1.579061
128.550000 -1.537950
128.600000 -1.479710
128.650000 -1.424896
128.700000 -1.342674
128.750000 -1.243324
128.800000 -1.161103
128.850000 -1.099436
128.900000 -1.109714
128.950000 -1.191935
129.000000 -1.281008
129.050000 -1.346100
129.100000 -1.421470
129.150000 -1.479710
129.200000 -1.472858
129.250000 -1.424896
129.300000 -1.346100
129.350000 -1.205638
129.400000 -1.017215
129.450000 -0.852773
129.500000 -0.695181
129.550000 -0.547867
129.600000 -0.455368
129.650000 -0.469072
129.700000 -0.547868
129.750000 -0.674626
129.800000 -0.876753
129.850000 -1.123418
129.900000 -1.366655
129.950000 -1.589338
130.000000 -1.801744
130.050000 -1.979890
130.100000 -2.079241
130.150000 -2.099796
130.200000 -2.068963
130.250000 -2.007297
130.300000 -1.866835
130.350000 -1.664708
130.400000 -1.479710
130.450000 -1.322119
130.500000 -1.157676
130.550000 -1.003512
130.600000 -0.883605
130.650000 -0.777403
130.700000 -0.715736
130.750000 -0.712311
130.800000 -0.708885
130.850000 -0.695182
130.900000 -0.732866
130.950000 -0.808235
131.000000 -0.845920
131.050000 -0.859624
131.100000 -0.900735
131.150000 -0.917864
131.200000 -0.900734
131.250000 -0.876753
131.300000 -0.845920
131.350000 -0.797958
131.400000 -0.784255
131.450000 -0.811661
131.500000 -0.849346
131.550000 -0.900735
131.600000 -1.013789
131.650000 -1.150825
131.700000 -1.294712
131.750000 -1.469432
131.800000 -1.633875
131.850000 -1.740078
131.900000 -1.805170
131.950000 -1.859984
132.000000 -1.846281
132.050000 -1.781188
132.100000 -1.698967
132.150000 -1.599616
132.200000 -1.469433
132.250000 -1.359804
132.300000 -1.281008
132.350000 -1.222769
132.400000 -1.188510
132.450000 -1.171380
132.500000 -1.154250
132.550000 -1.174806
132.600000 -1.257027
132.650000 -1.318693
132.700000 -1.325545
132.750000 -1.339248
132.800000 -1.373508
132.850000 -1.380359
132.900000 -1.352952
132.950000 -1.335823
133.000000 -1.318693
133.050000 -1.281008
133.100000 -1.209065
133.150000 -1.116565
133.200000 -1.041196
133.250000 -0.972678
133.300000 -0.883605
133.350000 -0.773976
133.400000 -0.691755
133.450000 -0.630089
133.500000 -0.585553
133.550000 -0.561571
133.600000 -0.554720
133.650000 -0.568423
133.700000 -0.612960
133.750000 -0.671200
133.800000 -0.715737
133.850000 -0.780828
133.900000 -0.852772
133.950000 -0.900734
134.000000 -0.955549
134.050000 -1.030919
134.100000 -1.058325
134.150000 -1.037770
134.200000 -1.013789
134.250000 -0.989808
134.300000 -0.924715
134.350000 -0.825365
134.400000 -0.705458
134.450000 -0.575275
134.500000 -0.465647
134.550000 -0.376574
134.600000 -0.284074
134.650000 -0.208705
134.700000 -0.201853
134.750000 -0.253242
134.800000 -0.321760
134.850000 -0.414258
134.900000 -0.537590
134.950000 -0.654071
135.000000 -0.743144
135.050000 -0.832217
135.100000 -0.900735
135.150000 -0.911012
135.200000 -0.869902
135.250000 -0.804809
135.300000 -0.729440
135.350000 -0.640366
135.400000 -0.571849
135.450000 -0.527313
135.500000 -0.527313
135.550000 -0.564998
135.600000 -0.643793
135.650000 -0.743143
135.700000 -0.842495
135.750000 -0.965826
135.800000 -1.109713
135.850000 -1.233046
135.900000 -1.322119
135.950000 -1.404341
136.000000 -1.479710
136.050000 -1.503691
136.100000 -1.455729
136.150000 -1.387211
136.200000 -1.294712
136.250000 -1.154251
136.300000 -1.003512
136.350000 -0.883605
136.400000 -0.756847
136.450000 -0.606108
136.500000 -0.496479
136.550000 -0.427962
136.600000 -0.352592
136.650000 -0.311482
136.700000 -0.352592
136.750000 -0.434814
136.800000 -0.527313
136.850000 -0.664349
136.900000 -0.828791
136.950000 -0.979530
137.000000 -1.116566
137.050000 -1.250175
137.100000 -1.352952
137.150000 -1.424896
137.200000 -1.472858
137.250000 -1.469433
137.300000 -1.400914
137.350000 -1.322119
137.400000 -1.250176
137.450000 -1.154251
137.500000 -1.068603
137.550000 -1.024067
137.600000 -1.020641
137.650000 -1.048047
137.700000 -1.119992
137.750000 -1.212490
137.800000 -1.284434
137.850000 -1.373507
137.900000 -1.496840
137.950000 -1.603042
138.000000 -1.640727
138.050000 -1.620172
138.100000 -1.544801
138.150000 -1.390637
138.200000 -1.164529
138.250000 -0.900735
138.300000 -0.640367
138.350000 -0.400555
138.400000 -0.195001
138.450000 -0.054540
138.500000 -0.016855
138.550000 -0.081946
138.600000 -0.225834
138.650000 -0.455369
138.700000 -0.770551
138.750000 -1.126843
138.800000 -1.469433
138.850000 -1.753781
138.900000 -1.955908
138.950000 -2.103222
139.000000 -2.195721
139.050000 -2.209425
139.100000 -2.134055
139.150000 -2.027852
139.200000 -1.897669
139.250000 -1.722948
139.300000 -1.544802
139.350000 -1.414618
139.400000 -1.318694
139.450000 -1.250175
139.500000 -1.233046
139.550000 -1.236472
139.600000 -1.212491
139.650000 -1.188509
139.700000 -1.202213
139.750000 -1.202213
139.800000 -1.174806
139.850000 -1.161102
139.900000 -1.154250
139.950000 -1.109713
140.000000 -1.078881
140.050000 -1.061751
140.100000 -1.013789
140.150000 -0.941845
140.200000 -0.897309
140.250000 -0.852772
140.300000 -0.784254
140.350000 -0.715737
140.400000 -0.657497
140.450000 -0.599256
140.500000 -0.592405
140.550000 -0.650645
140.600000 -0.708884
140.650000 -0.763699
140.700000 -0.866476
140.750000 -0.989807
140.800000 -1.092585
140.850000 -1.188509
140.900000 -1.287860
140.950000 -1.346100
141.000000 -1.346100
141.050000 -1.322119
141.100000 -1.298138
141.150000 -1.267305
141.200000 -1.250176
141.250000 -1.281008
141.300000 -1.346100
141.350000 -1.418044
141.400000 -1.483136
141.450000 -1.541376
141.500000 -1.585913
141.550000 -1.603042
141.600000 -1.565357
141.650000 -1.469433
141.700000 -1.352952
141.750000 -1.222768
141.800000 -1.058325
141.850000 -0.880179
141.900000 -0.736292
141.950000 -0.636941
142.000000 -0.554720
142.050000 -0.510183
142.100000 -0.537590
142.150000 -0.616386
142.200000 -0.726015
142.250000 -0.863050
142.300000 -1.030919
142.350000 -1.198787
142.400000 -1.339248
142.450000 -1.452303
142.500000 -1.531099
142.550000 -1.568783
142.600000 -1.572209
142.650000 -1.541376
142.700000 -1.486562
142.750000 -1.421469
142.800000 -1.339248
142.850000 -1.250175
142.900000 -1.167954
142.950000 -1.116566
143.000000 -1.089159
143.050000 -1.068603
143.100000 -1.085733
143.150000 -1.188509
143.200000 -1.311842
143.250000 -1.400915
143.300000 -1.496839
143.350000 -1.623598
143.400000 -1.719523
143.450000 -1.770910
143.500000 -1.825725
143.550000 -1.853132
143.600000 -1.825725
143.650000 -1.770910
143.700000 -1.722948
143.750000 -1.657856
143.800000 -1.585913
143.850000 -1.548227
143.900000 -1.517395
143.950000 -1.500265
144.000000 -1.524246
144.050000 -1.561932
144.100000 -1.579060
144.150000 -1.603042
144.200000 -1.630449
144.250000 -1.609893
144.300000 -1.558505
144.350000 -1.524247
144.400000 -1.462581
144.450000 -1.335822
144.500000 -1.215916
144.550000 -1.147398
144.600000 -1.078881
144.650000 -1.034345
144.700000 -1.051474
144.750000 -1.082307
144.800000 -1.123417
144.850000 -1.188509
144.900000 -1.257027
144.950000 -1.291286
145.000000 -1.301563
145.050000 -1.260453
145.100000 -1.157676
145.150000 -1.041196
145.200000 -0.914438
145.250000 -0.749996
145.300000 -0.619812
145.350000 -0.575275
145.400000 -0.592405
145.450000 -0.630089
145.500000 -0.743143
145.550000 -0.931568
145.600000 -1.157676
145.650000 -1.394063
145.700000 -1.592765
145.750000 -1.709245
145.800000 -1.753781
145.850000 -1.750355
145.900000 -1.657857
145.950000 -1.469432
146.000000 -1.250176
146.050000 -1.051474
146.100000 -0.859624
146.150000 -0.691755
146.200000 -0.571849
146.250000 -0.506757
146.300000 -0.530739
146.350000 -0.657496
146.400000 -0.821940
146.450000 -0.996660
146.500000 -1.181658
146.550000 -1.366655
146.600000 -1.527672
146.650000 -1.651004
146.700000 -1.702393
146.750000 -1.685263
146.800000 -1.657857
146.850000 -1.623597
146.900000 -1.537950
146.950000 -1.407766
147.000000 -1.294712
147.050000 -1.188509
147.100000 -1.089159
147.150000 -0.989808
147.200000 -0.904160
147.250000 -0.856198
147.300000 -0.873327
147.350000 -0.917864
147.400000 -0.972679
147.450000 -1.061752
147.500000 -1.188509
147.550000 -1.291286
147.600000 -1.376934
147.650000 -1.462580
147.700000 -1.524247
147.750000 -1.531098
147.800000 -1.520821
147.850000 -1.483136
147.900000 -1.404340
147.950000 -1.308416
148.000000 -1.215916
148.050000 -1.106288
148.100000 -0.996659
148.150000 -0.917864
148.200000 -0.842494
148.250000 -0.763699
148.300000 -0.702033
148.350000 -0.660922
148.400000 -0.612959
148.450000 -0.578701
148.500000 -0.547868
148.550000 -0.503331
148.600000 -0.451943
148.650000 -0.427962
148.700000 -0.410832
148.750000 -0.393703
148.800000 -0.400554
148.850000 -0.445091
148.900000 -0.499905
148.950000 -0.578701
149.000000 -0.691755
149.050000 -0.821939
149.100000 -0.965827
149.150000 -1.099436
149.200000 -1.195361
149.250000 -1.243323
149.300000 -1.270731
149.350000 -1.263878
149.400000 -1.212491
149.450000 -1.119992
149.500000 -1.010363
149.550000 -0.893883
149.600000 -0.777402
149.650000 -0.667774
149.700000 -0.568423
149.750000 -0.520461
149.800000 -0.517035
149.850000 -0.534165
149.900000 -0.568424
149.950000 -0.654071
150.000000 -0.777403
150.050000 -0.893883
150.100000 -0.989808
150.150000 -1.051474
150.200000 -1.051473
150.250000 -1.006937
150.300000 -0.941845
150.350000 -0.852772
150.400000 -0.732866
150.450000 -0.609534
150.500000 -0.517035
150.550000 -0.434814
150.600000 -0.352592
150.650000 -0.297778
150.700000 -0.297778
150.750000 -0.342315
150.800000 -0.390277
150.850000 -0.462220
150.900000 -0.578701
150.950000 -0.722588
151.000000 -0.859624
151.050000 -0.962400
151.100000 -1.041196
151.150000 -1.109714
151.200000 -1.161103
151.250000 -1.171380
151.300000 -1.150824
151.350000 -1.119991
151.400000 -1.075455
151.450000 -0.986382
151.500000 -0.880179
151.550000 -0.777402
151.600000 -0.684903
151.650000 -0.609534
151.700000 -0.564997
151.750000 -0.547868
151.800000 -0.554720
151.850000 -0.612959
151.900000 -0.712311
151.950000 -0.821939
152.000000 -0.928141
152.050000 -1.010363
152.100000 -1.065177
152.150000 -1.109714
152.200000 -1.140547
152.250000 -1.123418
152.300000 -1.089159
152.350000 -1.072029
152.400000 -1.058326
152.450000 -1.048048
152.500000 -1.078880
152.550000 -1.157676
152.600000 -1.243323
152.650000 -1.349526
152.700000 -1.479710
152.750000 -1.599616
152.800000 -1.692115
152.850000 -1.770910
152.900000 -1.822299
152.950000 -1.822299
153.000000 -1.781189
153.050000 -1.685263
153.100000 -1.541376
153.150000 -1.373508
153.200000 -1.202212
153.250000 -1.024066
153.300000 -0.856198
153.350000 -0.756847
153.400000 -0.712310
153.450000 -0.681478
153.500000 -0.695181
153.550000 -0.808236
153.600000 -0.989808
153.650000 -1.171380
153.700000 -1.359804
153.750000 -1.582487
153.800000 -1.798318
153.850000 -1.959334
153.900000 -2.065537
153.950000 -2.147759
154.000000 -2.178592
154.050000 -2.120352
154.100000 -1.993593
154.150000 -1.856558
154.200000 -1.705819
154.250000 -1.524246
154.300000 -1.325545
154.350000 -1.130270
154.400000 -0.958975
154.450000 -0.845920
154.500000 -0.808236
154.550000 -0.791106
154.600000 -0.767125
154.650000 -0.784254
154.700000 -0.866476
154.750000 -0.952123
154.800000 -1.017214
154.850000 -1.078881
154.900000 -1.130269
154.950000 -1.147398
155.000000 -1.154251
155.050000 -1.147398
155.100000 -1.113140
155.150000 -1.048048
155.200000 -0.958974
155.250000 -0.863050
155.300000 -0.804810
155.350000 -0.780829
155.400000 -0.773976
155.450000 -0.787680
155.500000 -0.849346
155.550000 -0.934993
155.600000 -1.010363
155.650000 -1.061752
155.700000 -1.096010
155.750000 -1.123417
155.800000 -1.130269
155.850000 -1.116566
155.900000 -1.089158
155.950000 -1.037770
156.000000 -0.952122
156.050000 -0.859624
156.100000 -0.787680
156.150000 -0.746570
156.200000 -0.739718
156.250000 -0.760273
156.300000 -0.801384
156.350000 -0.866476
156.400000 -0.965827
156.450000 -1.085733
156.500000 -1.185083
156.550000 -1.257027
156.600000 -1.304989
156.650000 -1.311841
156.700000 -1.294712
156.750000 -1.270731
156.800000 -1.209065
156.850000 -1.099436
156.900000 -0.969253
156.950000 -0.845920
157.000000 -0.732866
157.050000 -0.619811
157.100000 -0.506757
157.150000 -0.410832
157.200000 -0.359444
157.250000 -0.345740
157.300000 -0.345740
157.350000 -0.390276
157.400000 -0.472499
157.450000 -0.568424
157.500000 -0.691756
157.550000 -0.859624
157.600000 -1.034344
157.650000 -1.191935
157.700000 -1.352953
157.750000 -1.510543
157.800000 -1.623598
157.850000 -1.688689
157.900000 -1.719522
157.950000 -1.681838
158.000000 -1.572209
158.050000 -1.431747
158.100000 -1.277582
158.150000 -1.085733
158.200000 -0.869901
158.250000 -0.691755
158.300000 -0.554720
158.350000 -0.455369
158.400000 -0.427962
158.450000 -0.479350
158.500000 -0.599256
158.550000 -0.767125
158.600000 -0.989807
158.650000 -1.236472
158.700000 -1.455729
158.750000 -1.651005
158.800000 -1.815447
158.850000 -1.911372
158.900000 -1.894243
158.950000 -1.801744
159.000000 -1.671560
159.050000 -1.520821
159.100000 -1.359804
159.150000 -1.212490
159.200000 -1.109714
159.250000 -1.068603
159.300000 -1.106288
159.350000 -1.212491
159.400000 -1.332396
159.450000 -1.442025
159.500000 -1.541376
159.550000 -1.613320
159.600000 -1.627023
159.650000 -1.575635
159.700000 -1.469433
159.750000 -1.318693
159.800000 -1.130269
159.850000 -0.948697
159.900000 -0.794532
159.950000 -0.657496
160.000000 -0.544442
160.050000 -0.503331
160.100000 -0.564997
160.150000 -0.678052
160.200000 -0.801384
160.250000 -0.924716
160.300000 -1.037770
160.350000 -1.140547
160.400000 -1.215916
160.450000 -1.236472
160.500000 -1.202213
160.550000 -1.154250
160.600000 -1.099437
160.650000 -1.020641
160.700000 -0.914438
160.750000 -0.842495
160.800000 -0.818513
160.850000 -0.797958
160.900000 -0.780828
160.950000 -0.808236
161.000000 -0.859624
161.050000 -0.900734
161.100000 -0.962401
161.150000 -1.065177
161.200000 -1.147399
161.250000 -1.191935
161.300000 -1.233046
161.350000 -1.284434
161.400000 -1.311841
161.450000 -1.298138
161.500000 -1.281008
161.550000 -1.257027
161.600000 -1.205639
161.650000 -1.130269
161.700000 -1.068604
161.750000 -1.061752
161.800000 -1.065177
161.850000 -1.065177
161.900000 -1.096011
161.950000 -1.171380
162.000000 -1.239898
162.050000 -1.287860
162.100000 -1.356378
162.150000 -1.428321
162.200000 -1.438599
162.250000 -1.404341
162.300000 -1.383785
162.350000 -1.383785
162.400000 -1.346100
162.450000 -1.277583
162.500000 -1.209065
162.550000 -1.143973
162.600000 -1.092584
162.650000 -1.072029
162.700000 -1.061752
162.750000 -1.048048
162.800000 -1.048048
162.850000 -1.041196
162.900000 -1.027493
162.950000 -1.020641
163.000000 -0.989808
163.050000 -0.917864
163.100000 -0.825365
163.150000 -0.760273
163.200000 -0.712311
163.250000 -0.657497
163.300000 -0.616386
163.350000 -0.602682
163.400000 -0.606108
163.450000 -0.643792
163.500000 -0.719162
163.550000 -0.791106
163.600000 -0.856198
163.650000 -0.934993
163.700000 -1.017215
163.750000 -1.102862
163.800000 -1.215916
163.850000 -1.304990
163.900000 -1.359803
163.950000 -1.421470
164.000000 -1.469432
164.050000 -1.479710
164.100000 -1.476284
164.150000 -1.496840
164.200000 -1.507117
164.250000 -1.496839
164.300000 -1.472858
164.350000 -1.442025
164.400000 -1.411192
164.450000 -1.380359
164.500000 -1.318694
164.550000 -1.260453
164.600000 -1.260453
164.650000 -1.284434
164.700000 -1.287861
164.750000 -1.315268
164.800000 -1.373507
164.850000 -1.407766
164.900000 -1.414618
164.950000 -1.414618
165.000000 -1.373507
165.050000 -1.277583
165.100000 -1.154250
165.150000 -1.024067
165.200000 -0.883605
165.250000 -0.756847
165.300000 -0.640367
165.350000 -0.547868
165.400000 -0.489628
165.450000 -0.482776
165.500000 -0.527313
165.550000 -0.616386
165.600000 -0.773976
165.650000 -0.976104
165.700000 -1.195361
165.750000 -1.404341
165.800000 -1.589339
165.850000 -1.753781
165.900000 -1.873687
165.950000 -1.942205
166.000000 -1.959334
166.050000 -1.931927
166.100000 -1.866835
166.150000 -1.781189
166.200000 -1.678411
166.250000 -1.555080
166.300000 -1.407767
166.350000 -1.270731
166.400000 -1.178231
166.450000 -1.126843
166.500000 -1.123418
166.550000 -1.147398
166.600000 -1.188509
166.650000 -1.246750
166.700000 -1.308415
166.750000 -1.352952
166.800000 -1.397489
166.850000 -1.438599
166.900000 -1.469433
166.950000 -1.479710
167.000000 -1.472858
167.050000 -1.400915
167.100000 -1.270730
167.150000 -1.157676
167.200000 -1.075455
167.250000 -0.986382
167.300000 -0.887031
167.350000 -0.825365
167.400000 -0.787680
167.450000 -0.746570
167.500000 -0.722588
167.550000 -0.756848
167.600000 -0.818513
167.650000 -0.869902
167.700000 -0.914438
167.750000 -0.969252
167.800000 -1.017214
167.850000 -1.051474
167.900000 -1.061752
167.950000 -1.061752
168.000000 -1.089159
168.050000 -1.109713
168.100000 -1.096011
168.150000 -1.102862
168.200000 -1.167954
168.250000 -1.209065
168.300000 -1.195361
168.350000 -1.222768
168.400000 -1.284434
168.450000 -1.308416
168.500000 -1.284434
168.550000 -1.267305
168.600000 -1.243323
168.650000 -1.195361
168.700000 -1.140547
168.750000 -1.085732
168.800000 -1.017215
168.850000 -0.948697
168.900000 -0.883605
168.950000 -0.832217
169.000000 -0.804810
169.050000 -0.787680
169.100000 -0.767125
169.150000 -0.767124
169.200000 -0.801384
169.250000 -0.859624
169.300000 -0.934994
169.350000 -1.051474
169.400000 -1.171380
169.450000 -1.253602
169.500000 -1.332397
169.550000 -1.414619
169.600000 -1.462580
169.650000 -1.479710
169.700000 -1.486562
169.750000 -1.469433
169.800000 -1.418044
169.850000 -1.352952
169.900000 -1.301563
169.950000 -1.236472
170.000000 -1.178232
170.050000 -1.147398
170.100000 -1.154251
170.150000 -1.150824
170.200000 -1.119992
170.250000 -1.072029
170.300000 -1.044622
170.350000 -1.010363
170.400000 -0.952123
170.450000 -0.880179
170.500000 -0.801384
170.550000 -0.722589
170.600000 -0.660923
170.650000 -0.636941
170.700000 -0.660922
170.750000 -0.739718
170.800000 -0.849346
170.850000 -0.958975
170.900000 -1.068603
170.950000 -1.174806
171.000000 -1.263879
171.050000 -1.318693
171.100000 -1.342674
171.150000 -1.322119
171.200000 -1.257027
171.250000 -1.191935
171.300000 -1.137121
171.350000 -1.085733
171.400000 -1.044622
171.450000 -1.048048
171.500000 -1.092585
171.550000 -1.188509
171.600000 -1.315267
171.650000 -1.448877
171.700000 -1.592765
171.750000 -1.729800
171.800000 -1.812022
171.850000 -1.856558
171.900000 -1.877113
171.950000 -1.839428
172.000000 -1.712671
172.050000 -1.565357
172.100000 -1.455729
172.150000 -1.349526
172.200000 -1.229620
172.250000 -1.147399
172.300000 -1.106288
172.350000 -1.085732
172.400000 -1.096010
172.450000 -1.137121
172.500000 -1.191935
172.550000 -1.250175
172.600000 -1.304990
172.650000 -1.335822
172.700000 -1.363229
172.750000 -1.370081
172.800000 -1.311841
172.850000 -1.215916
172.900000 -1.137121
172.950000 -1.054900
173.000000 -0.958975
173.050000 -0.876754
173.100000 -0.825365
173.150000 -0.791106
173.200000 -0.797958
173.250000 -0.839069
173.300000 -0.883605
173.350000 -0.941846
173.400000 -1.037770
173.450000 -1.119991
173.500000 -1.164528
173.550000 -1.209065
173.600000 -1.239898
173.650000 -1.219342
173.700000 -1.185083
173.750000 -1.167954
173.800000 -1.113139
173.850000 -1.037770
173.900000 -0.996660
173.950000 -0.965827
174.000000 -0.965826
174.050000 -1.051474
174.100000 -1.178232
174.150000 -1.277582
174.200000 -1.376933
174.250000 -1.524246
174.300000 -1.664708
174.350000 -1.757207
174.400000 -1.812021
174.450000 -1.825725
174.500000 -1.801744
174.550000 -1.760633
174.600000 -1.688689
174.650000 -1.575635
174.700000 -1.489987
174.750000 -1.445451
174.800000 -1.394063
174.850000 -1.339248
174.900000 -1.322119
174.950000 -1.335822
175.000000 -1.352953
175.050000 -1.373508
175.100000 -1.397488
175.150000 -1.414618
175.200000 -1.397489
175.250000 -1.363230
175.300000 -1.325545
175.350000 -1.281009
175.400000 -1.239898
175.450000 -1.229620
175.500000 -1.243323
175.550000 -1.263879
175.600000 -1.270730
175.650000 -1.284434
175.700000 -1.322119
175.750000 -1.339249
175.800000 -1.294711
175.850000 -1.219342
175.900000 -1.130269
175.950000 -1.017215
176.000000 -0.897309
176.050000 -0.821939
176.100000 -0.801383
176.150000 -0.801384
176.200000 -0.821939
176.250000 -0.869902
176.300000 -0.945271
176.350000 -1.020640
176.400000 -1.096010
176.450000 -1.174806
176.500000 -1.267305
176.550000 -1.339248
176.600000 -1.363230
176.650000 -1.332397
176.700000 -1.263879
176.750000 -1.198787
176.800000 -1.123417
176.850000 -1.051473
176.900000 -0.989807
176.950000 -0.931567
177.000000 -0.890457
177.050000 -0.890457
177.100000 -0.900735
177.150000 -0.900735
177.200000 -0.904161
177.250000 -0.931568
177.300000 -0.972678
177.350000 -1.013789
177.400000 -1.051474
177.450000 -1.078881
177.500000 -1.116565
177.550000 -1.167954
177.600000 -1.188510
177.650000 -1.171380
177.700000 -1.150824
177.750000 -1.119991
177.800000 -1.051473
177.850000 -0.996659
177.900000 -0.986382
177.950000 -0.986382
178.000000 -0.979530
178.050000 -1.000085
178.100000 -1.058326
178.150000 -1.116565
178.200000 -1.181657
178.250000 -1.250176
178.300000 -1.281008
178.350000 -1.274156
178.400000 -1.257027
178.450000 -1.215916
178.500000 -1.123418
178.550000 -1.010363
178.600000 -0.921290
178.650000 -0.828791
178.700000 -0.736292
178.750000 -0.681477
178.800000 -0.674626
178.850000 -0.722588
178.900000 -0.832217
178.950000 -0.986382
179.000000 -1.143972
179.050000 -1.322119
179.100000 -1.503691
179.150000 -1.630449
179.200000 -1.678412
179.250000 -1.698967
179.300000 -1.692115
179.350000 -1.637301
179.400000 -1.558505
179.450000 -1.452303
179.500000 -1.318693
179.550000 -1.209065
179.600000 -1.161102
179.650000 -1.119991
179.700000 -1.068603
179.750000 -1.061752
179.800000 -1.078881
179.850000 -1.058325
179.900000 -1.041196
179.950000 -1.044622
180.000000 -1.006937
180.050000 -0.934993
180.100000 -0.890457
180.150000 -0.835643
180.200000 -0.746569
180.250000 -0.691756
180.300000 -0.695181
180.350000 -0.708885
180.400000 -0.732866
180.450000 -0.780829
180.500000 -0.818514
180.550000 -0.859624
180.600000 -0.924716
180.650000 -0.965826
180.700000 -0.979530
180.750000 -1.010363
180.800000 -1.058326
180.850000 -1.099436
180.900000 -1.150825
180.950000 -1.215916
181.000000 -1.260453
181.050000 -1.270730
181.100000 -1.301564
181.150000 -1.352953
181.200000 -1.400915
181.250000 -1.442025
181.300000 -1.472858
181.350000 -1.496839
181.400000 -1.524246
181.450000 -1.555079
181.500000 -1.582486
181.550000 -1.599616
181.600000 -1.613319
181.650000 -1.623598
181.700000 -1.640727
181.750000 -1.647578
181.800000 -1.627023
181.850000 -1.596191
181.900000 -1.592764
181.950000 -1.592764
182.000000 -1.548227
182.050000 -1.486562
182.100000 -1.452303
182.150000 -1.435174
182.200000 -1.407766
182.250000 -1.397488
182.300000 -1.397488
182.350000 -1.370082
182.400000 -1.335822
182.450000 -1.328971
182.500000 -1.315267
182.550000 -1.284434
182.600000 -1.260453
182.650000 -1.239898
182.700000 -1.205639
182.750000 -1.171380
182.800000 -1.157677
182.850000 -1.130269
182.900000 -1.102862
182.950000 -1.130270
183.000000 -1.191935
183.050000 -1.239898
183.100000 -1.284434
183.150000 -1.363230
183.200000 -1.455728
183.250000 -1.513969
183.300000 -1.527672
183.350000 -1.527672
183.400000 -1.493413
183.450000 -1.418044
183.500000 -1.318693
183.550000 -1.239898
183.600000 -1.164528
183.650000 -1.085733
183.700000 -1.027493
183.750000 -0.996659
183.800000 -1.000085
183.850000 -1.027492
183.900000 -1.072029
183.950000 -1.109714
184.000000 -1.164528
184.050000 -1.222768
184.100000 -1.215916
184.150000 -1.164528
184.200000 -1.133696
184.250000 -1.102862
184.300000 -1.013789
184.350000 -0.917864
184.400000 -0.876753
184.450000 -0.845921
184.500000 -0.801383
184.550000 -0.784255
184.600000 -0.804809
184.650000 -0.845920
184.700000 -0.917864
184.750000 -1.030918
184.800000 -1.147399
184.850000 -1.263879
184.900000 -1.383785
184.950000 -1.493413
185.000000 -1.582487
185.050000 -1.627024
185.100000 -1.630449
185.150000 -1.603042
185.200000 -1.537950
185.250000 -1.428321
185.300000 -1.315268
185.350000 -1.233046
185.400000 -1.167954
185.450000 -1.099437
185.500000 -1.065178
185.550000 -1.068603
185.600000 -1.092584
185.650000 -1.126844
185.700000 -1.174806
185.750000 -1.233046
185.800000 -1.287860
185.850000 -1.328971
185.900000 -1.342674
185.950000 -1.315267
186.000000 -1.246750
186.050000 -1.147398
186.100000 -1.061751
186.150000 -0.972679
186.200000 -0.869901
186.250000 -0.780829
186.300000 -0.743144
186.350000 -0.743144
186.400000 -0.739718
186.450000 -0.732866
186.500000 -0.760273
186.550000 -0.801384
186.600000 -0.821939
186.650000 -0.845920
186.700000 -0.897309
186.750000 -0.904161
186.800000 -0.880179
186.850000 -0.883605
186.900000 -0.941846
186.950000 -1.020641
187.000000 -1.106288
187.050000 -1.222768
187.100000 -1.359803
187.150000 -1.493413
187.200000 -1.623597
187.250000 -1.746929
187.300000 -1.832577
187.350000 -1.853132
187.400000 -1.812021
187.450000 -1.740078
187.500000 -1.627023
187.550000 -1.462580
187.600000 -1.263879
187.650000 -1.078881
187.700000 -0.921290
187.750000 -0.777402
187.800000 -0.664348
187.850000 -0.585553
187.900000 -0.551294
187.950000 -0.592404
188.000000 -0.695181
188.050000 -0.808235
188.100000 -0.924715
188.150000 -1.068603
188.200000 -1.198787
188.250000 -1.287860
188.300000 -1.363229
188.350000 -1.418044
188.400000 -1.414618
188.450000 -1.380359
188.500000 -1.349526
188.550000 -1.294712
188.600000 -1.188509
188.650000 -1.078881
188.700000 -0.993234
188.750000 -0.924716
