time[ns] Raw_signal[mV]
-11.100000 0.634887
-11.050000 0.655441
-11.000000 0.652016
-10.950000 0.604053
-10.900000 0.552665
-10.850000 0.470444
-10.800000 0.333408
-10.750000 0.199798
-10.700000 0.114151
-10.650000 0.028504
-10.600000 -0.057143
-10.550000 -0.094828
-10.500000 -0.101680
-10.450000 -0.108532
-10.400000 -0.101680
-10.350000 -0.081125
-10.300000 -0.070847
-10.250000 -0.046866
-10.200000 -0.043440
-10.150000 -0.098254
-10.100000 -0.153068
-10.050000 -0.173623
-10.000000 -0.201031
-9.950000 -0.238715
-9.900000 -0.225012
-9.850000 -0.163346
-9.800000 -0.108531
-9.750000 -0.016033
-9.700000 0.131281
-9.650000 0.247760
-9.600000 0.323131
-9.550000 0.374518
-9.500000 0.371092
-9.450000 0.292297
-9.400000 0.186095
-9.350000 0.059337
-9.300000 -0.084551
-9.250000 -0.214735
-9.200000 -0.314085
-9.150000 -0.399732
-9.100000 -0.471676
-9.050000 -0.509361
-9.000000 -0.519638
-8.950000 -0.485379
-8.900000 -0.413436
-8.850000 -0.338067
-8.800000 -0.242142
-8.750000 -0.118809
-8.700000 -0.036588
-8.650000 0.001097
-8.600000 0.073040
-8.550000 0.158688
-8.500000 0.179243
-8.450000 0.165539
-8.400000 0.162114
-8.350000 0.131280
-8.300000 0.086744
-8.250000 0.059337
-8.200000 0.018227
-8.150000 -0.060569
-8.100000 -0.163346
-8.050000 -0.272975
-8.000000 -0.379177
-7.950000 -0.454547
-7.900000 -0.505935
-7.850000 -0.574452
-7.800000 -0.625841
-7.750000 -0.653248
-7.700000 -0.680656
-7.650000 -0.677229
-7.600000 -0.615564
-7.550000 -0.526490
-7.500000 -0.451120
-7.450000 -0.348344
-7.400000 -0.211308
-7.350000 -0.084550
-7.300000 0.028504
-7.250000 0.151836
-7.200000 0.247761
-7.150000 0.312852
-7.100000 0.347111
-7.050000 0.326556
-7.000000 0.268316
-6.950000 0.216928
-6.900000 0.155262
-6.850000 0.042208
-6.800000 -0.074272
-6.750000 -0.146216
-6.700000 -0.204457
-6.650000 -0.262697
-6.600000 -0.262697
-6.550000 -0.197605
-6.500000 -0.115383
-6.450000 -0.040013
-6.400000 0.049059
-6.350000 0.148410
-6.300000 0.223780
-6.250000 0.268317
-6.200000 0.288871
-6.150000 0.302575
-6.100000 0.306001
-6.050000 0.278594
-6.000000 0.227206
-5.950000 0.196372
-5.900000 0.182669
-5.850000 0.148410
-5.800000 0.121003
-5.750000 0.155262
-5.700000 0.216927
-5.650000 0.254613
-5.600000 0.282019
-5.550000 0.316279
-5.500000 0.309427
-5.450000 0.288871
-5.400000 0.288871
-5.350000 0.295723
-5.300000 0.264890
-5.250000 0.220354
-5.200000 0.203225
-5.150000 0.203224
-5.100000 0.223779
-5.050000 0.258038
-5.000000 0.271742
-4.950000 0.268316
-4.900000 0.271742
-4.850000 0.261464
-4.800000 0.213502
-4.750000 0.148410
-4.700000 0.055910
-4.650000 -0.084551
-4.600000 -0.235290
-4.550000 -0.334640
-4.500000 -0.382603
-4.450000 -0.416862
-4.400000 -0.410010
-4.350000 -0.341492
-4.300000 -0.214735
-4.250000 -0.053718
-4.200000 0.110725
-4.150000 0.268316
-4.100000 0.401926
-4.050000 0.494425
-4.000000 0.542387
-3.950000 0.542387
-3.900000 0.494425
-3.850000 0.388223
-3.800000 0.268317
-3.750000 0.144984
-3.700000 0.001097
-3.650000 -0.094828
-3.600000 -0.115384
-3.550000 -0.108531
-3.500000 -0.077699
-3.450000 0.001097
-3.400000 0.103873
-3.350000 0.213502
-3.300000 0.343686
-3.250000 0.412203
-3.200000 0.360816
-3.150000 0.377944
-3.100000 0.542387
-3.050000 0.600627
-3.000000 0.484148
-2.950000 0.490999
-2.900000 0.614331
-2.850000 0.556091
-2.800000 0.398500
-2.750000 0.340259
-2.700000 0.240909
-2.650000 0.086744
-2.600000 0.121003
-2.550000 0.155262
-2.500000 -0.046866
-2.450000 -0.180475
-2.400000 -0.084551
-2.350000 -0.139365
-2.300000 -0.334641
-2.250000 -0.262697
-2.200000 -0.105106
-2.150000 -0.170198
-2.100000 -0.129087
-2.050000 0.151836
-2.000000 0.240909
-1.950000 0.073040
-1.900000 0.007949
-1.850000 0.076467
-1.800000 0.110725
-1.750000 0.168965
-1.700000 0.155262
-1.650000 -0.019458
-1.600000 -0.108532
-1.550000 -0.033162
-1.500000 -0.070847
-1.450000 -0.173624
-1.400000 -0.043440
-1.350000 0.175817
-1.300000 0.237483
-1.250000 0.295723
-1.200000 0.395074
-1.150000 0.374518
-1.100000 0.419055
-1.050000 0.641738
-1.000000 0.645164
-0.950000 0.340260
-0.900000 0.223779
-0.850000 0.319705
-0.800000 0.220354
-0.750000 0.035356
-0.700000 0.045633
-0.650000 0.025078
-0.600000 -0.129087
-0.550000 -0.153069
-0.500000 -0.077698
-0.450000 -0.142790
-0.400000 -0.228438
-0.350000 -0.166772
-0.300000 -0.115384
-0.250000 -0.177050
-0.200000 -0.221586
-0.150000 -0.252419
-0.100000 -0.303808
-0.050000 -0.334640
0.000000 -0.331215
0.050000 -0.290104
0.100000 -0.211308
0.150000 -0.159920
0.200000 -0.153068
0.250000 -0.046866
0.300000 0.148410
0.350000 0.203224
0.400000 0.144984
0.450000 0.213502
0.500000 0.360815
0.550000 0.388223
0.600000 0.347112
0.650000 0.333408
0.700000 0.264890
0.750000 0.131281
0.800000 0.090170
0.850000 0.172391
0.900000 0.292297
0.950000 0.511554
1.000000 0.953494
1.050000 1.600988
1.100000 2.443757
1.150000 3.591430
1.200000 5.095396
1.250000 6.887136
1.300000 8.959801
1.350000 11.354492
1.400000 13.995860
1.450000 16.739994
1.500000 19.494411
1.550000 22.286508
1.600000 25.106024
1.650000 27.857008
1.700000 30.453833
1.750000 32.906771
1.800000 35.215825
1.850000 37.309037
1.900000 39.162451
1.950000 40.830861
2.000000 42.321121
2.050000 43.574991
2.100000 44.547941
2.150000 45.226271
2.200000 45.603121
2.250000 45.675061
2.300000 45.411271
2.350000 44.770631
2.400000 43.801101
2.450000 42.567781
2.500000 41.029561
2.550000 39.196711
2.600000 37.178851
2.650000 35.017121
2.700000 32.677241
2.750000 30.241431
2.800000 27.843301
2.850000 25.469161
2.900000 23.115581
2.950000 20.936711
3.000000 19.025065
3.050000 17.322397
3.100000 15.849265
3.150000 14.691313
3.200000 13.841696
3.250000 13.252442
3.300000 12.964664
3.350000 12.947535
3.400000 13.091425
3.450000 13.392896
3.500000 13.882800
3.550000 14.478909
3.600000 15.105851
3.650000 15.763614
3.700000 16.411109
3.750000 17.003789
3.800000 17.548507
3.850000 18.041839
3.900000 18.428963
3.950000 18.672200
4.000000 18.774979
4.050000 18.757842
4.100000 18.627664
4.150000 18.336465
4.200000 17.873970
4.250000 17.298411
4.300000 16.644071
4.350000 15.856121
4.400000 14.920848
4.450000 13.917062
4.500000 12.892721
4.550000 11.820418
4.600000 10.717281
4.650000 9.662107
4.700000 8.713135
4.750000 7.839533
4.800000 7.034449
4.850000 6.373251
4.900000 5.893627
4.950000 5.557891
5.000000 5.345486
5.050000 5.300949
5.100000 5.379745
5.150000 5.513354
5.200000 5.732611
5.250000 6.054645
5.300000 6.410937
5.350000 6.770655
5.400000 7.137225
5.450000 7.490092
5.500000 7.781293
5.550000 8.034809
5.600000 8.267770
5.650000 8.466472
5.700000 8.620637
5.750000 8.699431
5.800000 8.706283
5.850000 8.675450
5.900000 8.617210
5.950000 8.514433
6.000000 8.349990
6.050000 8.120456
6.100000 7.846385
6.150000 7.531203
6.200000 7.171484
6.250000 6.767229
6.300000 6.328716
6.350000 5.838813
6.400000 5.335207
6.450000 4.845306
6.500000 4.355403
6.550000 3.862075
6.600000 3.409858
6.650000 3.046713
6.700000 2.738383
6.750000 2.481442
6.800000 2.344406
6.850000 2.337554
6.900000 2.378664
6.950000 2.426627
7.000000 2.529403
7.050000 2.676717
7.100000 2.806901
7.150000 2.895974
7.200000 2.991899
7.250000 3.101527
7.300000 3.163193
7.350000 3.197452
7.400000 3.221433
7.450000 3.224859
7.500000 3.200878
7.550000 3.173471
7.600000 3.152915
7.650000 3.125509
7.700000 3.094675
7.750000 3.070694
7.800000 3.033009
7.850000 2.985047
7.900000 2.906252
7.950000 2.772642
8.000000 2.642458
8.050000 2.539681
8.100000 2.406071
8.150000 2.214222
8.200000 2.022371
8.250000 1.854504
8.300000 1.696913
8.350000 1.542747
8.400000 1.405712
8.450000 1.272102
8.500000 1.135066
8.550000 1.015160
8.600000 0.922661
8.650000 0.840440
8.700000 0.734237
8.750000 0.624609
8.800000 0.559517
8.850000 0.518406
8.900000 0.477296
8.950000 0.443036
9.000000 0.429333
9.050000 0.425907
9.100000 0.467018
9.150000 0.573220
9.200000 0.696552
9.250000 0.806181
9.300000 0.912384
9.350000 0.987753
9.400000 1.032290
9.450000 1.052845
9.500000 1.049419
9.550000 1.004882
9.600000 0.929513
9.650000 0.837014
9.700000 0.734237
9.750000 0.621182
9.800000 0.508128
9.850000 0.384796
9.900000 0.278594
9.950000 0.223779
10.000000 0.199799
10.050000 0.199799
10.100000 0.230631
10.150000 0.261464
10.200000 0.258038
10.250000 0.251187
10.300000 0.282020
10.350000 0.316279
10.400000 0.340260
10.450000 0.371093
10.500000 0.425907
10.550000 0.456740
10.600000 0.467017
10.650000 0.477295
10.700000 0.480721
10.750000 0.477296
10.800000 0.487573
10.850000 0.490999
10.900000 0.467018
10.950000 0.443036
11.000000 0.429333
11.050000 0.405351
11.100000 0.367667
11.150000 0.319704
11.200000 0.264890
11.250000 0.227205
11.300000 0.213501
11.350000 0.175817
11.400000 0.103873
11.450000 0.038782
11.500000 -0.012607
11.550000 -0.063995
11.600000 -0.108531
11.650000 -0.122235
11.700000 -0.111958
11.750000 -0.094828
11.800000 -0.053717
11.850000 0.014800
11.900000 0.117577
11.950000 0.213502
12.000000 0.288872
12.050000 0.367667
12.100000 0.436185
12.150000 0.449888
12.200000 0.401926
12.250000 0.336834
12.300000 0.278594
12.350000 0.216927
12.400000 0.134707
12.450000 0.042208
12.500000 -0.057144
12.550000 -0.156494
12.600000 -0.228438
12.650000 -0.262697
12.700000 -0.290104
12.750000 -0.320937
12.800000 -0.331215
12.850000 -0.320937
12.900000 -0.338066
12.950000 -0.389455
13.000000 -0.416862
13.050000 -0.427139
13.100000 -0.468250
13.150000 -0.492231
13.200000 -0.464824
13.250000 -0.430565
13.300000 -0.433991
13.350000 -0.423714
13.400000 -0.396307
13.450000 -0.372325
13.500000 -0.351769
13.550000 -0.310659
13.600000 -0.286678
13.650000 -0.286678
13.700000 -0.272975
13.750000 -0.231863
13.800000 -0.183901
13.850000 -0.122235
13.900000 -0.040014
13.950000 0.069615
14.000000 0.196373
14.050000 0.302575
14.100000 0.350538
14.150000 0.360816
14.200000 0.357389
14.250000 0.309427
14.300000 0.179243
14.350000 0.014800
14.400000 -0.149643
14.450000 -0.324363
14.500000 -0.529916
14.550000 -0.738895
14.600000 -0.903338
14.650000 -0.982134
14.700000 -0.995838
14.750000 -0.992412
14.800000 -0.944449
14.850000 -0.814265
14.900000 -0.673804
14.950000 -0.564175
15.000000 -0.430565
15.050000 -0.266123
15.100000 -0.153068
15.150000 -0.091402
15.200000 -0.005755
15.250000 0.052485
15.300000 0.049059
15.350000 0.035355
15.400000 0.035356
15.450000 0.018226
15.500000 -0.016033
15.550000 -0.033162
15.600000 -0.002330
15.650000 0.035355
15.700000 0.035356
15.750000 -0.012607
15.800000 -0.087977
15.850000 -0.166772
15.900000 -0.266123
15.950000 -0.382603
16.000000 -0.543620
16.050000 -0.759451
16.100000 -0.992411
16.150000 -1.194539
16.200000 -1.352130
16.250000 -1.461758
16.300000 -1.492591
16.350000 -1.448054
16.400000 -1.335000
16.450000 -1.163705
16.500000 -0.961579
16.550000 -0.769728
16.600000 -0.584731
16.650000 -0.410010
16.700000 -0.290104
16.750000 -0.245567
16.800000 -0.279826
16.850000 -0.358621
16.900000 -0.461399
16.950000 -0.574453
17.000000 -0.677229
17.050000 -0.759451
17.100000 -0.800562
17.150000 -0.807414
17.200000 -0.790283
17.250000 -0.738896
17.300000 -0.636119
17.350000 -0.516213
17.400000 -0.430565
17.450000 -0.372325
17.500000 -0.334641
17.550000 -0.341492
17.600000 -0.362047
17.650000 -0.362048
17.700000 -0.375751
17.750000 -0.420288
17.800000 -0.447695
17.850000 -0.420288
17.900000 -0.382603
17.950000 -0.379177
18.000000 -0.382603
18.050000 -0.379177
18.100000 -0.389454
18.150000 -0.413436
18.200000 -0.444269
18.250000 -0.485380
18.300000 -0.526490
18.350000 -0.591582
18.400000 -0.690933
18.450000 -0.797136
18.500000 -0.896486
18.550000 -0.999263
18.600000 -1.102040
18.650000 -1.167132
18.700000 -1.204817
18.750000 -1.232224
18.800000 -1.245927
18.850000 -1.211669
18.900000 -1.146576
18.950000 -1.057503
19.000000 -0.944449
19.050000 -0.807413
19.100000 -0.663526
19.150000 -0.526491
19.200000 -0.410010
19.250000 -0.310659
19.300000 -0.255845
19.350000 -0.252419
19.400000 -0.290104
19.450000 -0.358622
19.500000 -0.461399
19.550000 -0.595008
19.600000 -0.752599
19.650000 -0.903338
19.700000 -1.023245
19.750000 -1.091762
19.800000 -1.139724
19.850000 -1.160280
19.900000 -1.126021
19.950000 -1.043800
20.000000 -0.954727
20.050000 -0.858802
20.100000 -0.759451
20.150000 -0.680656
20.200000 -0.629267
20.250000 -0.584731
20.300000 -0.560749
20.350000 -0.577879
20.400000 -0.608711
20.450000 -0.636119
20.500000 -0.680655
20.550000 -0.732044
20.600000 -0.738896
20.650000 -0.718340
20.700000 -0.687507
20.750000 -0.663526
20.800000 -0.632693
20.850000 -0.571027
20.900000 -0.502509
20.950000 -0.464824
21.000000 -0.447695
21.050000 -0.475102
21.100000 -0.577879
21.150000 -0.718341
21.200000 -0.851950
21.250000 -0.978707
21.300000 -1.119170
21.350000 -1.249353
21.400000 -1.355556
21.450000 -1.427500
21.500000 -1.448055
21.550000 -1.413796
21.600000 -1.355556
21.650000 -1.269908
21.700000 -1.139725
21.750000 -0.988985
21.800000 -0.848524
21.850000 -0.725192
21.900000 -0.608712
21.950000 -0.509361
22.000000 -0.447695
22.050000 -0.423714
22.100000 -0.416861
22.150000 -0.430566
22.200000 -0.457973
22.250000 -0.471676
22.300000 -0.451121
22.350000 -0.440843
22.400000 -0.433991
22.450000 -0.396307
22.500000 -0.314085
22.550000 -0.235290
22.600000 -0.190753
22.650000 -0.170198
22.700000 -0.163346
22.750000 -0.190754
22.800000 -0.245568
22.850000 -0.334641
22.900000 -0.444269
22.950000 -0.557324
23.000000 -0.653249
23.050000 -0.745747
23.100000 -0.834821
23.150000 -0.882783
23.200000 -0.889634
23.250000 -0.899912
23.300000 -0.913616
23.350000 -0.893060
23.400000 -0.855376
23.450000 -0.851950
23.500000 -0.865654
23.550000 -0.903338
23.600000 -0.985559
23.650000 -1.050652
23.700000 -1.088336
23.750000 -1.146577
23.800000 -1.197965
23.850000 -1.167132
23.900000 -1.095188
23.950000 -1.043800
24.000000 -0.947874
24.050000 -0.814265
24.100000 -0.718340
24.150000 -0.649823
24.200000 -0.567601
24.250000 -0.492232
24.300000 -0.451121
24.350000 -0.416862
24.400000 -0.403158
24.450000 -0.423714
24.500000 -0.454547
24.550000 -0.505935
24.600000 -0.557323
24.650000 -0.588157
24.700000 -0.605286
24.750000 -0.636118
24.800000 -0.670378
24.850000 -0.708062
24.900000 -0.752599
24.950000 -0.790284
25.000000 -0.824542
25.050000 -0.882783
25.100000 -0.951301
25.150000 -0.999264
25.200000 -1.057504
25.250000 -1.112318
25.300000 -1.160280
25.350000 -1.218520
25.400000 -1.280186
25.450000 -1.290464
25.500000 -1.269909
25.550000 -1.249353
25.600000 -1.194539
25.650000 -1.067781
25.700000 -0.920467
25.750000 -0.783432
25.800000 -0.625841
25.850000 -0.437417
25.900000 -0.255845
25.950000 -0.108531
26.000000 -0.012607
26.050000 0.018226
26.100000 -0.002329
26.150000 -0.036588
26.200000 -0.101680
26.250000 -0.214734
26.300000 -0.338066
26.350000 -0.454547
26.400000 -0.564176
26.450000 -0.656674
26.500000 -0.725192
26.550000 -0.797135
26.600000 -0.858801
26.650000 -0.899913
26.700000 -0.968430
26.750000 -1.064355
26.800000 -1.156854
26.850000 -1.249354
26.900000 -1.372685
26.950000 -1.482314
27.000000 -1.540554
27.050000 -1.550832
27.100000 -1.540554
27.150000 -1.502869
27.200000 -1.430925
27.250000 -1.321297
27.300000 -1.160280
27.350000 -0.999263
27.400000 -0.875931
27.450000 -0.769729
27.500000 -0.684082
27.550000 -0.639544
27.600000 -0.639545
27.650000 -0.677230
27.700000 -0.742321
27.750000 -0.817691
27.800000 -0.872505
27.850000 -0.899912
27.900000 -0.913616
27.950000 -0.941023
28.000000 -0.965004
28.050000 -0.937597
28.100000 -0.886209
28.150000 -0.869080
28.200000 -0.869080
28.250000 -0.848524
28.300000 -0.831394
28.350000 -0.827968
28.400000 -0.827968
28.450000 -0.862227
28.500000 -0.923893
28.550000 -0.961579
28.600000 -0.992411
28.650000 -1.043800
28.700000 -1.078059
28.750000 -1.078059
28.800000 -1.095188
28.850000 -1.132872
28.900000 -1.170558
28.950000 -1.235650
29.000000 -1.328149
29.050000 -1.400092
29.100000 -1.434352
29.150000 -1.451481
29.200000 -1.441203
29.250000 -1.403518
29.300000 -1.324723
29.350000 -1.194539
29.400000 -1.043800
29.450000 -0.899912
29.500000 -0.745747
29.550000 -0.598434
29.600000 -0.523065
29.650000 -0.495657
29.700000 -0.481954
29.750000 -0.526491
29.800000 -0.649823
29.850000 -0.766303
29.900000 -0.851950
29.950000 -0.968430
30.000000 -1.084911
30.050000 -1.115743
30.100000 -1.112318
30.150000 -1.119170
30.200000 -1.095188
30.250000 -1.030096
30.300000 -0.978708
30.350000 -0.930745
30.400000 -0.896486
30.450000 -0.893060
30.500000 -0.920468
30.550000 -0.961579
30.600000 -1.036948
30.650000 -1.115744
30.700000 -1.180835
30.750000 -1.256205
30.800000 -1.331575
30.850000 -1.369259
30.900000 -1.369260
30.950000 -1.386389
31.000000 -1.396667
31.050000 -1.376112
31.100000 -1.355556
31.150000 -1.352130
31.200000 -1.358982
31.250000 -1.382963
31.300000 -1.417222
31.350000 -1.437777
31.400000 -1.465184
31.450000 -1.489165
31.500000 -1.472036
31.550000 -1.424073
31.600000 -1.389815
31.650000 -1.335000
31.700000 -1.228798
31.750000 -1.102040
31.800000 -0.978708
31.850000 -0.845098
31.900000 -0.742321
31.950000 -0.708063
32.000000 -0.704637
32.050000 -0.721766
32.100000 -0.786858
32.150000 -0.899912
32.200000 -1.019818
32.250000 -1.136298
32.300000 -1.259631
32.350000 -1.372685
32.400000 -1.448055
32.450000 -1.472036
32.500000 -1.458333
32.550000 -1.427500
32.600000 -1.382963
32.650000 -1.300742
32.700000 -1.180835
32.750000 -1.074633
32.800000 -1.012967
32.850000 -0.937597
32.900000 -0.841672
32.950000 -0.793709
33.000000 -0.783432
33.050000 -0.776581
33.100000 -0.732043
33.150000 -0.670378
33.200000 -0.612138
33.250000 -0.560749
33.300000 -0.481953
33.350000 -0.375751
33.400000 -0.303808
33.450000 -0.269548
33.500000 -0.242142
33.550000 -0.242141
33.600000 -0.296956
33.650000 -0.368899
33.700000 -0.410010
33.750000 -0.475102
33.800000 -0.557324
33.850000 -0.612138
33.900000 -0.639545
33.950000 -0.666951
34.000000 -0.697785
34.050000 -0.721766
34.100000 -0.738895
34.150000 -0.759451
34.200000 -0.793709
34.250000 -0.855376
34.300000 -0.937597
34.350000 -1.026671
34.400000 -1.115743
34.450000 -1.228797
34.500000 -1.338426
34.550000 -1.396666
34.600000 -1.403518
34.650000 -1.386388
34.700000 -1.341852
34.750000 -1.242502
34.800000 -1.132873
34.850000 -1.047226
34.900000 -0.961578
34.950000 -0.882783
35.000000 -0.845098
35.050000 -0.872505
35.100000 -0.930745
35.150000 -1.009541
35.200000 -1.112317
35.250000 -1.225372
35.300000 -1.324722
35.350000 -1.389815
35.400000 -1.413796
35.450000 -1.406945
35.500000 -1.348704
35.550000 -1.228798
35.600000 -1.081485
35.650000 -0.954727
35.700000 -0.834821
35.750000 -0.721766
35.800000 -0.670378
35.850000 -0.673803
35.900000 -0.714914
35.950000 -0.807413
36.000000 -0.947875
36.050000 -1.098614
36.100000 -1.252780
36.150000 -1.413796
36.200000 -1.547406
36.250000 -1.639905
36.300000 -1.722126
36.350000 -1.783792
36.400000 -1.787218
36.450000 -1.742681
36.500000 -1.687867
36.550000 -1.622775
36.600000 -1.540554
36.650000 -1.458333
36.700000 -1.389815
36.750000 -1.338426
36.800000 -1.335000
36.850000 -1.376111
36.900000 -1.424073
36.950000 -1.468610
37.000000 -1.533702
37.050000 -1.619349
37.100000 -1.687867
37.150000 -1.722126
37.200000 -1.704997
37.250000 -1.657034
37.300000 -1.591942
37.350000 -1.502869
37.400000 -1.396666
37.450000 -1.290463
37.500000 -1.208243
37.550000 -1.132873
37.600000 -1.074633
37.650000 -1.060929
37.700000 -1.074632
37.750000 -1.081484
37.800000 -1.088336
37.850000 -1.095188
37.900000 -1.078058
37.950000 -1.040374
38.000000 -0.978708
38.050000 -0.893060
38.100000 -0.803988
38.150000 -0.742322
38.200000 -0.708063
38.250000 -0.704637
38.300000 -0.738896
38.350000 -0.803988
38.400000 -0.886209
38.450000 -1.019819
38.500000 -1.170557
38.550000 -1.290464
38.600000 -1.386388
38.650000 -1.475462
38.700000 -1.530276
38.750000 -1.543980
38.800000 -1.537128
38.850000 -1.506295
38.900000 -1.441203
38.950000 -1.362407
39.000000 -1.263057
39.050000 -1.160280
39.100000 -1.067781
39.150000 -0.985560
39.200000 -0.896486
39.250000 -0.817691
39.300000 -0.749173
39.350000 -0.687507
39.400000 -0.653248
39.450000 -0.660100
39.500000 -0.677229
39.550000 -0.708062
39.600000 -0.776580
39.650000 -0.869080
39.700000 -0.965004
39.750000 -1.067781
39.800000 -1.187687
39.850000 -1.300742
39.900000 -1.393241
39.950000 -1.441203
40.000000 -1.461758
40.050000 -1.472036
40.100000 -1.472036
40.150000 -1.448055
40.200000 -1.396667
40.250000 -1.338426
40.300000 -1.273334
40.350000 -1.211669
40.400000 -1.150002
40.450000 -1.098614
40.500000 -1.081485
40.550000 -1.091763
40.600000 -1.095188
40.650000 -1.084910
40.700000 -1.088337
40.750000 -1.112317
40.800000 -1.136298
40.850000 -1.146576
40.900000 -1.163706
40.950000 -1.180835
41.000000 -1.167132
41.050000 -1.119170
41.100000 -1.084910
41.150000 -1.081484
41.200000 -1.084911
41.250000 -1.050651
41.300000 -1.016392
41.350000 -1.012966
41.400000 -1.002689
41.450000 -0.975282
41.500000 -0.985560
41.550000 -1.026671
41.600000 -1.057503
41.650000 -1.084910
41.700000 -1.129447
41.750000 -1.184262
41.800000 -1.228798
41.850000 -1.249353
41.900000 -1.249353
41.950000 -1.245928
42.000000 -1.235650
42.050000 -1.167132
42.100000 -1.060929
42.150000 -0.971856
42.200000 -0.896486
42.250000 -0.807414
42.300000 -0.732044
42.350000 -0.714914
42.400000 -0.745747
42.450000 -0.786858
42.500000 -0.834821
42.550000 -0.903338
42.600000 -0.978708
42.650000 -1.047226
42.700000 -1.108891
42.750000 -1.156855
42.800000 -1.187687
42.850000 -1.187687
42.900000 -1.177410
42.950000 -1.191113
43.000000 -1.204817
43.050000 -1.173983
43.100000 -1.112318
43.150000 -1.102040
43.200000 -1.115744
43.250000 -1.122595
43.300000 -1.136299
43.350000 -1.184262
43.400000 -1.242502
43.450000 -1.287038
43.500000 -1.335000
43.550000 -1.382963
43.600000 -1.406944
43.650000 -1.417222
43.700000 -1.427500
43.750000 -1.434352
43.800000 -1.427499
43.850000 -1.396666
43.900000 -1.352130
43.950000 -1.311019
44.000000 -1.259630
44.050000 -1.191113
44.100000 -1.136299
44.150000 -1.105466
44.200000 -1.064355
44.250000 -1.016392
44.300000 -1.012966
44.350000 -1.050651
44.400000 -1.050652
44.450000 -1.019818
44.500000 -1.026670
44.550000 -1.078059
44.600000 -1.112318
44.650000 -1.132873
44.700000 -1.201390
44.750000 -1.331575
44.800000 -1.454906
44.850000 -1.526850
44.900000 -1.595368
44.950000 -1.677590
45.000000 -1.708423
45.050000 -1.660460
45.100000 -1.585090
45.150000 -1.485740
45.200000 -1.335001
45.250000 -1.170557
45.300000 -1.033522
45.350000 -0.889635
45.400000 -0.756025
45.450000 -0.694359
45.500000 -0.704637
45.550000 -0.742321
45.600000 -0.807414
45.650000 -0.893060
45.700000 -0.975282
45.750000 -1.047225
45.800000 -1.122595
45.850000 -1.167132
45.900000 -1.170557
45.950000 -1.163706
46.000000 -1.139725
46.050000 -1.067781
46.100000 -0.968430
46.150000 -0.875931
46.200000 -0.800561
46.250000 -0.752599
46.300000 -0.732044
46.350000 -0.714914
46.400000 -0.714914
46.450000 -0.762877
46.500000 -0.845098
46.550000 -0.913616
46.600000 -0.958152
46.650000 -1.009541
46.700000 -1.060929
46.750000 -1.091762
46.800000 -1.081485
46.850000 -1.067781
46.900000 -1.071207
46.950000 -1.071207
47.000000 -1.040373
47.050000 -1.016393
47.100000 -1.012966
47.150000 -1.023245
47.200000 -1.050652
47.250000 -1.091762
47.300000 -1.122595
47.350000 -1.139725
47.400000 -1.156854
47.450000 -1.160280
47.500000 -1.132873
47.550000 -1.084910
47.600000 -1.050651
47.650000 -1.033522
47.700000 -1.033523
47.750000 -1.047225
47.800000 -1.071207
47.850000 -1.119169
47.900000 -1.177410
47.950000 -1.249353
48.000000 -1.321297
48.050000 -1.389815
48.100000 -1.444629
48.150000 -1.461759
48.200000 -1.434351
48.250000 -1.376111
48.300000 -1.293890
48.350000 -1.184262
48.400000 -1.084910
48.450000 -1.002689
48.500000 -0.937597
48.550000 -0.903338
48.600000 -0.906765
48.650000 -0.934171
48.700000 -0.985559
48.750000 -1.060929
48.800000 -1.139725
48.850000 -1.191113
48.900000 -1.232224
48.950000 -1.256205
49.000000 -1.245927
49.050000 -1.211668
49.100000 -1.170558
49.150000 -1.119169
49.200000 -1.078058
49.250000 -1.078059
49.300000 -1.081485
49.350000 -1.078059
49.400000 -1.105466
49.450000 -1.180835
49.500000 -1.266483
49.550000 -1.352130
49.600000 -1.437777
49.650000 -1.519998
49.700000 -1.598794
49.750000 -1.677589
49.800000 -1.728978
49.850000 -1.735829
49.900000 -1.746107
49.950000 -1.763237
50.000000 -1.732404
50.050000 -1.660460
50.100000 -1.605646
50.150000 -1.591942
50.200000 -1.588517
50.250000 -1.602220
50.300000 -1.622775
50.350000 -1.646757
50.400000 -1.674164
50.450000 -1.704997
50.500000 -1.749533
50.550000 -1.800921
50.600000 -1.828328
50.650000 -1.828328
50.700000 -1.807774
50.750000 -1.763237
50.800000 -1.684441
50.850000 -1.591942
50.900000 -1.502869
50.950000 -1.403518
51.000000 -1.304167
51.050000 -1.221946
51.100000 -1.167132
51.150000 -1.146576
51.200000 -1.153429
51.250000 -1.173983
51.300000 -1.194539
51.350000 -1.228798
51.400000 -1.263057
51.450000 -1.283612
51.500000 -1.297315
51.550000 -1.314445
51.600000 -1.314445
51.650000 -1.293890
51.700000 -1.256205
51.750000 -1.218520
51.800000 -1.204816
51.850000 -1.221946
51.900000 -1.225372
51.950000 -1.221946
52.000000 -1.235649
52.050000 -1.259631
52.100000 -1.276760
52.150000 -1.311019
52.200000 -1.358981
52.250000 -1.386389
52.300000 -1.393241
52.350000 -1.427500
52.400000 -1.475462
52.450000 -1.509721
52.500000 -1.547405
52.550000 -1.578239
52.600000 -1.595368
52.650000 -1.622776
52.700000 -1.646757
52.750000 -1.636478
52.800000 -1.605646
52.850000 -1.595368
52.900000 -1.588516
52.950000 -1.540553
53.000000 -1.509721
53.050000 -1.492592
53.100000 -1.441203
53.150000 -1.376111
53.200000 -1.338426
53.250000 -1.287038
53.300000 -1.211668
53.350000 -1.163706
53.400000 -1.146576
53.450000 -1.102040
53.500000 -1.060930
53.550000 -1.067781
53.600000 -1.084910
53.650000 -1.102040
53.700000 -1.160280
53.750000 -1.218520
53.800000 -1.263056
53.850000 -1.307593
53.900000 -1.355556
53.950000 -1.386389
54.000000 -1.434351
54.050000 -1.475462
54.100000 -1.475462
54.150000 -1.454907
54.200000 -1.472036
54.250000 -1.468610
54.300000 -1.427499
54.350000 -1.420648
54.400000 -1.441203
54.450000 -1.437777
54.500000 -1.417222
54.550000 -1.403518
54.600000 -1.379537
54.650000 -1.355556
54.700000 -1.331575
54.750000 -1.276761
54.800000 -1.191113
54.850000 -1.122595
54.900000 -1.091763
54.950000 -1.081485
55.000000 -1.074633
55.050000 -1.064355
55.100000 -1.047225
55.150000 -1.047226
55.200000 -1.050651
55.250000 -1.023244
55.300000 -0.992412
55.350000 -0.995838
55.400000 -0.985560
55.450000 -0.941023
55.500000 -0.903338
55.550000 -0.882782
55.600000 -0.875931
55.650000 -0.896486
55.700000 -0.951300
55.750000 -1.019818
55.800000 -1.108892
55.850000 -1.215095
55.900000 -1.328149
55.950000 -1.424073
56.000000 -1.519999
56.050000 -1.595368
56.100000 -1.609072
56.150000 -1.585090
56.200000 -1.550832
56.250000 -1.485740
56.300000 -1.386389
56.350000 -1.287038
56.400000 -1.187687
56.450000 -1.078058
56.500000 -0.995837
56.550000 -0.947875
56.600000 -0.906765
56.650000 -0.872505
56.700000 -0.869079
56.750000 -0.896486
56.800000 -0.937597
56.850000 -0.971856
56.900000 -1.012967
56.950000 -1.074633
57.000000 -1.153428
57.050000 -1.242501
57.100000 -1.331575
57.150000 -1.410370
57.200000 -1.458332
57.250000 -1.472036
57.300000 -1.472036
57.350000 -1.454907
57.400000 -1.406944
57.450000 -1.300742
57.500000 -1.146576
57.550000 -0.999263
57.600000 -0.865653
57.650000 -0.735470
57.700000 -0.615563
57.750000 -0.540194
57.800000 -0.502509
57.850000 -0.488806
57.900000 -0.495657
57.950000 -0.526490
58.000000 -0.567601
58.050000 -0.615564
58.100000 -0.677229
58.150000 -0.732044
58.200000 -0.762877
58.250000 -0.783432
58.300000 -0.807414
58.350000 -0.827968
58.400000 -0.841672
58.450000 -0.858802
58.500000 -0.855376
58.550000 -0.824543
58.600000 -0.821117
58.650000 -0.851950
58.700000 -0.858802
58.750000 -0.841672
58.800000 -0.831394
58.850000 -0.821117
58.900000 -0.793709
58.950000 -0.769729
59.000000 -0.780006
59.050000 -0.810839
59.100000 -0.855376
59.150000 -0.920467
59.200000 -0.982133
59.250000 -1.019819
59.300000 -1.071207
59.350000 -1.170558
59.400000 -1.269908
59.450000 -1.324723
59.500000 -1.362407
59.550000 -1.434352
59.600000 -1.489165
59.650000 -1.485739
59.700000 -1.454906
59.750000 -1.437777
59.800000 -1.396666
59.850000 -1.311019
59.900000 -1.221946
59.950000 -1.150002
60.000000 -1.078058
60.050000 -0.985559
60.100000 -0.899913
60.150000 -0.834821
60.200000 -0.766303
60.250000 -0.690933
60.300000 -0.629267
60.350000 -0.605286
60.400000 -0.608712
60.450000 -0.632693
60.500000 -0.677229
60.550000 -0.732043
60.600000 -0.797136
60.650000 -0.862228
60.700000 -0.920468
60.750000 -0.992411
60.800000 -1.057503
60.850000 -1.088336
60.900000 -1.078058
60.950000 -1.060929
61.000000 -1.033522
61.050000 -0.965004
61.100000 -0.882783
61.150000 -0.827969
61.200000 -0.780006
61.250000 -0.714914
61.300000 -0.673803
61.350000 -0.684081
61.400000 -0.725192
61.450000 -0.790284
61.500000 -0.875931
61.550000 -0.978708
61.600000 -1.095188
61.650000 -1.225372
61.700000 -1.335001
61.750000 -1.406944
61.800000 -1.465184
61.850000 -1.496018
61.900000 -1.485740
61.950000 -1.437777
62.000000 -1.379537
62.050000 -1.307594
62.100000 -1.225372
62.150000 -1.150002
62.200000 -1.088336
62.250000 -1.033523
62.300000 -1.009541
62.350000 -1.033522
62.400000 -1.091762
62.450000 -1.150002
62.500000 -1.228798
62.550000 -1.314445
62.600000 -1.400093
62.650000 -1.461759
62.700000 -1.530276
62.750000 -1.588516
62.800000 -1.595368
62.850000 -1.547405
62.900000 -1.489165
62.950000 -1.430926
63.000000 -1.324723
63.050000 -1.177409
63.100000 -1.050652
63.150000 -0.941023
63.200000 -0.814265
63.250000 -0.690933
63.300000 -0.615563
63.350000 -0.571027
63.400000 -0.550472
63.450000 -0.574453
63.500000 -0.636119
63.550000 -0.721766
63.600000 -0.838247
63.650000 -0.954727
63.700000 -1.036948
63.750000 -1.098614
63.800000 -1.146577
63.850000 -1.132873
63.900000 -1.067781
63.950000 -0.985559
64.000000 -0.872505
64.050000 -0.732044
64.100000 -0.598434
64.150000 -0.505935
64.200000 -0.437418
64.250000 -0.396306
64.300000 -0.406584
64.350000 -0.444269
64.400000 -0.495657
64.450000 -0.574453
64.500000 -0.670378
64.550000 -0.749173
64.600000 -0.807413
64.650000 -0.851950
64.700000 -0.862228
64.750000 -0.858802
64.800000 -0.841672
64.850000 -0.793710
64.900000 -0.711488
64.950000 -0.666952
65.000000 -0.670378
65.050000 -0.673804
65.100000 -0.670378
65.150000 -0.694359
65.200000 -0.732044
65.250000 -0.749173
65.300000 -0.776580
65.350000 -0.807413
65.400000 -0.810839
65.450000 -0.773154
65.500000 -0.732044
65.550000 -0.690933
65.600000 -0.653248
65.650000 -0.625841
65.700000 -0.622415
65.750000 -0.636119
65.800000 -0.694359
65.850000 -0.803988
65.900000 -0.944449
65.950000 -1.105465
66.000000 -1.287038
66.050000 -1.485739
66.100000 -1.657034
66.150000 -1.776940
66.200000 -1.855736
66.250000 -1.920827
66.300000 -1.955087
66.350000 -1.941383
66.400000 -1.913975
66.450000 -1.889995
66.500000 -1.852310
66.550000 -1.794069
66.600000 -1.742681
66.650000 -1.711849
66.700000 -1.701570
66.750000 -1.708422
66.800000 -1.694719
66.850000 -1.684441
66.900000 -1.691293
66.950000 -1.691293
67.000000 -1.646757
67.050000 -1.585091
67.100000 -1.509720
67.150000 -1.413796
67.200000 -1.304167
67.250000 -1.204816
67.300000 -1.126022
67.350000 -1.074633
67.400000 -1.036948
67.450000 -0.995837
67.500000 -0.971856
67.550000 -0.995837
67.600000 -1.030097
67.650000 -1.036948
67.700000 -1.036948
67.750000 -1.040373
67.800000 -1.009541
67.850000 -0.958153
67.900000 -0.927320
67.950000 -0.903338
68.000000 -0.838246
68.050000 -0.759451
68.100000 -0.711489
68.150000 -0.694359
68.200000 -0.687507
68.250000 -0.684081
68.300000 -0.694359
68.350000 -0.735469
68.400000 -0.803988
68.450000 -0.875931
68.500000 -0.941023
68.550000 -1.016393
68.600000 -1.098614
68.650000 -1.167132
68.700000 -1.218520
68.750000 -1.266483
68.800000 -1.293890
68.850000 -1.314445
68.900000 -1.328149
68.950000 -1.321297
69.000000 -1.297316
69.050000 -1.269909
69.100000 -1.252779
69.150000 -1.228798
69.200000 -1.211669
69.250000 -1.215094
69.300000 -1.259631
69.350000 -1.311019
69.400000 -1.379537
69.450000 -1.458332
69.500000 -1.526851
69.550000 -1.578239
69.600000 -1.615924
69.650000 -1.653609
69.700000 -1.677589
69.750000 -1.657034
69.800000 -1.615924
69.850000 -1.571387
69.900000 -1.519998
69.950000 -1.451480
70.000000 -1.379537
70.050000 -1.293890
70.100000 -1.197965
70.150000 -1.102040
70.200000 -1.019819
70.250000 -0.923894
70.300000 -0.827969
70.350000 -0.766303
70.400000 -0.701211
70.450000 -0.608712
70.500000 -0.529917
70.550000 -0.485379
70.600000 -0.454546
70.650000 -0.427140
70.700000 -0.433991
70.750000 -0.475102
70.800000 -0.526490
70.850000 -0.577878
70.900000 -0.653248
70.950000 -0.732044
71.000000 -0.776580
71.050000 -0.797136
71.100000 -0.810839
71.150000 -0.821117
71.200000 -0.814266
71.250000 -0.800562
71.300000 -0.790283
71.350000 -0.773155
71.400000 -0.742321
71.450000 -0.711488
71.500000 -0.704636
71.550000 -0.732044
71.600000 -0.783432
71.650000 -0.848524
71.700000 -0.923893
71.750000 -1.012967
71.800000 -1.112318
71.850000 -1.218520
71.900000 -1.321297
71.950000 -1.434351
72.000000 -1.540554
72.050000 -1.646757
72.100000 -1.728977
72.150000 -1.804347
72.200000 -1.872865
72.250000 -1.931105
72.300000 -1.972216
72.350000 -1.996198
72.400000 -2.009901
72.450000 -2.006475
72.500000 -1.948234
72.550000 -1.855736
72.600000 -1.766663
72.650000 -1.677590
72.700000 -1.571387
72.750000 -1.465184
72.800000 -1.362407
72.850000 -1.245927
72.900000 -1.136299
72.950000 -1.071207
73.000000 -1.023245
73.050000 -0.978708
73.100000 -0.975282
73.150000 -1.030096
73.200000 -1.105465
73.250000 -1.167132
73.300000 -1.228798
73.350000 -1.287038
73.400000 -1.328149
73.450000 -1.341852
73.500000 -1.331574
73.550000 -1.300742
73.600000 -1.242502
73.650000 -1.156854
73.700000 -1.057503
73.750000 -0.961579
73.800000 -0.879357
73.850000 -0.807413
73.900000 -0.735470
73.950000 -0.677229
74.000000 -0.653248
74.050000 -0.646396
74.100000 -0.639544
74.150000 -0.639545
74.200000 -0.666951
74.250000 -0.697785
74.300000 -0.725192
74.350000 -0.759451
74.400000 -0.800561
74.450000 -0.817691
74.500000 -0.824543
74.550000 -0.858802
74.600000 -0.917042
74.650000 -0.947874
74.700000 -0.944449
74.750000 -0.947875
74.800000 -0.982134
74.850000 -1.009541
74.900000 -1.016393
74.950000 -1.026670
75.000000 -1.054078
75.050000 -1.054077
75.100000 -1.033522
75.150000 -1.026671
75.200000 -1.023244
75.250000 -1.002689
75.300000 -0.978708
75.350000 -0.961579
75.400000 -0.934172
75.450000 -0.903338
75.500000 -0.903338
75.550000 -0.944449
75.600000 -0.971856
75.650000 -0.978708
75.700000 -1.026670
75.750000 -1.115743
75.800000 -1.204816
75.850000 -1.263057
75.900000 -1.335000
75.950000 -1.406945
76.000000 -1.441203
76.050000 -1.434351
76.100000 -1.413795
76.150000 -1.376111
76.200000 -1.321297
76.250000 -1.256204
76.300000 -1.191113
76.350000 -1.146577
76.400000 -1.150003
76.450000 -1.187687
76.500000 -1.232224
76.550000 -1.314445
76.600000 -1.441203
76.650000 -1.578239
76.700000 -1.694718
76.750000 -1.794069
76.800000 -1.900273
76.850000 -1.985920
76.900000 -2.020178
76.950000 -1.989345
77.000000 -1.944809
77.050000 -1.903698
77.100000 -1.831754
77.150000 -1.735830
77.200000 -1.677590
77.250000 -1.643331
77.300000 -1.605645
77.350000 -1.591942
77.400000 -1.612497
77.450000 -1.626201
77.500000 -1.633053
77.550000 -1.653608
77.600000 -1.646757
77.650000 -1.598794
77.700000 -1.543980
77.750000 -1.485739
77.800000 -1.413796
77.850000 -1.321297
77.900000 -1.225371
77.950000 -1.146576
78.000000 -1.105466
78.050000 -1.074633
78.100000 -1.050652
78.150000 -1.084910
78.200000 -1.177410
78.250000 -1.245928
78.300000 -1.283612
78.350000 -1.341852
78.400000 -1.389814
78.450000 -1.382963
78.500000 -1.341853
78.550000 -1.300741
78.600000 -1.235649
78.650000 -1.146576
78.700000 -1.064355
78.750000 -0.978708
78.800000 -0.869080
78.850000 -0.766302
78.900000 -0.697785
78.950000 -0.642970
79.000000 -0.574453
79.050000 -0.516213
79.100000 -0.505935
79.150000 -0.523065
79.200000 -0.519639
79.250000 -0.492232
79.300000 -0.492231
79.350000 -0.519639
79.400000 -0.536768
79.450000 -0.553897
79.500000 -0.605286
79.550000 -0.680655
79.600000 -0.783432
79.650000 -0.906764
79.700000 -0.999263
79.750000 -1.057504
79.800000 -1.122595
79.850000 -1.204817
79.900000 -1.249353
79.950000 -1.256205
80.000000 -1.249354
80.050000 -1.201391
80.100000 -1.122595
80.150000 -1.047226
80.200000 -0.988986
80.250000 -0.930745
80.300000 -0.899913
80.350000 -0.917042
80.400000 -0.961579
80.450000 -1.047226
80.500000 -1.191113
80.550000 -1.355556
80.600000 -1.506295
80.650000 -1.653608
80.700000 -1.804348
80.750000 -1.920827
80.800000 -1.965364
80.850000 -1.937957
80.900000 -1.883143
80.950000 -1.818051
81.000000 -1.728978
81.050000 -1.602220
81.100000 -1.482314
81.150000 -1.369259
81.200000 -1.225372
81.250000 -1.088336
81.300000 -1.023244
81.350000 -0.995837
81.400000 -0.954727
81.450000 -0.913616
81.500000 -0.893061
81.550000 -0.865653
81.600000 -0.821116
81.650000 -0.776580
81.700000 -0.759451
81.750000 -0.769728
81.800000 -0.769729
81.850000 -0.742321
81.900000 -0.738896
81.950000 -0.783432
82.000000 -0.810839
82.050000 -0.817691
82.100000 -0.851950
82.150000 -0.917042
82.200000 -0.958153
82.250000 -0.978708
82.300000 -1.006115
82.350000 -1.054077
82.400000 -1.098614
82.450000 -1.132873
82.500000 -1.143150
82.550000 -1.156854
82.600000 -1.153428
82.650000 -1.108892
82.700000 -1.064355
82.750000 -1.040374
82.800000 -0.965004
82.850000 -0.817691
82.900000 -0.708062
82.950000 -0.666952
83.000000 -0.618989
83.050000 -0.571027
83.100000 -0.612138
83.150000 -0.732044
83.200000 -0.865654
83.250000 -1.012967
83.300000 -1.173984
83.350000 -1.335001
83.400000 -1.475461
83.450000 -1.581665
83.500000 -1.636479
83.550000 -1.639905
83.600000 -1.595368
83.650000 -1.492591
83.700000 -1.358981
83.750000 -1.242501
83.800000 -1.139725
83.850000 -1.054078
83.900000 -1.036948
83.950000 -1.078058
84.000000 -1.115743
84.050000 -1.163706
84.100000 -1.256205
84.150000 -1.352129
84.200000 -1.410370
84.250000 -1.430925
84.300000 -1.403519
84.350000 -1.362407
84.400000 -1.328148
84.450000 -1.266483
84.500000 -1.163706
84.550000 -1.078059
84.600000 -1.043800
84.650000 -0.985559
84.700000 -0.920467
84.750000 -0.896486
84.800000 -0.893061
84.850000 -0.879357
84.900000 -0.865653
84.950000 -0.851950
85.000000 -0.821116
85.050000 -0.786858
85.100000 -0.762876
85.150000 -0.742322
85.200000 -0.745748
85.250000 -0.766302
85.300000 -0.803988
85.350000 -0.845098
85.400000 -0.886209
85.450000 -0.920467
85.500000 -0.965005
85.550000 -1.012967
85.600000 -1.043800
85.650000 -1.047226
85.700000 -1.067781
85.750000 -1.102040
85.800000 -1.119169
85.850000 -1.122595
85.900000 -1.146576
85.950000 -1.184261
86.000000 -1.191113
86.050000 -1.184261
86.100000 -1.187687
86.150000 -1.197965
86.200000 -1.180835
86.250000 -1.119169
86.300000 -1.036948
86.350000 -0.961578
86.400000 -0.893061
86.450000 -0.827968
86.500000 -0.749174
86.550000 -0.690933
86.600000 -0.690933
86.650000 -0.701211
86.700000 -0.704636
86.750000 -0.738895
86.800000 -0.824543
86.850000 -0.906764
86.900000 -0.965004
86.950000 -1.009541
87.000000 -1.019818
87.050000 -0.995837
87.100000 -0.954727
87.150000 -0.903338
87.200000 -0.851950
87.250000 -0.780006
87.300000 -0.701210
87.350000 -0.642970
87.400000 -0.618989
87.450000 -0.608711
87.500000 -0.618990
87.550000 -0.646396
87.600000 -0.677230
87.650000 -0.708063
87.700000 -0.732043
87.750000 -0.738895
87.800000 -0.714914
87.850000 -0.660100
87.900000 -0.601860
87.950000 -0.536768
88.000000 -0.451121
88.050000 -0.358622
88.100000 -0.307233
88.150000 -0.296956
88.200000 -0.303807
88.250000 -0.344918
88.300000 -0.457972
88.350000 -0.618990
88.400000 -0.773155
88.450000 -0.927320
88.500000 -1.108891
88.550000 -1.290463
88.600000 -1.434351
88.650000 -1.530277
88.700000 -1.581665
88.750000 -1.591942
88.800000 -1.571387
88.850000 -1.509721
88.900000 -1.413796
88.950000 -1.314445
89.000000 -1.197965
89.050000 -1.078058
89.100000 -0.988986
89.150000 -0.951301
89.200000 -0.951301
89.250000 -0.971856
89.300000 -1.009541
89.350000 -1.047226
89.400000 -1.074632
89.450000 -1.095188
89.500000 -1.136299
89.550000 -1.170558
89.600000 -1.187687
89.650000 -1.208243
89.700000 -1.249353
89.750000 -1.259631
89.800000 -1.256205
89.850000 -1.293890
89.900000 -1.345278
89.950000 -1.376112
90.000000 -1.434351
90.050000 -1.502869
90.100000 -1.513147
90.150000 -1.513147
90.200000 -1.557683
90.250000 -1.567961
90.300000 -1.502869
90.350000 -1.458332
90.400000 -1.441203
90.450000 -1.386388
90.500000 -1.321297
90.550000 -1.283612
90.600000 -1.225372
90.650000 -1.146576
90.700000 -1.091762
90.750000 -1.023245
90.800000 -0.958153
90.850000 -0.947875
90.900000 -0.961578
90.950000 -0.944449
91.000000 -0.944449
91.050000 -0.988986
91.100000 -0.995838
91.150000 -0.995837
91.200000 -1.057503
91.250000 -1.136299
91.300000 -1.170558
91.350000 -1.218520
91.400000 -1.287038
91.450000 -1.311019
91.500000 -1.293890
91.550000 -1.290463
91.600000 -1.266483
91.650000 -1.211668
91.700000 -1.160280
91.750000 -1.126021
91.800000 -1.071207
91.850000 -1.009541
91.900000 -0.975282
91.950000 -0.954727
92.000000 -0.947875
92.050000 -0.965004
92.100000 -0.995837
92.150000 -1.047226
92.200000 -1.115744
92.250000 -1.177409
92.300000 -1.215094
92.350000 -1.269909
92.400000 -1.314445
92.450000 -1.307594
92.500000 -1.283612
92.550000 -1.249354
92.600000 -1.194539
92.650000 -1.105466
92.700000 -1.002689
92.750000 -0.886209
92.800000 -0.766303
92.850000 -0.656674
92.900000 -0.553898
92.950000 -0.478528
93.000000 -0.447695
93.050000 -0.451121
93.100000 -0.475102
93.150000 -0.509361
93.200000 -0.540194
93.250000 -0.605285
93.300000 -0.708062
93.350000 -0.797136
93.400000 -0.838246
93.450000 -0.875931
93.500000 -0.913616
93.550000 -0.913615
93.600000 -0.893060
93.650000 -0.872505
93.700000 -0.827969
93.750000 -0.766302
93.800000 -0.711488
93.850000 -0.670377
93.900000 -0.629267
93.950000 -0.598434
94.000000 -0.581304
94.050000 -0.567601
94.100000 -0.574453
94.150000 -0.595008
94.200000 -0.615563
94.250000 -0.649822
94.300000 -0.704637
94.350000 -0.759451
94.400000 -0.790284
94.450000 -0.817691
94.500000 -0.845098
94.550000 -0.858802
94.600000 -0.851950
94.650000 -0.834820
94.700000 -0.800561
94.750000 -0.749173
94.800000 -0.704636
94.850000 -0.687507
94.900000 -0.690933
94.950000 -0.714914
95.000000 -0.759450
95.050000 -0.827968
95.100000 -0.923893
95.150000 -1.057503
95.200000 -1.184261
95.250000 -1.293890
95.300000 -1.386389
95.350000 -1.465185
95.400000 -1.496017
95.450000 -1.465184
95.500000 -1.393241
95.550000 -1.297316
95.600000 -1.177409
95.650000 -1.033522
95.700000 -0.893061
95.750000 -0.769728
95.800000 -0.663526
95.850000 -0.574453
95.900000 -0.526490
95.950000 -0.536768
96.000000 -0.557324
96.050000 -0.584730
96.100000 -0.680656
96.150000 -0.824543
96.200000 -0.927319
96.250000 -0.988985
96.300000 -1.067781
96.350000 -1.156854
96.400000 -1.211668
96.450000 -1.225372
96.500000 -1.218520
96.550000 -1.208242
96.600000 -1.194539
96.650000 -1.173984
96.700000 -1.136299
96.750000 -1.088336
96.800000 -1.057503
96.850000 -1.036948
96.900000 -1.002689
96.950000 -0.978708
97.000000 -0.982134
97.050000 -0.975282
97.100000 -0.937597
97.150000 -0.910190
97.200000 -0.886209
97.250000 -0.817691
97.300000 -0.738896
97.350000 -0.701211
97.400000 -0.653248
97.450000 -0.564175
97.500000 -0.488805
97.550000 -0.433991
97.600000 -0.362047
97.650000 -0.307233
97.700000 -0.310659
97.750000 -0.341492
97.800000 -0.386029
97.850000 -0.457973
97.900000 -0.550472
97.950000 -0.656674
98.000000 -0.759450
98.050000 -0.824543
98.100000 -0.872505
98.150000 -0.930745
98.200000 -0.961578
98.250000 -0.923893
98.300000 -0.855375
98.350000 -0.803987
98.400000 -0.766303
98.450000 -0.735470
98.500000 -0.714914
98.550000 -0.694359
98.600000 -0.687507
98.650000 -0.728618
98.700000 -0.797136
98.750000 -0.848524
98.800000 -0.896486
98.850000 -0.934172
98.900000 -0.920467
98.950000 -0.862228
99.000000 -0.766303
99.050000 -0.642971
99.100000 -0.509361
99.150000 -0.392881
99.200000 -0.286678
99.250000 -0.214735
99.300000 -0.204456
99.350000 -0.221586
99.400000 -0.259271
99.450000 -0.341492
99.500000 -0.447695
99.550000 -0.547046
99.600000 -0.649822
99.650000 -0.759450
99.700000 -0.862228
99.750000 -0.937597
99.800000 -0.992411
99.850000 -1.030096
99.900000 -1.043800
99.950000 -1.050652
100.000000 -1.043800
100.050000 -1.009540
100.100000 -0.971856
100.150000 -0.958152
100.200000 -0.947875
100.250000 -0.937597
100.300000 -0.947875
100.350000 -0.951300
100.400000 -0.971856
100.450000 -1.040374
100.500000 -1.136298
100.550000 -1.221946
100.600000 -1.307593
100.650000 -1.389815
100.700000 -1.420648
100.750000 -1.413796
100.800000 -1.386389
100.850000 -1.314445
100.900000 -1.180836
100.950000 -1.054077
101.000000 -0.947875
101.050000 -0.824543
101.100000 -0.687507
101.150000 -0.567601
101.200000 -0.481953
101.250000 -0.416862
101.300000 -0.382603
101.350000 -0.382603
101.400000 -0.396306
101.450000 -0.437418
101.500000 -0.488806
101.550000 -0.533342
101.600000 -0.581304
101.650000 -0.656674
101.700000 -0.735470
101.750000 -0.810840
101.800000 -0.886209
101.850000 -0.971857
101.900000 -1.033522
101.950000 -1.067781
102.000000 -1.071207
102.050000 -1.050652
102.100000 -1.030096
102.150000 -1.009541
102.200000 -0.971856
102.250000 -0.903339
102.300000 -0.834821
102.350000 -0.783432
102.400000 -0.725192
102.450000 -0.642970
102.500000 -0.581305
102.550000 -0.540194
102.600000 -0.488805
102.650000 -0.413436
102.700000 -0.358621
102.750000 -0.327789
102.800000 -0.303807
102.850000 -0.279826
102.900000 -0.279826
102.950000 -0.320937
103.000000 -0.413436
103.050000 -0.533342
103.100000 -0.663526
103.150000 -0.776580
103.200000 -0.875931
103.250000 -0.982133
103.300000 -1.098614
103.350000 -1.191114
103.400000 -1.252779
103.450000 -1.280186
103.500000 -1.283612
103.550000 -1.283612
103.600000 -1.269909
103.650000 -1.218520
103.700000 -1.146577
103.750000 -1.091762
103.800000 -1.047226
103.850000 -0.978708
103.900000 -0.913616
103.950000 -0.875931
104.000000 -0.869079
104.050000 -0.858802
104.100000 -0.834820
104.150000 -0.817692
104.200000 -0.821117
104.250000 -0.834820
104.300000 -0.855376
104.350000 -0.886209
104.400000 -0.930745
104.450000 -0.937597
104.500000 -0.937597
104.550000 -0.968430
104.600000 -1.006115
104.650000 -1.033522
104.700000 -1.054078
104.750000 -1.088337
104.800000 -1.119170
104.850000 -1.170558
104.900000 -1.232224
104.950000 -1.256205
105.000000 -1.252779
105.050000 -1.266482
105.100000 -1.259630
105.150000 -1.215094
105.200000 -1.153428
105.250000 -1.067781
105.300000 -0.937597
105.350000 -0.817691
105.400000 -0.728618
105.450000 -0.629267
105.500000 -0.529916
105.550000 -0.478527
105.600000 -0.464824
105.650000 -0.481954
105.700000 -0.540194
105.750000 -0.629267
105.800000 -0.718340
105.850000 -0.814265
105.900000 -0.930745
105.950000 -1.047225
106.000000 -1.122596
106.050000 -1.170558
106.100000 -1.225372
106.150000 -1.276761
106.200000 -1.293890
106.250000 -1.293890
106.300000 -1.307593
106.350000 -1.317871
106.400000 -1.273334
106.450000 -1.218520
106.500000 -1.194539
106.550000 -1.153428
106.600000 -1.078059
106.650000 -1.030096
106.700000 -0.995837
106.750000 -0.930745
106.800000 -0.886209
106.850000 -0.889635
106.900000 -0.903338
106.950000 -0.934171
107.000000 -1.012966
107.050000 -1.078058
107.100000 -1.108892
107.150000 -1.167132
107.200000 -1.215094
107.250000 -1.208243
107.300000 -1.170558
107.350000 -1.136299
107.400000 -1.067781
107.450000 -0.999263
107.500000 -0.954727
107.550000 -0.882783
107.600000 -0.793710
107.650000 -0.749173
107.700000 -0.749173
107.750000 -0.749174
107.800000 -0.762876
107.850000 -0.790284
107.900000 -0.807414
107.950000 -0.827969
108.000000 -0.841672
108.050000 -0.831394
108.100000 -0.821116
108.150000 -0.838246
108.200000 -0.827968
108.250000 -0.776580
108.300000 -0.769729
108.350000 -0.797136
108.400000 -0.814265
108.450000 -0.831395
108.500000 -0.838247
108.550000 -0.824543
108.600000 -0.834821
108.650000 -0.875932
108.700000 -0.893060
108.750000 -0.906765
108.800000 -0.965004
108.850000 -1.009541
108.900000 -1.002689
108.950000 -1.019818
109.000000 -1.081484
109.050000 -1.091762
109.100000 -1.074633
109.150000 -1.098614
109.200000 -1.122596
109.250000 -1.084910
109.300000 -1.036948
109.350000 -1.030096
109.400000 -0.999263
109.450000 -0.944449
109.500000 -0.927320
109.550000 -0.937597
109.600000 -0.958152
109.650000 -0.988986
109.700000 -1.040374
109.750000 -1.095188
109.800000 -1.146577
109.850000 -1.194539
109.900000 -1.211669
109.950000 -1.218520
110.000000 -1.211668
110.050000 -1.184261
110.100000 -1.122595
110.150000 -1.060929
110.200000 -1.002689
110.250000 -0.934172
110.300000 -0.848524
110.350000 -0.780006
110.400000 -0.738896
110.450000 -0.711489
110.500000 -0.708063
110.550000 -0.749173
110.600000 -0.810839
110.650000 -0.879357
110.700000 -0.958152
110.750000 -1.047225
110.800000 -1.122596
110.850000 -1.194539
110.900000 -1.263056
110.950000 -1.304167
111.000000 -1.300741
111.050000 -1.276760
111.100000 -1.256205
111.150000 -1.228797
111.200000 -1.221946
111.250000 -1.221946
111.300000 -1.191113
111.350000 -1.167132
111.400000 -1.197965
111.450000 -1.242502
111.500000 -1.273334
111.550000 -1.311019
111.600000 -1.335000
111.650000 -1.324723
111.700000 -1.314445
111.750000 -1.321297
111.800000 -1.287037
111.850000 -1.204817
111.900000 -1.119169
111.950000 -1.060929
112.000000 -1.012966
112.050000 -0.965004
112.100000 -0.920468
112.150000 -0.910190
112.200000 -0.937597
112.250000 -0.995838
112.300000 -1.074633
112.350000 -1.197965
112.400000 -1.335001
112.450000 -1.448055
112.500000 -1.530276
112.550000 -1.598794
112.600000 -1.619349
112.650000 -1.574813
112.700000 -1.496017
112.750000 -1.386388
112.800000 -1.252779
112.850000 -1.108891
112.900000 -0.999263
112.950000 -0.923893
113.000000 -0.886209
113.050000 -0.896487
113.100000 -0.961578
113.150000 -1.064355
113.200000 -1.204816
113.250000 -1.365833
113.300000 -1.516573
113.350000 -1.633053
113.400000 -1.704996
113.450000 -1.732404
113.500000 -1.718700
113.550000 -1.660460
113.600000 -1.561109
113.650000 -1.417222
113.700000 -1.256205
113.750000 -1.108892
113.800000 -0.975282
113.850000 -0.845098
113.900000 -0.742322
113.950000 -0.687507
114.000000 -0.649822
114.050000 -0.615564
114.100000 -0.601860
114.150000 -0.608712
114.200000 -0.636119
114.250000 -0.653248
114.300000 -0.656674
114.350000 -0.663526
114.400000 -0.704637
114.450000 -0.756025
114.500000 -0.786858
114.550000 -0.838246
114.600000 -0.917042
114.650000 -0.999263
114.700000 -1.091762
114.750000 -1.211669
114.800000 -1.317871
114.850000 -1.382963
114.900000 -1.451481
114.950000 -1.523424
115.000000 -1.530276
115.050000 -1.482313
115.100000 -1.424074
115.150000 -1.372685
115.200000 -1.280186
115.250000 -1.167132
115.300000 -1.047226
115.350000 -0.930745
115.400000 -0.821116
115.450000 -0.735469
115.500000 -0.684081
115.550000 -0.660100
115.600000 -0.663526
115.650000 -0.701210
115.700000 -0.773154
115.750000 -0.855376
115.800000 -0.951301
115.850000 -1.064356
115.900000 -1.187688
115.950000 -1.273334
116.000000 -1.304168
116.050000 -1.317871
116.100000 -1.317871
116.150000 -1.283612
116.200000 -1.211668
116.250000 -1.136299
116.300000 -1.047225
116.350000 -0.971856
116.400000 -0.937597
116.450000 -0.941023
116.500000 -0.958152
116.550000 -1.002689
116.600000 -1.088336
116.650000 -1.184262
116.700000 -1.283612
116.750000 -1.386389
116.800000 -1.465184
116.850000 -1.482314
116.900000 -1.468610
116.950000 -1.427500
117.000000 -1.324723
117.050000 -1.177410
117.100000 -1.033522
117.150000 -0.903338
117.200000 -0.780006
117.250000 -0.666952
117.300000 -0.584730
117.350000 -0.564175
117.400000 -0.601860
117.450000 -0.673803
117.500000 -0.759451
117.550000 -0.886209
117.600000 -1.030097
117.650000 -1.160280
117.700000 -1.259631
117.750000 -1.331575
117.800000 -1.376111
117.850000 -1.389814
117.900000 -1.365833
117.950000 -1.328149
118.000000 -1.293890
118.050000 -1.249353
118.100000 -1.184261
118.150000 -1.122595
118.200000 -1.084910
118.250000 -1.071207
118.300000 -1.084910
118.350000 -1.122595
118.400000 -1.180836
118.450000 -1.249353
118.500000 -1.304167
118.550000 -1.341852
118.600000 -1.376111
118.650000 -1.389814
118.700000 -1.348704
118.750000 -1.266482
118.800000 -1.160280
118.850000 -1.023244
118.900000 -0.882783
118.950000 -0.786858
119.000000 -0.697785
119.050000 -0.581305
119.100000 -0.488805
119.150000 -0.457973
119.200000 -0.471676
119.250000 -0.523064
119.300000 -0.588156
119.350000 -0.636119
119.400000 -0.680656
119.450000 -0.752599
119.500000 -0.841672
119.550000 -0.903338
119.600000 -0.951301
119.650000 -0.992411
119.700000 -1.026670
119.750000 -1.050652
119.800000 -1.067781
119.850000 -1.060929
119.900000 -1.040374
119.950000 -1.002689
120.000000 -0.961578
120.050000 -0.927320
120.100000 -0.886208
120.150000 -0.834821
120.200000 -0.797136
120.250000 -0.786858
120.300000 -0.776580
120.350000 -0.780006
120.400000 -0.803988
120.450000 -0.841672
120.500000 -0.872505
120.550000 -0.920468
120.600000 -0.968430
120.650000 -0.985559
120.700000 -0.992412
120.750000 -0.999264
120.800000 -0.971856
120.850000 -0.923893
120.900000 -0.906764
120.950000 -0.889635
121.000000 -0.875931
121.050000 -0.886209
121.100000 -0.917042
121.150000 -0.934172
121.200000 -0.961578
121.250000 -0.999264
121.300000 -1.006115
121.350000 -0.988986
121.400000 -0.985560
121.450000 -0.978707
121.500000 -0.941023
121.550000 -0.896487
121.600000 -0.862228
121.650000 -0.834821
121.700000 -0.845098
121.750000 -0.889635
121.800000 -0.958153
121.850000 -1.054077
121.900000 -1.160280
121.950000 -1.235650
122.000000 -1.293890
122.050000 -1.362407
122.100000 -1.403518
122.150000 -1.393241
122.200000 -1.355556
122.250000 -1.307593
122.300000 -1.225372
122.350000 -1.105466
122.400000 -0.982134
122.450000 -0.879357
122.500000 -0.797136
122.550000 -0.749173
122.600000 -0.708063
122.650000 -0.680655
122.700000 -0.660101
122.750000 -0.660100
122.800000 -0.718341
122.850000 -0.817691
122.900000 -0.893061
122.950000 -0.934171
123.000000 -1.002689
123.050000 -1.074633
123.100000 -1.115743
123.150000 -1.143151
123.200000 -1.201391
123.250000 -1.242501
123.300000 -1.228797
123.350000 -1.211669
123.400000 -1.221946
123.450000 -1.211669
123.500000 -1.173984
123.550000 -1.139724
123.600000 -1.115743
123.650000 -1.071207
123.700000 -1.026670
123.750000 -0.992412
123.800000 -0.958153
123.850000 -0.927320
123.900000 -0.927320
123.950000 -0.920468
124.000000 -0.893061
124.050000 -0.879357
124.100000 -0.899912
124.150000 -0.903338
124.200000 -0.886209
124.250000 -0.865653
124.300000 -0.855376
124.350000 -0.855376
124.400000 -0.869079
124.450000 -0.879357
124.500000 -0.893061
124.550000 -0.937597
124.600000 -0.992412
124.650000 -1.023244
124.700000 -1.043800
124.750000 -1.098614
124.800000 -1.163706
124.850000 -1.177410
124.900000 -1.160280
124.950000 -1.153428
125.000000 -1.115744
125.050000 -1.036948
125.100000 -0.961578
125.150000 -0.893060
125.200000 -0.821116
125.250000 -0.766302
125.300000 -0.769729
125.350000 -0.790283
125.400000 -0.780006
125.450000 -0.790284
125.500000 -0.838247
125.550000 -0.882783
125.600000 -0.889635
125.650000 -0.875931
125.700000 -0.875931
125.750000 -0.889635
125.800000 -0.879357
125.850000 -0.841673
125.900000 -0.824543
125.950000 -0.827968
126.000000 -0.797135
126.050000 -0.759451
126.100000 -0.759451
126.150000 -0.769729
126.200000 -0.745747
126.250000 -0.714914
126.300000 -0.673804
126.350000 -0.595008
126.400000 -0.478528
126.450000 -0.365473
126.500000 -0.269549
126.550000 -0.204457
126.600000 -0.166772
126.650000 -0.149642
126.700000 -0.180476
126.750000 -0.266123
126.800000 -0.382603
126.850000 -0.516213
126.900000 -0.673804
126.950000 -0.821117
127.000000 -0.927319
127.050000 -1.006115
127.100000 -1.060930
127.150000 -1.078058
127.200000 -1.050652
127.250000 -1.019819
127.300000 -0.985559
127.350000 -0.954727
127.400000 -0.947875
127.450000 -0.968430
127.500000 -1.002689
127.550000 -1.036947
127.600000 -1.088336
127.650000 -1.129447
127.700000 -1.129447
127.750000 -1.088336
127.800000 -1.043800
127.850000 -0.995838
127.900000 -0.944449
127.950000 -0.913616
128.000000 -0.906764
128.050000 -0.920468
128.100000 -0.961578
128.150000 -1.026670
128.200000 -1.084910
128.250000 -1.143150
128.300000 -1.208243
128.350000 -1.252779
128.400000 -1.256205
128.450000 -1.211669
128.500000 -1.119169
128.550000 -0.999263
128.600000 -0.875931
128.650000 -0.762877
128.700000 -0.666952
128.750000 -0.595008
128.800000 -0.567601
128.850000 -0.567601
128.900000 -0.591583
128.950000 -0.663526
129.000000 -0.759451
129.050000 -0.834820
129.100000 -0.903338
129.150000 -0.992412
129.200000 -1.067781
129.250000 -1.102040
129.300000 -1.122595
129.350000 -1.143151
129.400000 -1.160280
129.450000 -1.160280
129.500000 -1.150002
129.550000 -1.115743
129.600000 -1.057503
129.650000 -1.009541
129.700000 -1.002689
129.750000 -0.999263
129.800000 -0.944449
129.850000 -0.865653
129.900000 -0.814265
129.950000 -0.790283
130.000000 -0.756025
130.050000 -0.738895
130.100000 -0.752599
130.150000 -0.762877
130.200000 -0.745747
130.250000 -0.742322
130.300000 -0.793709
130.350000 -0.831395
130.400000 -0.845098
130.450000 -0.875931
130.500000 -0.930746
130.550000 -0.961578
130.600000 -0.985559
130.650000 -1.033522
130.700000 -1.088337
130.750000 -1.126021
130.800000 -1.153428
130.850000 -1.197965
130.900000 -1.259631
130.950000 -1.317871
131.000000 -1.365833
131.050000 -1.434352
131.100000 -1.516573
131.150000 -1.543979
131.200000 -1.523424
131.250000 -1.516573
131.300000 -1.523424
131.350000 -1.502869
131.400000 -1.458332
131.450000 -1.396666
131.500000 -1.307593
131.550000 -1.208242
131.600000 -1.091762
131.650000 -0.951301
131.700000 -0.848524
131.750000 -0.821117
131.800000 -0.814265
131.850000 -0.810840
131.900000 -0.851950
131.950000 -0.930745
132.000000 -1.016392
132.050000 -1.108891
132.100000 -1.225372
132.150000 -1.328149
132.200000 -1.420648
132.250000 -1.492591
132.300000 -1.509721
132.350000 -1.482313
132.400000 -1.434351
132.450000 -1.348704
132.500000 -1.218520
132.550000 -1.088337
132.600000 -0.992411
132.650000 -0.886209
132.700000 -0.780006
132.750000 -0.711488
132.800000 -0.690933
132.850000 -0.684082
132.900000 -0.677230
132.950000 -0.694359
133.000000 -0.728618
133.050000 -0.725192
133.100000 -0.704637
133.150000 -0.718340
133.200000 -0.749173
133.250000 -0.756025
133.300000 -0.762877
133.350000 -0.803987
133.400000 -0.851950
133.450000 -0.899913
133.500000 -0.954726
133.550000 -1.002689
133.600000 -1.054078
133.650000 -1.119170
133.700000 -1.163706
133.750000 -1.160280
133.800000 -1.139725
133.850000 -1.122595
133.900000 -1.071207
133.950000 -1.012966
134.000000 -0.965004
134.050000 -0.920468
134.100000 -0.865653
134.150000 -0.831394
134.200000 -0.817691
134.250000 -0.786858
134.300000 -0.756025
134.350000 -0.762877
134.400000 -0.776580
134.450000 -0.790284
134.500000 -0.817691
134.550000 -0.831395
134.600000 -0.800561
134.650000 -0.759451
134.700000 -0.732044
134.750000 -0.711488
134.800000 -0.677229
134.850000 -0.636119
134.900000 -0.581304
134.950000 -0.564175
135.000000 -0.584731
135.050000 -0.581305
135.100000 -0.557324
135.150000 -0.571027
135.200000 -0.608711
135.250000 -0.629267
135.300000 -0.639545
135.350000 -0.660100
135.400000 -0.684081
135.450000 -0.704637
135.500000 -0.718340
135.550000 -0.745747
135.600000 -0.790284
135.650000 -0.821116
135.700000 -0.827969
135.750000 -0.869079
135.800000 -0.944449
135.850000 -0.999263
135.900000 -1.009541
135.950000 -1.012967
136.000000 -1.012967
136.050000 -0.965004
136.100000 -0.865653
136.150000 -0.762877
136.200000 -0.687507
136.250000 -0.618989
136.300000 -0.557323
136.350000 -0.523064
136.400000 -0.529916
136.450000 -0.557323
136.500000 -0.601860
136.550000 -0.666951
136.600000 -0.759451
136.650000 -0.858802
136.700000 -0.965004
136.750000 -1.081484
136.800000 -1.180835
136.850000 -1.232223
136.900000 -1.249353
136.950000 -1.263056
137.000000 -1.266483
137.050000 -1.225372
137.100000 -1.156854
137.150000 -1.115743
137.200000 -1.105466
137.250000 -1.105466
137.300000 -1.088337
137.350000 -1.054078
137.400000 -1.033522
137.450000 -1.033522
137.500000 -1.036948
137.550000 -1.033522
137.600000 -1.047226
137.650000 -1.078058
137.700000 -1.071207
137.750000 -1.050651
137.800000 -1.050652
137.850000 -1.060929
137.900000 -1.036948
137.950000 -0.988986
138.000000 -0.958153
138.050000 -0.906764
138.100000 -0.838246
138.150000 -0.803987
138.200000 -0.800562
138.250000 -0.776580
138.300000 -0.738895
138.350000 -0.725192
138.400000 -0.728618
138.450000 -0.721766
138.500000 -0.697785
138.550000 -0.673803
138.600000 -0.646396
138.650000 -0.636119
138.700000 -0.636119
138.750000 -0.632693
138.800000 -0.618990
138.850000 -0.601860
138.900000 -0.581305
138.950000 -0.557323
139.000000 -0.560750
139.050000 -0.567601
139.100000 -0.564175
139.150000 -0.564176
139.200000 -0.584730
139.250000 -0.591582
139.300000 -0.581305
139.350000 -0.574453
139.400000 -0.557323
139.450000 -0.512787
139.500000 -0.461399
139.550000 -0.423713
139.600000 -0.403158
139.650000 -0.410011
139.700000 -0.440843
139.750000 -0.495657
139.800000 -0.574453
139.850000 -0.646397
139.900000 -0.738896
139.950000 -0.865653
140.000000 -0.988985
140.050000 -1.060929
140.100000 -1.105466
140.150000 -1.132873
140.200000 -1.098614
140.250000 -1.023245
140.300000 -0.965004
140.350000 -0.899912
140.400000 -0.803987
140.450000 -0.732044
140.500000 -0.708063
140.550000 -0.690933
140.600000 -0.680656
140.650000 -0.732044
140.700000 -0.807413
140.750000 -0.858801
140.800000 -0.889635
140.850000 -0.913616
140.900000 -0.893061
140.950000 -0.831395
141.000000 -0.732044
141.050000 -0.612137
141.100000 -0.495658
141.150000 -0.403158
141.200000 -0.324363
141.250000 -0.248994
141.300000 -0.204457
141.350000 -0.214734
141.400000 -0.259271
141.450000 -0.331215
141.500000 -0.406584
141.550000 -0.481954
141.600000 -0.557323
141.650000 -0.636119
141.700000 -0.704637
141.750000 -0.762877
141.800000 -0.827969
141.850000 -0.893060
141.900000 -0.978708
141.950000 -1.081485
142.000000 -1.177409
142.050000 -1.249353
142.100000 -1.311020
142.150000 -1.362407
142.200000 -1.376111
142.250000 -1.362407
142.300000 -1.324723
142.350000 -1.256205
142.400000 -1.170558
142.450000 -1.078059
142.500000 -0.988985
142.550000 -0.923893
142.600000 -0.879357
142.650000 -0.851950
142.700000 -0.896486
142.750000 -1.012967
142.800000 -1.129447
142.850000 -1.218520
142.900000 -1.324723
142.950000 -1.430926
143.000000 -1.506295
143.050000 -1.561109
143.100000 -1.567961
143.150000 -1.519998
143.200000 -1.458332
143.250000 -1.358982
143.300000 -1.180836
143.350000 -0.999263
143.400000 -0.869079
143.450000 -0.766302
143.500000 -0.670378
143.550000 -0.639544
143.600000 -0.653248
143.650000 -0.666952
143.700000 -0.721766
143.750000 -0.848524
143.800000 -0.965004
143.850000 -1.023245
143.900000 -1.057504
143.950000 -1.078058
144.000000 -1.057503
144.050000 -1.009540
144.100000 -0.941023
144.150000 -0.851949
144.200000 -0.759451
144.250000 -0.694359
144.300000 -0.646396
144.350000 -0.625842
144.400000 -0.656674
144.450000 -0.735470
144.500000 -0.824543
144.550000 -0.930746
144.600000 -1.057504
144.650000 -1.156854
144.700000 -1.211668
144.750000 -1.259631
144.800000 -1.283612
144.850000 -1.290463
144.900000 -1.287038
144.950000 -1.249353
145.000000 -1.194539
145.050000 -1.173983
145.100000 -1.197964
145.150000 -1.201390
145.200000 -1.191113
145.250000 -1.204817
145.300000 -1.228797
145.350000 -1.218521
145.400000 -1.160280
145.450000 -1.105466
145.500000 -1.071206
145.550000 -1.016392
145.600000 -0.917042
145.650000 -0.807413
145.700000 -0.738896
145.750000 -0.697785
145.800000 -0.684081
145.850000 -0.711488
145.900000 -0.783432
145.950000 -0.889635
146.000000 -0.988986
146.050000 -1.074632
146.100000 -1.139724
146.150000 -1.204817
146.200000 -1.252779
146.250000 -1.263056
146.300000 -1.239076
146.350000 -1.208243
146.400000 -1.146577
146.450000 -1.057504
146.500000 -0.992411
146.550000 -0.982134
146.600000 -0.975282
146.650000 -0.951301
146.700000 -0.958153
146.750000 -1.009541
146.800000 -1.071207
146.850000 -1.126021
146.900000 -1.153428
146.950000 -1.136298
147.000000 -1.057503
147.050000 -0.961579
147.100000 -0.875931
147.150000 -0.790284
147.200000 -0.673804
147.250000 -0.550471
147.300000 -0.471676
147.350000 -0.451121
147.400000 -0.454547
147.450000 -0.437418
147.500000 -0.420288
147.550000 -0.399732
147.600000 -0.368900
147.650000 -0.331214
147.700000 -0.269549
147.750000 -0.201030
147.800000 -0.159920
147.850000 -0.139365
147.900000 -0.101680
147.950000 -0.081124
148.000000 -0.111958
148.050000 -0.159920
148.100000 -0.225012
148.150000 -0.331215
148.200000 -0.437417
148.250000 -0.481954
148.300000 -0.502509
148.350000 -0.523065
148.400000 -0.499083
148.450000 -0.427139
148.500000 -0.351769
148.550000 -0.276400
148.600000 -0.183901
148.650000 -0.111958
148.700000 -0.081125
148.750000 -0.081125
148.800000 -0.105106
148.850000 -0.163346
148.900000 -0.262697
148.950000 -0.403159
149.000000 -0.564175
149.050000 -0.721766
149.100000 -0.872505
149.150000 -0.995837
149.200000 -1.071207
149.250000 -1.112317
149.300000 -1.143150
149.350000 -1.139724
149.400000 -1.064355
149.450000 -0.937597
149.500000 -0.834820
149.550000 -0.769728
149.600000 -0.714914
149.650000 -0.666952
149.700000 -0.673804
149.750000 -0.718341
149.800000 -0.773154
149.850000 -0.845098
149.900000 -0.937597
149.950000 -1.012966
150.000000 -1.043800
150.050000 -1.040374
150.100000 -1.019819
150.150000 -0.958153
150.200000 -0.858802
150.250000 -0.711489
150.300000 -0.574453
150.350000 -0.471677
150.400000 -0.392881
150.450000 -0.331215
150.500000 -0.310660
150.550000 -0.331215
150.600000 -0.389455
150.650000 -0.485380
150.700000 -0.595008
150.750000 -0.680655
150.800000 -0.725192
150.850000 -0.759451
150.900000 -0.776581
150.950000 -0.762877
151.000000 -0.752599
151.050000 -0.742322
151.100000 -0.714915
151.150000 -0.680655
151.200000 -0.660100
151.250000 -0.670378
151.300000 -0.680655
151.350000 -0.684081
151.400000 -0.711489
151.450000 -0.759451
151.500000 -0.790284
151.550000 -0.783432
151.600000 -0.783432
151.650000 -0.790284
151.700000 -0.776580
151.750000 -0.725192
151.800000 -0.670378
151.850000 -0.629267
151.900000 -0.601859
151.950000 -0.598434
152.000000 -0.618989
152.050000 -0.642970
152.100000 -0.690933
152.150000 -0.797136
152.200000 -0.913616
152.250000 -0.999263
152.300000 -1.091763
152.350000 -1.194539
152.400000 -1.273334
152.450000 -1.300742
152.500000 -1.307593
152.550000 -1.311019
152.600000 -1.307593
152.650000 -1.307594
152.700000 -1.304168
152.750000 -1.287038
152.800000 -1.269908
152.850000 -1.263057
152.900000 -1.252779
152.950000 -1.239075
153.000000 -1.211668
153.050000 -1.156854
153.100000 -1.088337
153.150000 -1.030096
153.200000 -0.951300
153.250000 -0.869079
153.300000 -0.821117
153.350000 -0.810839
153.400000 -0.810839
153.450000 -0.827968
153.500000 -0.875931
153.550000 -0.934171
153.600000 -0.961578
153.650000 -0.999263
153.700000 -1.057503
153.750000 -1.088336
153.800000 -1.071207
153.850000 -1.047226
153.900000 -1.030096
153.950000 -1.016393
154.000000 -1.009541
154.050000 -1.019819
154.100000 -1.036948
154.150000 -1.057504
154.200000 -1.084910
154.250000 -1.112318
154.300000 -1.139725
154.350000 -1.177410
154.400000 -1.215094
154.450000 -1.215094
154.500000 -1.194539
154.550000 -1.170558
154.600000 -1.146577
154.650000 -1.098614
154.700000 -1.030096
154.750000 -0.961578
154.800000 -0.920467
154.850000 -0.910190
154.900000 -0.913616
154.950000 -0.913615
155.000000 -0.893060
155.050000 -0.879357
155.100000 -0.903338
155.150000 -0.971856
155.200000 -1.040374
155.250000 -1.112318
155.300000 -1.215094
155.350000 -1.328148
155.400000 -1.441203
155.450000 -1.578239
155.500000 -1.698145
155.550000 -1.749534
155.600000 -1.746107
155.650000 -1.718700
155.700000 -1.660460
155.750000 -1.574812
155.800000 -1.461759
155.850000 -1.307593
155.900000 -1.136299
155.950000 -0.985560
156.000000 -0.872505
156.050000 -0.783432
156.100000 -0.735469
156.150000 -0.738895
156.200000 -0.769729
156.250000 -0.814265
156.300000 -0.893060
156.350000 -1.002689
156.400000 -1.078059
156.450000 -1.102040
156.500000 -1.129447
156.550000 -1.184261
156.600000 -1.194539
156.650000 -1.129447
156.700000 -1.057503
156.750000 -1.030096
156.800000 -0.992412
156.850000 -0.903338
156.900000 -0.803987
156.950000 -0.721766
157.000000 -0.653248
157.050000 -0.598434
157.100000 -0.591582
157.150000 -0.591582
157.200000 -0.571027
157.250000 -0.571027
157.300000 -0.615563
157.350000 -0.670378
157.400000 -0.742321
157.450000 -0.845098
157.500000 -0.961579
157.550000 -1.071207
157.600000 -1.153428
157.650000 -1.184261
157.700000 -1.170557
157.750000 -1.167132
157.800000 -1.160280
157.850000 -1.088336
157.900000 -0.971856
157.950000 -0.851950
158.000000 -0.728618
158.050000 -0.601860
158.100000 -0.499083
158.150000 -0.430565
158.200000 -0.399733
158.250000 -0.416862
158.300000 -0.464825
158.350000 -0.547046
158.400000 -0.673804
158.450000 -0.793710
158.500000 -0.899912
158.550000 -1.009541
158.600000 -1.112317
158.650000 -1.153428
158.700000 -1.146577
158.750000 -1.129447
158.800000 -1.064356
158.850000 -0.947875
158.900000 -0.827969
158.950000 -0.701211
159.000000 -0.564175
159.050000 -0.478528
159.100000 -0.437417
159.150000 -0.382603
159.200000 -0.368900
159.250000 -0.413436
159.300000 -0.471676
159.350000 -0.526490
159.400000 -0.612138
159.450000 -0.697785
159.500000 -0.766302
159.550000 -0.855376
159.600000 -0.958152
159.650000 -1.030096
159.700000 -1.060930
159.750000 -1.064355
159.800000 -1.047225
159.850000 -1.040374
159.900000 -1.054077
159.950000 -1.067781
160.000000 -1.074633
160.050000 -1.074633
160.100000 -1.081485
160.150000 -1.108891
160.200000 -1.146576
160.250000 -1.163706
160.300000 -1.184261
160.350000 -1.208242
160.400000 -1.218520
160.450000 -1.191113
160.500000 -1.153428
160.550000 -1.105466
160.600000 -1.040374
160.650000 -0.944449
160.700000 -0.838246
160.750000 -0.721767
160.800000 -0.612137
160.850000 -0.529916
160.900000 -0.502509
160.950000 -0.519638
161.000000 -0.553898
161.050000 -0.625841
161.100000 -0.725192
161.150000 -0.827969
161.200000 -0.923893
161.250000 -1.016393
161.300000 -1.095188
161.350000 -1.146576
161.400000 -1.177410
161.450000 -1.160280
161.500000 -1.105466
161.550000 -1.026670
161.600000 -0.951301
161.650000 -0.848524
161.700000 -0.738895
161.750000 -0.673804
161.800000 -0.646396
161.850000 -0.632693
161.900000 -0.636118
161.950000 -0.673803
162.000000 -0.738895
162.050000 -0.817691
162.100000 -0.913616
162.150000 -1.016393
162.200000 -1.102040
162.250000 -1.150002
162.300000 -1.173983
162.350000 -1.167132
162.400000 -1.126021
162.450000 -1.047226
162.500000 -0.978708
162.550000 -0.917042
162.600000 -0.851950
162.650000 -0.786858
162.700000 -0.749173
162.750000 -0.742321
162.800000 -0.738895
162.850000 -0.749174
162.900000 -0.803987
162.950000 -0.875931
163.000000 -0.930746
163.050000 -0.961579
163.100000 -1.019819
163.150000 -1.091762
163.200000 -1.150003
163.250000 -1.191113
163.300000 -1.228798
163.350000 -1.252779
163.400000 -1.249353
163.450000 -1.221946
163.500000 -1.187687
163.550000 -1.156854
163.600000 -1.115743
163.650000 -1.050652
163.700000 -0.971856
163.750000 -0.906764
163.800000 -0.845098
163.850000 -0.793710
163.900000 -0.769729
163.950000 -0.790284
164.000000 -0.821116
164.050000 -0.858802
164.100000 -0.913616
164.150000 -0.982134
164.200000 -1.054078
164.250000 -1.105466
164.300000 -1.112317
164.350000 -1.095188
164.400000 -1.064355
164.450000 -0.999264
164.500000 -0.899912
164.550000 -0.831394
164.600000 -0.807413
164.650000 -0.773154
164.700000 -0.725192
164.750000 -0.721766
164.800000 -0.769729
164.850000 -0.807413
164.900000 -0.841672
164.950000 -0.913616
165.000000 -1.002689
165.050000 -1.033522
165.100000 -1.009541
165.150000 -0.985559
165.200000 -0.978708
165.250000 -0.961578
165.300000 -0.903338
165.350000 -0.831395
165.400000 -0.773155
165.450000 -0.718341
165.500000 -0.687508
165.550000 -0.663526
165.600000 -0.629267
165.650000 -0.605286
165.700000 -0.629267
165.750000 -0.694359
165.800000 -0.759450
165.850000 -0.797136
165.900000 -0.838246
165.950000 -0.917042
166.000000 -1.009541
166.050000 -1.067781
166.100000 -1.112317
166.150000 -1.187687
166.200000 -1.259631
166.250000 -1.263057
166.300000 -1.232224
166.350000 -1.215094
166.400000 -1.187687
166.450000 -1.126021
166.500000 -1.054078
166.550000 -0.982134
166.600000 -0.920468
166.650000 -0.869079
166.700000 -0.814265
166.750000 -0.790284
166.800000 -0.824543
166.850000 -0.879357
166.900000 -0.930745
166.950000 -1.009541
167.000000 -1.105465
167.050000 -1.180835
167.100000 -1.245928
167.150000 -1.300742
167.200000 -1.307593
167.250000 -1.287038
167.300000 -1.235649
167.350000 -1.132873
167.400000 -0.992412
167.450000 -0.858802
167.500000 -0.725192
167.550000 -0.574452
167.600000 -0.457973
167.650000 -0.379177
167.700000 -0.324363
167.750000 -0.327789
167.800000 -0.396306
167.850000 -0.454547
167.900000 -0.509361
167.950000 -0.608712
168.000000 -0.701211
168.050000 -0.752599
168.100000 -0.817691
168.150000 -0.906764
168.200000 -0.961578
168.250000 -0.975282
168.300000 -0.995837
168.350000 -1.006115
168.400000 -1.009540
168.450000 -1.033522
168.500000 -1.050651
168.550000 -1.050651
168.600000 -1.071207
168.650000 -1.098614
168.700000 -1.102040
168.750000 -1.095188
168.800000 -1.102040
168.850000 -1.088337
168.900000 -1.047226
168.950000 -1.026670
169.000000 -1.016393
169.050000 -1.009541
169.100000 -1.026670
169.150000 -1.057503
169.200000 -1.071207
169.250000 -1.081485
169.300000 -1.102040
169.350000 -1.108892
169.400000 -1.108891
169.450000 -1.105465
169.500000 -1.088336
169.550000 -1.040374
169.600000 -0.954726
169.650000 -0.827969
169.700000 -0.701211
169.750000 -0.615563
169.800000 -0.533342
169.850000 -0.430565
169.900000 -0.386029
169.950000 -0.416862
170.000000 -0.464824
170.050000 -0.533342
170.100000 -0.673804
170.150000 -0.834820
170.200000 -0.975282
170.250000 -1.136299
170.300000 -1.324722
170.350000 -1.454907
170.400000 -1.537128
170.450000 -1.602220
170.500000 -1.609071
170.550000 -1.530276
170.600000 -1.403518
170.650000 -1.259631
170.700000 -1.105466
170.750000 -0.958152
170.800000 -0.814265
170.850000 -0.666952
170.900000 -0.564175
170.950000 -0.536768
171.000000 -0.526490
171.050000 -0.536768
171.100000 -0.601860
171.150000 -0.708063
171.200000 -0.800562
171.250000 -0.899913
171.300000 -0.999263
171.350000 -1.054078
171.400000 -1.074633
171.450000 -1.091762
171.500000 -1.095188
171.550000 -1.074633
171.600000 -1.030096
171.650000 -0.958152
171.700000 -0.910190
171.750000 -0.889635
171.800000 -0.851950
171.850000 -0.810839
171.900000 -0.824543
171.950000 -0.855376
172.000000 -0.851950
172.050000 -0.848524
172.100000 -0.886208
172.150000 -0.934171
172.200000 -0.958153
172.250000 -0.978708
172.300000 -1.009541
172.350000 -1.054078
172.400000 -1.091763
172.450000 -1.122596
172.500000 -1.170558
172.550000 -1.232223
172.600000 -1.283612
172.650000 -1.307594
172.700000 -1.324723
172.750000 -1.328149
172.800000 -1.283612
172.850000 -1.221946
172.900000 -1.170558
172.950000 -1.095189
173.000000 -1.002689
173.050000 -0.923893
173.100000 -0.851950
173.150000 -0.773155
173.200000 -0.725192
173.250000 -0.742321
173.300000 -0.766303
173.350000 -0.786858
173.400000 -0.851950
173.450000 -0.934171
173.500000 -0.975282
173.550000 -1.016392
173.600000 -1.060929
173.650000 -1.064355
173.700000 -1.050652
173.750000 -1.050652
173.800000 -1.023244
173.850000 -0.971857
173.900000 -0.961578
173.950000 -0.958153
174.000000 -0.941023
174.050000 -0.941023
174.100000 -0.951301
174.150000 -0.951301
174.200000 -0.975282
174.250000 -1.040374
174.300000 -1.064355
174.350000 -1.047226
174.400000 -1.043799
174.450000 -1.033522
174.500000 -0.988985
174.550000 -0.951301
174.600000 -0.917041
174.650000 -0.875931
174.700000 -0.848524
174.750000 -0.821117
174.800000 -0.773155
174.850000 -0.752599
174.900000 -0.790284
174.950000 -0.824543
175.000000 -0.841672
175.050000 -0.875931
175.100000 -0.920468
175.150000 -0.934171
175.200000 -0.927319
175.250000 -0.903339
175.300000 -0.855376
175.350000 -0.793710
175.400000 -0.697784
175.450000 -0.601860
175.500000 -0.523065
175.550000 -0.454547
175.600000 -0.392880
175.650000 -0.379177
175.700000 -0.430565
175.750000 -0.495658
175.800000 -0.557324
175.850000 -0.646396
175.900000 -0.742321
175.950000 -0.824543
176.000000 -0.913616
176.050000 -0.985559
176.100000 -0.992412
176.150000 -0.975282
176.200000 -0.947875
176.250000 -0.875932
176.300000 -0.762877
176.350000 -0.677230
176.400000 -0.591582
176.450000 -0.499083
176.500000 -0.451121
176.550000 -0.468250
176.600000 -0.478528
176.650000 -0.488805
176.700000 -0.519638
176.750000 -0.543620
176.800000 -0.560750
176.850000 -0.581304
176.900000 -0.584730
176.950000 -0.560749
177.000000 -0.533342
177.050000 -0.492231
177.100000 -0.427139
177.150000 -0.382603
177.200000 -0.362048
177.250000 -0.351770
177.300000 -0.372325
177.350000 -0.454547
177.400000 -0.553898
177.450000 -0.649822
177.500000 -0.762877
177.550000 -0.875931
177.600000 -0.941023
177.650000 -0.982134
177.700000 -1.002689
177.750000 -0.965004
177.800000 -0.875931
177.850000 -0.762877
177.900000 -0.636118
177.950000 -0.502509
178.000000 -0.386029
178.050000 -0.286678
178.100000 -0.231864
178.150000 -0.242141
178.200000 -0.290104
178.250000 -0.344918
178.300000 -0.423714
178.350000 -0.533342
178.400000 -0.653249
178.450000 -0.776581
178.500000 -0.903338
178.550000 -1.026670
178.600000 -1.122595
178.650000 -1.215094
178.700000 -1.297316
178.750000 -1.335000
178.800000 -1.338426
178.850000 -1.321297
178.900000 -1.269909
178.950000 -1.208243
179.000000 -1.139724
179.050000 -1.036948
179.100000 -0.917042
179.150000 -0.807413
179.200000 -0.697785
179.250000 -0.595008
179.300000 -0.540194
179.350000 -0.543620
179.400000 -0.581305
179.450000 -0.646397
179.500000 -0.742322
179.550000 -0.834820
179.600000 -0.927319
179.650000 -1.023244
179.700000 -1.081484
179.750000 -1.084911
179.800000 -1.060929
179.850000 -1.006114
179.900000 -0.934171
179.950000 -0.851950
180.000000 -0.752599
180.050000 -0.636119
180.100000 -0.540194
180.150000 -0.488805
180.200000 -0.457972
180.250000 -0.444269
180.300000 -0.464824
180.350000 -0.523065
180.400000 -0.632693
180.450000 -0.769728
180.500000 -0.855376
180.550000 -0.899912
180.600000 -0.992411
180.650000 -1.102040
180.700000 -1.143151
180.750000 -1.126021
180.800000 -1.105465
180.850000 -1.064355
180.900000 -0.992412
180.950000 -0.927320
181.000000 -0.848524
181.050000 -0.742321
181.100000 -0.663526
181.150000 -0.608712
181.200000 -0.536768
181.250000 -0.468251
181.300000 -0.457973
181.350000 -0.461398
181.400000 -0.444269
181.450000 -0.464824
181.500000 -0.519639
181.550000 -0.577879
181.600000 -0.639545
181.650000 -0.725192
181.700000 -0.803987
181.750000 -0.862228
181.800000 -0.944449
181.850000 -1.043800
181.900000 -1.105466
181.950000 -1.139725
182.000000 -1.191113
182.050000 -1.225372
182.100000 -1.228798
182.150000 -1.232223
182.200000 -1.256205
182.250000 -1.269908
182.300000 -1.259630
182.350000 -1.256205
182.400000 -1.249353
182.450000 -1.232224
182.500000 -1.218520
182.550000 -1.180835
182.600000 -1.095188
182.650000 -0.988986
182.700000 -0.882783
182.750000 -0.769729
182.800000 -0.660100
182.850000 -0.574452
182.900000 -0.502509
182.950000 -0.454547
183.000000 -0.447695
183.050000 -0.481954
183.100000 -0.543620
183.150000 -0.629267
183.200000 -0.732044
183.250000 -0.848524
183.300000 -0.968430
183.350000 -1.074633
183.400000 -1.143151
183.450000 -1.191113
183.500000 -1.215095
183.550000 -1.184261
183.600000 -1.108892
183.650000 -1.019819
183.700000 -0.934171
183.750000 -0.848524
183.800000 -0.786858
183.850000 -0.762877
183.900000 -0.752600
183.950000 -0.752600
184.000000 -0.780006
184.050000 -0.834820
184.100000 -0.889635
184.150000 -0.934171
184.200000 -0.968430
184.250000 -1.023244
184.300000 -1.071207
184.350000 -1.064355
184.400000 -1.012967
184.450000 -0.968430
184.500000 -0.906764
184.550000 -0.821117
184.600000 -0.749173
184.650000 -0.694359
184.700000 -0.632693
184.750000 -0.595008
184.800000 -0.584730
184.850000 -0.571027
184.900000 -0.581305
184.950000 -0.649822
185.000000 -0.721766
185.050000 -0.742321
185.100000 -0.766303
185.150000 -0.841672
185.200000 -0.913616
185.250000 -0.968430
185.300000 -1.043800
185.350000 -1.112318
185.400000 -1.139725
185.450000 -1.163706
185.500000 -1.201390
185.550000 -1.208242
185.600000 -1.194539
185.650000 -1.194539
185.700000 -1.160280
185.750000 -1.057504
185.800000 -0.944449
185.850000 -0.869080
185.900000 -0.786858
185.950000 -0.687507
186.000000 -0.612138
186.050000 -0.584730
186.100000 -0.598434
186.150000 -0.646396
186.200000 -0.725192
186.250000 -0.834820
186.300000 -0.944448
186.350000 -1.002689
186.400000 -1.026671
186.450000 -1.071207
186.500000 -1.105466
186.550000 -1.071207
186.600000 -1.019819
186.650000 -0.985559
186.700000 -0.951301
186.750000 -0.899912
186.800000 -0.869079
186.850000 -0.865654
186.900000 -0.879357
186.950000 -0.910190
187.000000 -0.937597
187.050000 -0.927320
187.100000 -0.913616
187.150000 -0.910190
187.200000 -0.872505
187.250000 -0.803988
187.300000 -0.745748
187.350000 -0.694359
187.400000 -0.646396
187.450000 -0.622415
187.500000 -0.622415
187.550000 -0.629267
187.600000 -0.656674
187.650000 -0.708062
187.700000 -0.766302
187.750000 -0.821116
187.800000 -0.879357
187.850000 -0.937597
187.900000 -1.006115
187.950000 -1.067781
188.000000 -1.078059
188.050000 -1.074633
188.100000 -1.091762
188.150000 -1.091762
188.200000 -1.036948
188.250000 -0.971857
188.300000 -0.937597
188.350000 -0.899912
188.400000 -0.824543
188.450000 -0.752599
188.500000 -0.711488
188.550000 -0.690933
188.600000 -0.677229
188.650000 -0.680655
188.700000 -0.701211
188.750000 -0.738896
188.800000 -0.780006
188.850000 -0.838246
188.900000 -0.920468
