fit_time[ns] Functional_fit[mV] Thermal_fit[mV]
3.550000 39.447536 38.091406
3.600000 39.122903 37.398254
3.650000 38.763191 36.717636
3.700000 38.360108 36.049309
3.750000 37.906879 35.393035
3.800000 37.398403 34.748583
3.850000 36.831370 34.115723
3.900000 36.204327 33.494235
3.950000 35.517701 32.883898
4.000000 34.773765 32.284500
4.050000 33.976559 31.695832
4.100000 33.131774 31.117689
4.150000 32.246578 30.549871
4.200000 31.329417 29.992181
4.250000 30.389781 29.444428
4.300000 29.437943 28.906423
4.350000 28.484678 28.377981
4.400000 27.540978 27.858923
4.450000 26.617754 27.349072
4.500000 25.725549 26.848254
4.550000 24.874262 26.356301
4.600000 24.072886 25.873045
4.650000 23.329279 25.398324
4.700000 22.649960 24.931978
4.750000 22.039943 24.473852
4.800000 21.502615 24.023792
4.850000 21.039654 23.581649
4.900000 20.650993 23.147274
4.950000 20.334828 22.720525
5.000000 20.087678 22.301260
5.050000 19.904480 21.889341
5.100000 19.778730 21.484631
5.150000 19.702658 21.087000
5.200000 19.667440 20.696315
5.250000 19.663427 20.312449
5.300000 19.680405 19.935278
5.350000 19.707857 19.564678
5.400000 19.735241 19.200529
5.450000 19.752259 18.842714
5.500000 19.749124 18.491117
5.550000 19.716805 18.145624
5.600000 19.647261 17.806124
5.650000 19.533634 17.472508
5.700000 19.370420 17.144670
5.750000 19.153603 16.822504
5.800000 18.880743 16.505908
5.850000 18.551028 16.194782
5.900000 18.165278 15.889025
5.950000 17.725916 15.588543
6.000000 17.236884 15.293238
6.050000 16.703531 15.003018
6.100000 16.132461 14.717792
6.150000 15.531347 14.437470
6.200000 14.908723 14.161964
6.250000 14.273752 13.891187
6.300000 13.635978 13.625056
6.350000 13.005077 13.363486
6.400000 12.390597 13.106397
6.450000 11.801706 12.853708
6.500000 11.246959 12.605341
6.550000 10.734071 12.361219
6.600000 10.269724 12.121266
6.650000 9.859393 11.885409
6.700000 9.507213 11.653575
6.750000 9.215879 11.425692
6.800000 8.986578 11.201690
6.850000 8.818976 10.981501
6.900000 8.711226 10.765058
6.950000 8.660032 10.552293
7.000000 8.660741 10.343143
7.050000 8.707471 10.137544
7.100000 8.793274 9.935432
7.150000 8.910319 9.736747
7.200000 9.050108 9.541428
7.250000 9.203694 9.349416
7.300000 9.361921 9.160654
7.350000 9.515660 8.975084
7.400000 9.656048 8.792650
7.450000 9.774715 8.613298
7.500000 9.863997 8.436973
7.550000 9.917132 8.263623
7.600000 9.928425 8.093196
7.650000 9.893394 7.925641
7.700000 9.808870 7.760907
7.750000 9.673075 7.598946
7.800000 9.485656 7.439709
7.850000 9.247680 7.283150
7.900000 8.961599 7.129220
7.950000 8.631174 6.977876
8.000000 8.261363 6.829072
8.050000 7.858187 6.682764
8.100000 7.428561 6.538909
8.150000 6.980109 6.397464
8.200000 6.520954 6.258388
8.250000 6.059506 6.121640
8.300000 5.604236 5.987179
8.350000 5.163456 5.854967
8.400000 4.745100 5.724964
8.450000 4.356519 5.597133
8.500000 4.004292 5.471436
8.550000 3.694059 5.347836
8.600000 3.430381 5.226297
8.650000 3.216621 5.106784
8.700000 3.054874 4.989263
8.750000 2.945909 4.873699
8.800000 2.889167 4.760058
8.850000 2.882776 4.648307
8.900000 2.923615 4.538415
8.950000 3.007399 4.430349
9.000000 3.128798 4.324079
9.050000 3.281587 4.219573
9.100000 3.458809 4.116802
9.150000 3.652963 4.015735
9.200000 3.856205 3.916344
9.250000 4.060551 3.818601
9.300000 4.258087 3.722477
9.350000 4.441177 3.627944
9.400000 4.602654 3.534977
9.450000 4.736009 3.443547
9.500000 4.835553 3.353629
9.550000 4.896559 3.265198
9.600000 4.915379 3.178227
9.650000 4.889531 3.092693
9.700000 4.817752 3.008571
9.750000 4.700028 2.925838
9.800000 4.537580 2.844468
9.850000 4.332824 2.764441
9.900000 4.089299 2.685732
9.950000 3.811567 2.608320
10.000000 3.505087 2.532182
10.050000 3.176061 2.457298
10.100000 2.831271 2.383646
10.150000 2.477897 2.311205
10.200000 2.123323 2.239955
10.250000 1.774945 2.169876
10.300000 1.439975 2.100948
10.350000 1.125258 2.033152
10.400000 0.837087 1.966469
10.450000 0.581052 1.900880
10.500000 0.361891 1.836367
10.550000 0.183374 1.772911
10.600000 0.048212 1.710496
10.650000 -0.042008 1.649103
10.700000 -0.086858 1.588716
10.750000 -0.087070 1.529317
10.800000 -0.044511 1.470890
10.850000 0.037874 1.413419
10.900000 0.156144 1.356888
10.950000 0.305475 1.301281
11.000000 0.480289 1.246582
11.050000 0.674405 1.192777
11.100000 0.881206 1.139851
11.150000 1.093810 1.087789
11.200000 1.305259 1.036576
11.250000 1.508691 0.986199
11.300000 1.697527 0.936643
11.350000 1.865635 0.887895
11.400000 2.007489 0.839941
11.450000 2.118307 0.792768
11.500000 2.194173 0.746364
11.550000 2.232131 0.700715
11.600000 2.230254 0.655809
11.650000 2.187690 0.611634
11.700000 2.104674 0.568177
11.750000 1.982515 0.525426
11.800000 1.823554 0.483371
11.850000 1.631092 0.441998
11.900000 1.409305 0.401298
11.950000 1.163119 0.361258
12.000000 0.898083 0.321869
12.050000 0.620213 0.283118
12.100000 0.335839 0.244996
12.150000 0.051431 0.207492
12.200000 -0.226568 0.170597
12.250000 -0.491914 0.134299
12.300000 -0.738718 0.098589
12.350000 -0.961602 0.063458
12.400000 -1.155837 0.028895
12.450000 -1.317457 -0.005108
12.500000 -1.443363 -0.038560
12.550000 -1.531396 -0.071472
12.600000 -1.580385 -0.103851
12.650000 -1.590174 -0.135707
12.700000 -1.561619 -0.167048
12.750000 -1.496556 -0.197882
12.800000 -1.397750 -0.228219
12.850000 -1.268813 -0.258065
12.900000 -1.114108 -0.287430
12.950000 -0.938626 -0.316321
13.000000 -0.747853 -0.344745
13.050000 -0.547625 -0.372711
13.100000 -0.343973 -0.400226
13.150000 -0.142961 -0.427297
13.200000 0.049469 -0.453932
13.250000 0.227651 -0.480138
13.300000 0.386344 -0.505922
13.350000 0.520862 -0.531291
13.400000 0.627194 -0.556251
13.450000 0.702105 -0.580809
13.500000 0.743212 -0.604972
13.550000 0.749044 -0.628746
13.600000 0.719071 -0.652138
13.650000 0.653710 -0.675154
13.700000 0.554311 -0.697800
13.750000 0.423113 -0.720082
13.800000 0.263180 -0.742006
13.850000 0.078311 -0.763578
13.900000 -0.127056 -0.784803
13.950000 -0.347974 -0.805688
14.000000 -0.579113 -0.826237
14.050000 -0.814904 -0.846457
14.100000 -1.049690 -0.866352
14.150000 -1.277867 -0.885929
14.200000 -1.494038 -0.905191
14.250000 -1.693147 -0.924144
14.300000 -1.870611 -0.942794
14.350000 -2.022436 -0.961145
14.400000 -2.145320 -0.979202
14.450000 -2.236728 -0.996970
14.500000 -2.294962 -1.014453
14.550000 -2.319189 -1.031657
14.600000 -2.309469 -1.048585
14.650000 -2.266735 -1.065242
14.700000 -2.192772 -1.081633
14.750000 -2.090161 -1.097762
14.800000 -1.962204 -1.113632
14.850000 -1.812838 -1.129250
14.900000 -1.646523 -1.144617
14.950000 -1.468123 -1.159739
15.000000 -1.282781 -1.174620
15.050000 -1.095774 -1.189262
15.100000 -0.912384 -1.203671
15.150000 -0.737752 -1.217850
15.200000 -0.576751 -1.231803
15.250000 -0.433856 -1.245533
15.300000 -0.313033 -1.259044
15.350000 -0.217639 -1.272339
15.400000 -0.150335 -1.285423
15.450000 -0.113027 -1.298298
15.500000 -0.106819 -1.310967
15.550000 -0.131986 -1.323435
15.600000 -0.187982 -1.335704
15.650000 -0.273449 -1.347778
15.700000 -0.386268 -1.359659
15.750000 -0.523614 -1.371351
15.800000 -0.682034 -1.382857
15.850000 -0.857547 -1.394180
15.900000 -1.045747 -1.405323
15.950000 -1.241924 -1.416288
16.000000 -1.441186 -1.427079
16.050000 -1.638591 -1.437699
16.100000 -1.829277 -1.448149
16.150000 -2.008584 -1.458434
16.200000 -2.172180 -1.468555
16.250000 -2.316168 -1.478515
16.300000 -2.437186 -1.488317
16.350000 -2.532491 -1.497963
16.400000 -2.600028 -1.507456
16.450000 -2.638476 -1.516799
16.500000 -2.647279 -1.525993
16.550000 -2.626657 -1.535041
16.600000 -2.577590 -1.543945
16.650000 -2.501794 -1.552709
16.700000 -2.401663 -1.561333
16.750000 -2.280209 -1.569820
16.800000 -2.140977 -1.578173
16.850000 -1.987946 -1.586394
16.900000 -1.825424 -1.594484
16.950000 -1.657934 -1.602446
17.000000 -1.490095 -1.610281
17.050000 -1.326497 -1.617993
17.100000 -1.171586 -1.625583
17.150000 -1.029547 -1.633052
17.200000 -0.904194 -1.640403
17.250000 -0.798878 -1.647638
17.300000 -0.716399 -1.654758
17.350000 -0.658939 -1.661765
17.400000 -0.628007 -1.668662
17.450000 -0.624408 -1.675450
17.500000 -0.648222 -1.682130
17.550000 -0.698811 -1.688704
17.600000 -0.774840 -1.695175
17.650000 -0.874316 -1.701543
17.700000 -0.994644 -1.707811
17.750000 -1.132701 -1.713980
17.800000 -1.284920 -1.720051
17.850000 -1.447385 -1.726026
17.900000 -1.615939 -1.731907
17.950000 -1.786293 -1.737695
18.000000 -1.954137 -1.743392
18.050000 -2.115254 -1.748998
18.100000 -2.265632 -1.754516
18.150000 -2.401563 -1.759948
18.200000 -2.519741 -1.765293
18.250000 -2.617344 -1.770554
18.300000 -2.692105 -1.775732
18.350000 -2.742367 -1.780829
18.400000 -2.767122 -1.785845
18.450000 -2.766034 -1.790782
18.500000 -2.739441 -1.795641
18.550000 -2.688344 -1.800424
18.600000 -2.614373 -1.805131
18.650000 -2.519744 -1.809764
18.700000 -2.407195 -1.814324
18.750000 -2.279908 -1.818812
18.800000 -2.141430 -1.823230
18.850000 -1.995570 -1.827578
18.900000 -1.846304 -1.831857
18.950000 -1.697666 -1.836070
19.000000 -1.553644 -1.840216
19.050000 -1.418075 -1.844296
19.100000 -1.294549 -1.848313
19.150000 -1.186311 -1.852266
19.200000 -1.096187 -1.856157
19.250000 -1.026506 -1.859987
19.300000 -0.979044 -1.863757
19.350000 -0.954985 -1.867467
19.400000 -0.954891 -1.871119
19.450000 -0.978694 -1.874714
19.500000 -1.025699 -1.878252
19.550000 -1.094609 -1.881735
19.600000 -1.183564 -1.885163
19.650000 -1.290190 -1.888537
19.700000 -1.411667 -1.891858
19.750000 -1.544808 -1.895127
19.800000 -1.686138 -1.898345
19.850000 -1.831995 -1.901512
19.900000 -1.978622 -1.904629
19.950000 -2.122264 -1.907698
20.000000 -2.259273 -1.910718
20.050000 -2.386196 -1.913691
20.100000 -2.499867 -1.916617
20.150000 -2.597487 -1.919498
20.200000 -2.676694 -1.922333
20.250000 -2.735623 -1.925124
20.300000 -2.772950 -1.927871
20.350000 -2.787922 -1.930575
20.400000 -2.780377 -1.933236
20.450000 -2.750738 -1.935856
20.500000 -2.700002 -1.938435
20.550000 -2.629710 -1.940973
20.600000 -2.541900 -1.943472
20.650000 -2.439054 -1.945932
20.700000 -2.324027 -1.948353
20.750000 -2.199972 -1.950736
20.800000 -2.070253 -1.953081
20.850000 -1.938361 -1.955390
20.900000 -1.807814 -1.957663
20.950000 -1.682073 -1.959901
21.000000 -1.564446 -1.962103
21.050000 -1.458007 -1.964271
21.100000 -1.365514 -1.966405
21.150000 -1.289340 -1.968505
21.200000 -1.231418 -1.970573
21.250000 -1.193185 -1.972608
21.300000 -1.175556 -1.974612
21.350000 -1.178901 -1.976584
21.400000 -1.203037 -1.978526
21.450000 -1.247240 -1.980437
21.500000 -1.310265 -1.982318
21.550000 -1.390384 -1.984170
21.600000 -1.485435 -1.985992
21.650000 -1.592878 -1.987787
21.700000 -1.709868 -1.989553
21.750000 -1.833330 -1.991292
21.800000 -1.960040 -1.993004
21.850000 -2.086710 -1.994688
21.900000 -2.210079 -1.996347
21.950000 -2.326989 -1.997980
22.000000 -2.434477 -1.999587
22.050000 -2.529843 -2.001169
22.100000 -2.610722 -2.002726
22.150000 -2.675145 -2.004259
22.200000 -2.721585 -2.005769
22.250000 -2.748993 -2.007254
22.300000 -2.756827 -2.008717
22.350000 -2.745056 -2.010156
22.400000 -2.714163 -2.011574
22.450000 -2.665125 -2.012969
22.500000 -2.599387 -2.014342
22.550000 -2.518817 -2.015694
22.600000 -2.425659 -2.017025
22.650000 -2.322469 -2.018335
22.700000 -2.212046 -2.019625
22.750000 -2.097358 -2.020894
22.800000 -1.981464 -2.022144
22.850000 -1.867430 -2.023375
22.900000 -1.758255 -2.024586
22.950000 -1.656788 -2.025778
23.000000 -1.565655 -2.026952
23.050000 -1.487196 -2.028108
23.100000 -1.423400 -2.029245
23.150000 -1.375863 -2.030365
23.200000 -1.345740 -2.031467
23.250000 -1.333727 -2.032552
23.300000 -1.340037 -2.033621
23.350000 -1.364408 -2.034672
23.400000 -1.406104 -2.035708
23.450000 -1.463941 -2.036727
23.500000 -1.536325 -2.037730
23.550000 -1.621288 -2.038718
23.600000 -1.716551 -2.039691
23.650000 -1.819579 -2.040648
23.700000 -1.927653 -2.041590
23.750000 -2.037939 -2.042518
23.800000 -2.147566 -2.043431
23.850000 -2.253700 -2.044330
23.900000 -2.353617 -2.045216
23.950000 -2.444775 -2.046087
24.000000 -2.524877 -2.046945
24.050000 -2.591931 -2.047789
24.100000 -2.644299 -2.048621
24.150000 -2.680737 -2.049439
24.200000 -2.700428 -2.050245
24.250000 -2.702994 -2.051038
24.300000 -2.688510 -2.051819
24.350000 -2.657493 -2.052588
24.400000 -2.610888 -2.053345
24.450000 -2.550043 -2.054090
24.500000 -2.476664 -2.054824
24.550000 -2.392775 -2.055546
24.600000 -2.300659 -2.056257
24.650000 -2.202798 -2.056957
24.700000 -2.101805 -2.057646
24.750000 -2.000359 -2.058324
24.800000 -1.901130 -2.058992
24.850000 -1.806710 -2.059650
24.900000 -1.719551 -2.060297
24.950000 -1.641893 -2.060934
25.000000 -1.575715 -2.061562
25.050000 -1.522682 -2.062179
25.100000 -1.484104 -2.062787
25.150000 -1.460902 -2.063386
25.200000 -1.453592 -2.063975
25.250000 -1.462267 -2.064556
25.300000 -1.486607 -2.065127
25.350000 -1.525879 -2.065689
25.400000 -1.578969 -2.066243
25.450000 -1.644410 -2.066788
25.500000 -1.720419 -2.067325
25.550000 -1.804952 -2.067853
25.600000 -1.895756 -2.068373
25.650000 -1.990429 -2.068885
25.700000 -2.086485 -2.069389
25.750000 -2.181420 -2.069886
25.800000 -2.272774 -2.070374
25.850000 -2.358201 -2.070855
25.900000 -2.435522 -2.071329
25.950000 -2.502789 -2.071795
26.000000 -2.558326 -2.072255
26.050000 -2.600778 -2.072707
26.100000 -2.629138 -2.073152
26.150000 -2.642777 -2.073590
26.200000 -2.641452 -2.074021
26.250000 -2.625315 -2.074446
26.300000 -2.594900 -2.074864
26.350000 -2.551114 -2.075275
26.400000 -2.495203 -2.075681
26.450000 -2.428723 -2.076080
26.500000 -2.353495 -2.076472
26.550000 -2.271555 -2.076859
26.600000 -2.185099 -2.077240
26.650000 -2.096427 -2.077615
26.700000 -2.007880 -2.077984
26.750000 -1.921779 -2.078347
26.800000 -1.840365 -2.078705
26.850000 -1.765742 -2.079057
26.900000 -1.699818 -2.079404
26.950000 -1.644266 -2.079746
27.000000 -1.600471 -2.080082
27.050000 -1.569504 -2.080413
27.100000 -1.552094 -2.080739
27.150000 -1.548608 -2.081059
27.200000 -1.559048 -2.081375
27.250000 -1.583054 -2.081686
27.300000 -1.619911 -2.081992
27.350000 -1.668576 -2.082294
27.400000 -1.727703 -2.082591
27.450000 -1.795682 -2.082883
27.500000 -1.870684 -2.083171
27.550000 -1.950709 -2.083454
27.600000 -2.033639 -2.083733
27.650000 -2.117296 -2.084007
27.700000 -2.199496 -2.084278
27.750000 -2.278112 -2.084544
27.800000 -2.351120 -2.084806
27.850000 -2.416662 -2.085064
27.900000 -2.473084 -2.085318
27.950000 -2.518984 -2.085568
28.000000 -2.553241 -2.085814
28.050000 -2.575051 -2.086057
28.100000 -2.583936 -2.086296
28.150000 -2.579760 -2.086531
28.200000 -2.562731 -2.086762
28.250000 -2.533389 -2.086990
28.300000 -2.492593 -2.087214
28.350000 -2.441493 -2.087435
28.400000 -2.381501 -2.087653
28.450000 -2.314253 -2.087867
28.500000 -2.241561 -2.088078
28.550000 -2.165366 -2.088285
28.600000 -2.087689 -2.088490
28.650000 -2.010574 -2.088691
28.700000 -1.936035 -2.088889
28.750000 -1.866008 -2.089084
28.800000 -1.802293 -2.089276
28.850000 -1.746517 -2.089465
28.900000 -1.700085 -2.089651
28.950000 -1.664149 -2.089835
29.000000 -1.639580 -2.090015
29.050000 -1.626944 -2.090193
29.100000 -1.626492 -2.090368
29.150000 -1.638157 -2.090540
29.200000 -1.661553 -2.090710
29.250000 -1.695991 -2.090877
29.300000 -1.740500 -2.091041
29.350000 -1.793851 -2.091203
29.400000 -1.854594 -2.091363
29.450000 -1.921094 -2.091520
29.500000 -1.991579 -2.091674
29.550000 -2.064184 -2.091826
29.600000 -2.137003 -2.091976
29.650000 -2.208136 -2.092124
29.700000 -2.275742 -2.092269
29.750000 -2.338082 -2.092412
29.800000 -2.393570 -2.092553
29.850000 -2.440808 -2.092692
29.900000 -2.478624 -2.092828
29.950000 -2.506100 -2.092963
30.000000 -2.522593 -2.093095
30.050000 -2.527753 -2.093225
30.100000 -2.521529 -2.093354
30.150000 -2.504165 -2.093480
30.200000 -2.476196 -2.093604
30.250000 -2.438430 -2.093727
30.300000 -2.391925 -2.093848
30.350000 -2.337959 -2.093966
30.400000 -2.277997 -2.094083
30.450000 -2.213650 -2.094198
30.500000 -2.146632 -2.094312
30.550000 -2.078715 -2.094423
30.600000 -2.011682 -2.094533
30.650000 -1.947279 -2.094642
30.700000 -1.887174 -2.094748
30.750000 -1.832909 -2.094853
30.800000 -1.785863 -2.094956
30.850000 -1.747216 -2.095058
30.900000 -1.717923 -2.095158
30.950000 -1.698685 -2.095257
31.000000 -1.689937 -2.095354
31.050000 -1.691837 -2.095450
31.100000 -1.704263 -2.095544
31.150000 -1.726820 -2.095636
31.200000 -1.758850 -2.095728
31.250000 -1.799454 -2.095818
31.300000 -1.847513 -2.095906
31.350000 -1.901722 -2.095993
31.400000 -1.960626 -2.096079
31.450000 -2.022654 -2.096164
31.500000 -2.086168 -2.096247
31.550000 -2.149501 -2.096329
31.600000 -2.211003 -2.096409
31.650000 -2.269081 -2.096489
31.700000 -2.322246 -2.096567
31.750000 -2.369146 -2.096644
31.800000 -2.408600 -2.096720
31.850000 -2.439634 -2.096794
31.900000 -2.461496 -2.096868
31.950000 -2.473683 -2.096940
32.000000 -2.475946 -2.097012
32.050000 -2.468296 -2.097082
32.100000 -2.451005 -2.097151
32.150000 -2.424593 -2.097219
32.200000 -2.389815 -2.097286
32.250000 -2.347641 -2.097352
32.300000 -2.299224 -2.097417
32.350000 -2.245874 -2.097481
32.400000 -2.189021 -2.097544
32.450000 -2.130176 -2.097606
32.500000 -2.070891 -2.097667
32.550000 -2.012718 -2.097727
32.600000 -1.957172 -2.097786
32.650000 -1.905685 -2.097845
32.700000 -1.859576 -2.097902
32.750000 -1.820012 -2.097958
32.800000 -1.787983 -2.098014
32.850000 -1.764273 -2.098069
32.900000 -1.749446 -2.098123
32.950000 -1.743828 -2.098176
33.000000 -1.747502 -2.098228
33.050000 -1.760310 -2.098280
33.100000 -1.781854 -2.098331
33.150000 -1.811512 -2.098381
33.200000 -1.848453 -2.098430
33.250000 -1.891665 -2.098478
33.300000 -1.939976 -2.098526
33.350000 -1.992089 -2.098573
33.400000 -2.046618 -2.098619
33.450000 -2.102125 -2.098665
33.500000 -2.157153 -2.098710
33.550000 -2.210270 -2.098754
33.600000 -2.260103 -2.098797
33.650000 -2.305375 -2.098840
33.700000 -2.344937 -2.098882
33.750000 -2.377796 -2.098924
33.800000 -2.403143 -2.098965
33.850000 -2.420369 -2.099005
33.900000 -2.429082 -2.099045
33.950000 -2.429114 -2.099084
34.000000 -2.420527 -2.099122
34.050000 -2.403606 -2.099160
34.100000 -2.378852 -2.099197
34.150000 -2.346968 -2.099234
34.200000 -2.308836 -2.099270
34.250000 -2.265498 -2.099306
34.300000 -2.218122 -2.099341
34.350000 -2.167974 -2.099375
34.400000 -2.116385 -2.099409
34.450000 -2.064713 -2.099443
34.500000 -2.014308 -2.099475
34.550000 -1.966480 -2.099508
34.600000 -1.922459 -2.099540
34.650000 -1.883370 -2.099571
34.700000 -1.850200 -2.099602
34.750000 -1.823774 -2.099633
34.800000 -1.804737 -2.099663
34.850000 -1.793535 -2.099692
34.900000 -1.790406 -2.099722
34.950000 -1.795377 -2.099750
35.000000 -1.808261 -2.099779
35.050000 -1.828668 -2.099806
35.100000 -1.856014 -2.099834
35.150000 -1.889535 -2.099861
35.200000 -1.928315 -2.099887
35.250000 -1.971304 -2.099913
35.300000 -2.017352 -2.099939
35.350000 -2.065234 -2.099964
35.400000 -2.113689 -2.099989
35.450000 -2.161448 -2.100014
35.500000 -2.207268 -2.100038
35.550000 -2.249967 -2.100062
35.600000 -2.288454 -2.100086
35.650000 -2.321752 -2.100109
35.700000 -2.349029 -2.100131
35.750000 -2.369615 -2.100154
35.800000 -2.383020 -2.100176
35.850000 -2.388945 -2.100198
35.900000 -2.387288 -2.100219
35.950000 -2.378145 -2.100240
36.000000 -2.361808 -2.100261
36.050000 -2.338755 -2.100281
36.100000 -2.309635 -2.100302
36.150000 -2.275251 -2.100321
36.200000 -2.236539 -2.100341
36.250000 -2.194541 -2.100360
36.300000 -2.150376 -2.100379
36.350000 -2.105214 -2.100398
36.400000 -2.060241 -2.100416
36.450000 -2.016631 -2.100434
36.500000 -1.975515 -2.100452
36.550000 -1.937948 -2.100469
36.600000 -1.904888 -2.100487
36.650000 -1.877167 -2.100504
36.700000 -1.855471 -2.100520
36.750000 -1.840327 -2.100537
36.800000 -1.832084 -2.100553
36.850000 -1.830909 -2.100569
36.900000 -1.836785 -2.100585
36.950000 -1.849508 -2.100600
37.000000 -1.868700 -2.100616
37.050000 -1.893815 -2.100631
37.100000 -1.924154 -2.100645
37.150000 -1.958891 -2.100660
37.200000 -1.997088 -2.100674
37.250000 -2.037723 -2.100689
37.300000 -2.079718 -2.100702
37.350000 -2.121967 -2.100716
37.400000 -2.163367 -2.100730
37.450000 -2.202841 -2.100743
37.500000 -2.239374 -2.100756
37.550000 -2.272031 -2.100769
37.600000 -2.299987 -2.100782
37.650000 -2.322545 -2.100794
37.700000 -2.339155 -2.100806
37.750000 -2.349424 -2.100819
37.800000 -2.353129 -2.100830
37.850000 -2.350219 -2.100842
37.900000 -2.340817 -2.100854
37.950000 -2.325213 -2.100865
38.000000 -2.303860 -2.100876
38.050000 -2.277355 -2.100887
38.100000 -2.246426 -2.100898
38.150000 -2.211913 -2.100909
38.200000 -2.174742 -2.100920
38.250000 -2.135902 -2.100930
38.300000 -2.096421 -2.100940
38.350000 -2.057333 -2.100950
38.400000 -2.019657 -2.100960
38.450000 -1.984367 -2.100970
38.500000 -1.952370 -2.100980
38.550000 -1.924476 -2.100989
38.600000 -1.901387 -2.100999
38.650000 -1.883672 -2.101008
38.700000 -1.871756 -2.101017
38.750000 -1.865911 -2.101026
38.800000 -1.866247 -2.101034
38.850000 -1.872712 -2.101043
38.900000 -1.885094 -2.101052
38.950000 -1.903030 -2.101060
39.000000 -1.926012 -2.101068
39.050000 -1.953405 -2.101076
39.100000 -1.984463 -2.101084
39.150000 -2.018349 -2.101092
39.200000 -2.054160 -2.101100
39.250000 -2.090947 -2.101108
39.300000 -2.127741 -2.101115
39.350000 -2.163584 -2.101123
39.400000 -2.197544 -2.101130
39.450000 -2.228750 -2.101137
39.500000 -2.256405 -2.101144
39.550000 -2.279812 -2.101151
39.600000 -2.298389 -2.101158
39.650000 -2.311686 -2.101165
39.700000 -2.319393 -2.101172
39.750000 -2.321346 -2.101178
39.800000 -2.317536 -2.101185
39.850000 -2.308103 -2.101191
39.900000 -2.293332 -2.101197
39.950000 -2.273646 -2.101203
40.000000 -2.249595 -2.101209
40.050000 -2.221836 -2.101215
40.100000 -2.191121 -2.101221
40.150000 -2.158273 -2.101227
40.200000 -2.124164 -2.101233
40.250000 -2.089695 -2.101238
40.300000 -2.055768 -2.101244
40.350000 -2.023266 -2.101249
40.400000 -1.993027 -2.101255
40.450000 -1.965825 -2.101260
40.500000 -1.942351 -2.101265
40.550000 -1.923190 -2.101271
40.600000 -1.908814 -2.101276
40.650000 -1.899565 -2.101281
40.700000 -1.895648 -2.101285
40.750000 -1.897128 -2.101290
40.800000 -1.903930 -2.101295
40.850000 -1.915839 -2.101300
40.900000 -1.932507 -2.101304
40.950000 -1.953468 -2.101309
41.000000 -1.978143 -2.101313
41.050000 -2.005862 -2.101318
41.100000 -2.035880 -2.101322
41.150000 -2.067398 -2.101326
41.200000 -2.099581 -2.101331
41.250000 -2.131586 -2.101335
41.300000 -2.162576 -2.101339
41.350000 -2.191751 -2.101343
41.400000 -2.218361 -2.101347
41.450000 -2.241730 -2.101351
41.500000 -2.261269 -2.101355
41.550000 -2.276495 -2.101358
41.600000 -2.287041 -2.101362
41.650000 -2.292665 -2.101366
41.700000 -2.293253 -2.101369
41.750000 -2.288826 -2.101373
41.800000 -2.279535 -2.101376
41.850000 -2.265656 -2.101380
41.900000 -2.247583 -2.101383
41.950000 -2.225819 -2.101387
42.000000 -2.200957 -2.101390
42.050000 -2.173669 -2.101393
42.100000 -2.144684 -2.101396
42.150000 -2.114770 -2.101399
42.200000 -2.084717 -2.101403
42.250000 -2.055309 -2.101406
42.300000 -2.027310 -2.101409
42.350000 -2.001442 -2.101412
42.400000 -1.978365 -2.101414
42.450000 -1.958663 -2.101417
42.500000 -1.942827 -2.101420
42.550000 -1.931243 -2.101423
42.600000 -1.924184 -2.101426
42.650000 -1.921803 -2.101428
42.700000 -1.924130 -2.101431
42.750000 -1.931070 -2.101434
42.800000 -1.942411 -2.101436
42.850000 -1.957826 -2.101439
42.900000 -1.976884 -2.101441
42.950000 -1.999062 -2.101444
43.000000 -2.023758 -2.101446
43.050000 -2.050311 -2.101449
43.100000 -2.078013 -2.101451
43.150000 -2.106134 -2.101453
43.200000 -2.133937 -2.101456
43.250000 -2.160697 -2.101458
43.300000 -2.185723 -2.101460
43.350000 -2.208373 -2.101462
43.400000 -2.228074 -2.101464
43.450000 -2.244330 -2.101466
43.500000 -2.256742 -2.101468
43.550000 -2.265012 -2.101471
43.600000 -2.268953 -2.101473
43.650000 -2.268493 -2.101475
43.700000 -2.263675 -2.101477
43.750000 -2.254654 -2.101478
43.800000 -2.241696 -2.101480
43.850000 -2.225167 -2.101482
43.900000 -2.205523 -2.101484
43.950000 -2.183300 -2.101486
44.000000 -2.159095 -2.101488
44.050000 -2.133554 -2.101489
44.100000 -2.107355 -2.101491
44.150000 -2.081185 -2.101493
44.200000 -2.055729 -2.101495
44.250000 -2.031646 -2.101496
44.300000 -2.009555 -2.101498
44.350000 -1.990019 -2.101499
44.400000 -1.973531 -2.101501
44.450000 -1.960500 -2.101503
44.500000 -1.951243 -2.101504
44.550000 -1.945974 -2.101506
44.600000 -1.944804 -2.101507
44.650000 -1.947735 -2.101509
44.700000 -1.954660 -2.101510
44.750000 -1.965373 -2.101511
44.800000 -1.979566 -2.101513
44.850000 -1.996844 -2.101514
44.900000 -2.016735 -2.101516
44.950000 -2.038701 -2.101517
45.000000 -2.062154 -2.101518
45.050000 -2.086472 -2.101520
45.100000 -2.111012 -2.101521
45.150000 -2.135134 -2.101522
45.200000 -2.158209 -2.101523
45.250000 -2.179642 -2.101524
45.300000 -2.198886 -2.101526
45.350000 -2.215452 -2.101527
45.400000 -2.228928 -2.101528
45.450000 -2.238982 -2.101529
45.500000 -2.245377 -2.101530
45.550000 -2.247970 -2.101531
45.600000 -2.246721 -2.101533
45.650000 -2.241689 -2.101534
45.700000 -2.233032 -2.101535
45.750000 -2.221002 -2.101536
45.800000 -2.205935 -2.101537
45.850000 -2.188247 -2.101538
45.900000 -2.168419 -2.101539
45.950000 -2.146982 -2.101540
46.000000 -2.124508 -2.101541
46.050000 -2.101592 -2.101542
46.100000 -2.078834 -2.101543
46.150000 -2.056828 -2.101544
46.200000 -2.036144 -2.101544
46.250000 -2.017312 -2.101545
46.300000 -2.000812 -2.101546
46.350000 -1.987057 -2.101547
46.400000 -1.976388 -2.101548
46.450000 -1.969063 -2.101549
46.500000 -1.965248 -2.101550
46.550000 -1.965020 -2.101550
46.600000 -1.968359 -2.101551
46.650000 -1.975153 -2.101552
46.700000 -1.985200 -2.101553
46.750000 -1.998216 -2.101554
46.800000 -2.013839 -2.101554
46.850000 -2.031644 -2.101555
46.900000 -2.051151 -2.101556
46.950000 -2.071837 -2.101557
47.000000 -2.093155 -2.101557
47.050000 -2.114544 -2.101558
47.100000 -2.135444 -2.101559
47.150000 -2.155313 -2.101559
47.200000 -2.173640 -2.101560
47.250000 -2.189956 -2.101561
47.300000 -2.203850 -2.101561
47.350000 -2.214975 -2.101562
47.400000 -2.223061 -2.101563
47.450000 -2.227918 -2.101563
47.500000 -2.229440 -2.101564
47.550000 -2.227613 -2.101565
47.600000 -2.222506 -2.101565
47.650000 -2.214277 -2.101566
47.700000 -2.203162 -2.101566
47.750000 -2.189471 -2.101567
47.800000 -2.173580 -2.101567
47.850000 -2.155920 -2.101568
47.900000 -2.136963 -2.101568
47.950000 -2.117215 -2.101569
48.000000 -2.097196 -2.101570
48.050000 -2.077431 -2.101570
48.100000 -2.058434 -2.101571
48.150000 -2.040697 -2.101571
48.200000 -2.024673 -2.101572
48.250000 -2.010770 -2.101572
48.300000 -1.999334 -2.101573
48.350000 -1.990649 -2.101573
48.400000 -1.984921 -2.101574
48.450000 -1.982280 -2.101574
48.500000 -1.982772 -2.101574
48.550000 -1.986364 -2.101575
48.600000 -1.992939 -2.101575
48.650000 -2.002305 -2.101576
48.700000 -2.014199 -2.101576
48.750000 -2.028291 -2.101577
48.800000 -2.044198 -2.101577
48.850000 -2.061493 -2.101577
48.900000 -2.079714 -2.101578
48.950000 -2.098379 -2.101578
49.000000 -2.116997 -2.101579
49.050000 -2.135082 -2.101579
49.100000 -2.152166 -2.101579
49.150000 -2.167809 -2.101580
49.200000 -2.181614 -2.101580
49.250000 -2.193232 -2.101580
49.300000 -2.202375 -2.101581
49.350000 -2.208822 -2.101581
49.400000 -2.212424 -2.101581
49.450000 -2.213106 -2.101582
49.500000 -2.210870 -2.101582
49.550000 -2.205796 -2.101582
49.600000 -2.198036 -2.101583
49.650000 -2.187811 -2.101583
49.700000 -2.175406 -2.101583
49.750000 -2.161160 -2.101584
49.800000 -2.145457 -2.101584
49.850000 -2.128718 -2.101584
49.900000 -2.111387 -2.101585
49.950000 -2.093922 -2.101585
50.000000 -2.076778 -2.101585
50.050000 -2.060403 -2.101586
50.100000 -2.045217 -2.101586
50.150000 -2.031609 -2.101586
50.200000 -2.019924 -2.101586
50.250000 -2.010453 -2.101587
50.300000 -2.003428 -2.101587
50.350000 -1.999015 -2.101587
50.400000 -1.997313 -2.101587
50.450000 -1.998345 -2.101588
50.500000 -2.002066 -2.101588
50.550000 -2.008360 -2.101588
50.600000 -2.017045 -2.101588
50.650000 -2.027877 -2.101589
50.700000 -2.040559 -2.101589
50.750000 -2.054746 -2.101589
50.800000 -2.070057 -2.101589
50.850000 -2.086084 -2.101589
50.900000 -2.102404 -2.101590
50.950000 -2.118590 -2.101590
51.000000 -2.134218 -2.101590
51.050000 -2.148885 -2.101590
51.100000 -2.162214 -2.101591
51.150000 -2.173867 -2.101591
51.200000 -2.183551 -2.101591
51.250000 -2.191027 -2.101591
51.300000 -2.196116 -2.101591
51.350000 -2.198700 -2.101592
51.400000 -2.198730 -2.101592
51.450000 -2.196223 -2.101592
51.500000 -2.191262 -2.101592
51.550000 -2.183994 -2.101592
51.600000 -2.174625 -2.101592
51.650000 -2.163414 -2.101593
51.700000 -2.150667 -2.101593
51.750000 -2.136728 -2.101593
51.800000 -2.121968 -2.101593
51.850000 -2.106779 -2.101593
51.900000 -2.091561 -2.101593
51.950000 -2.076711 -2.101594
52.000000 -2.062615 -2.101594
52.050000 -2.049635 -2.101594
52.100000 -2.038103 -2.101594
52.150000 -2.028309 -2.101594
52.200000 -2.020498 -2.101594
52.250000 -2.014859 -2.101595
52.300000 -2.011524 -2.101595
52.350000 -2.010565 -2.101595
52.400000 -2.011990 -2.101595
52.450000 -2.015745 -2.101595
52.500000 -2.021716 -2.101595
52.550000 -2.029731 -2.101595
52.600000 -2.039567 -2.101595
52.650000 -2.050954 -2.101596
52.700000 -2.063584 -2.101596
52.750000 -2.077119 -2.101596
52.800000 -2.091198 -2.101596
52.850000 -2.105451 -2.101596
52.900000 -2.119503 -2.101596
52.950000 -2.132989 -2.101596
53.000000 -2.145561 -2.101596
53.050000 -2.156898 -2.101597
53.100000 -2.166711 -2.101597
53.150000 -2.174755 -2.101597
53.200000 -2.180832 -2.101597
53.250000 -2.184798 -2.101597
53.300000 -2.186563 -2.101597
53.350000 -2.186096 -2.101597
53.400000 -2.183427 -2.101597
53.450000 -2.178639 -2.101597
53.500000 -2.171872 -2.101597
53.550000 -2.163318 -2.101598
53.600000 -2.153211 -2.101598
53.650000 -2.141827 -2.101598
53.700000 -2.129472 -2.101598
53.750000 -2.116476 -2.101598
53.800000 -2.103181 -2.101598
53.850000 -2.089939 -2.101598
53.900000 -2.077093 -2.101598
53.950000 -2.064977 -2.101598
54.000000 -2.053901 -2.101598
54.050000 -2.044149 -2.101598
54.100000 -2.035965 -2.101599
54.150000 -2.029553 -2.101599
54.200000 -2.025067 -2.101599
54.250000 -2.022610 -2.101599
54.300000 -2.022234 -2.101599
54.350000 -2.023933 -2.101599
54.400000 -2.027648 -2.101599
54.450000 -2.033269 -2.101599
54.500000 -2.040635 -2.101599
54.550000 -2.049541 -2.101599
54.600000 -2.059745 -2.101599
54.650000 -2.070971 -2.101599
54.700000 -2.082918 -2.101599
54.750000 -2.095269 -2.101600
54.800000 -2.107699 -2.101600
54.850000 -2.119884 -2.101600
54.900000 -2.131506 -2.101600
54.950000 -2.142265 -2.101600
55.000000 -2.151888 -2.101600
55.050000 -2.160129 -2.101600
55.100000 -2.166785 -2.101600
55.150000 -2.171692 -2.101600
55.200000 -2.174735 -2.101600
55.250000 -2.175846 -2.101600
55.300000 -2.175010 -2.101600
55.350000 -2.172263 -2.101600
55.400000 -2.167690 -2.101600
55.450000 -2.161423 -2.101600
55.500000 -2.153637 -2.101600
55.550000 -2.144547 -2.101600
55.600000 -2.134399 -2.101601
55.650000 -2.123465 -2.101601
55.700000 -2.112037 -2.101601
55.750000 -2.100415 -2.101601
55.800000 -2.088906 -2.101601
55.850000 -2.077809 -2.101601
55.900000 -2.067411 -2.101601
55.950000 -2.057978 -2.101601
56.000000 -2.049750 -2.101601
56.050000 -2.042934 -2.101601
56.100000 -2.037698 -2.101601
56.150000 -2.034167 -2.101601
56.200000 -2.032421 -2.101601
56.250000 -2.032495 -2.101601
56.300000 -2.034373 -2.101601
56.350000 -2.037993 -2.101601
56.400000 -2.043249 -2.101601
56.450000 -2.049992 -2.101601
56.500000 -2.058037 -2.101601
56.550000 -2.067162 -2.101601
56.600000 -2.077123 -2.101601
56.650000 -2.087654 -2.101601
56.700000 -2.098476 -2.101602
56.750000 -2.109303 -2.101602
56.800000 -2.119854 -2.101602
56.850000 -2.129855 -2.101602
56.900000 -2.139047 -2.101602
56.950000 -2.147198 -2.101602
57.000000 -2.154101 -2.101602
57.050000 -2.159585 -2.101602
57.100000 -2.163516 -2.101602
57.150000 -2.165803 -2.101602
57.200000 -2.166397 -2.101602
57.250000 -2.165295 -2.101602
57.300000 -2.162537 -2.101602
57.350000 -2.158207 -2.101602
57.400000 -2.152429 -2.101602
57.450000 -2.145365 -2.101602
57.500000 -2.137206 -2.101602
57.550000 -2.128175 -2.101602
57.600000 -2.118513 -2.101602
57.650000 -2.108477 -2.101602
57.700000 -2.098331 -2.101602
57.750000 -2.088342 -2.101602
57.800000 -2.078768 -2.101602
57.850000 -2.069858 -2.101602
57.900000 -2.061840 -2.101602
57.950000 -2.054915 -2.101602
58.000000 -2.049258 -2.101602
58.050000 -2.045008 -2.101602
58.100000 -2.042265 -2.101602
58.150000 -2.041091 -2.101602
58.200000 -2.041506 -2.101602
58.250000 -2.043487 -2.101602
58.300000 -2.046972 -2.101602
58.350000 -2.051859 -2.101602
58.400000 -2.058011 -2.101602
58.450000 -2.065259 -2.101603
58.500000 -2.073405 -2.101603
58.550000 -2.082231 -2.101603
58.600000 -2.091501 -2.101603
58.650000 -2.100970 -2.101603
58.700000 -2.110389 -2.101603
58.750000 -2.119513 -2.101603
58.800000 -2.128106 -2.101603
58.850000 -2.135946 -2.101603
58.900000 -2.142835 -2.101603
58.950000 -2.148599 -2.101603
59.000000 -2.153095 -2.101603
59.050000 -2.156215 -2.101603
59.100000 -2.157887 -2.101603
59.150000 -2.158078 -2.101603
59.200000 -2.156792 -2.101603
59.250000 -2.154074 -2.101603
59.300000 -2.150005 -2.101603
59.350000 -2.144700 -2.101603
59.400000 -2.138307 -2.101603
59.450000 -2.131000 -2.101603
59.500000 -2.122976 -2.101603
59.550000 -2.114450 -2.101603
59.600000 -2.105648 -2.101603
59.650000 -2.096802 -2.101603
59.700000 -2.088143 -2.101603
59.750000 -2.079896 -2.101603
59.800000 -2.072274 -2.101603
59.850000 -2.065471 -2.101603
59.900000 -2.059658 -2.101603
59.950000 -2.054982 -2.101603
60.000000 -2.051556 -2.101603
60.050000 -2.049461 -2.101603
60.100000 -2.048743 -2.101603
60.150000 -2.049409 -2.101603
60.200000 -2.051434 -2.101603
60.250000 -2.054756 -2.101603
60.300000 -2.059277 -2.101603
60.350000 -2.064872 -2.101603
60.400000 -2.071388 -2.101603
60.450000 -2.078646 -2.101603
60.500000 -2.086454 -2.101603
60.550000 -2.094603 -2.101603
60.600000 -2.102878 -2.101603
60.650000 -2.111061 -2.101603
60.700000 -2.118941 -2.101603
60.750000 -2.126312 -2.101603
60.800000 -2.132987 -2.101603
60.850000 -2.138796 -2.101603
60.900000 -2.143593 -2.101603
60.950000 -2.147259 -2.101603
61.000000 -2.149708 -2.101603
61.050000 -2.150884 -2.101603
61.100000 -2.150764 -2.101603
61.150000 -2.149361 -2.101603
61.200000 -2.146721 -2.101603
61.250000 -2.142921 -2.101603
61.300000 -2.138068 -2.101603
61.350000 -2.132297 -2.101603
61.400000 -2.125765 -2.101603
61.450000 -2.118648 -2.101603
61.500000 -2.111135 -2.101603
61.550000 -2.103426 -2.101603
61.600000 -2.095722 -2.101603
61.650000 -2.088227 -2.101603
61.700000 -2.081133 -2.101603
61.750000 -2.074623 -2.101603
61.800000 -2.068863 -2.101603
61.850000 -2.063999 -2.101603
61.900000 -2.060150 -2.101603
61.950000 -2.057411 -2.101603
62.000000 -2.055845 -2.101603
62.050000 -2.055485 -2.101603
62.100000 -2.056332 -2.101603
62.150000 -2.058356 -2.101603
62.200000 -2.061494 -2.101603
62.250000 -2.065659 -2.101604
62.300000 -2.070732 -2.101604
62.350000 -2.076577 -2.101604
62.400000 -2.083034 -2.101604
62.450000 -2.089931 -2.101604
62.500000 -2.097085 -2.101604
62.550000 -2.104307 -2.101604
62.600000 -2.111408 -2.101604
62.650000 -2.118203 -2.101604
62.700000 -2.124517 -2.101604
62.750000 -2.130189 -2.101604
62.800000 -2.135074 -2.101604
62.850000 -2.139052 -2.101604
62.900000 -2.142023 -2.101604
62.950000 -2.143919 -2.101604
63.000000 -2.144696 -2.101604
63.050000 -2.144342 -2.101604
63.100000 -2.142874 -2.101604
63.150000 -2.140339 -2.101604
63.200000 -2.136810 -2.101604
63.250000 -2.132387 -2.101604
63.300000 -2.127190 -2.101604
63.350000 -2.121361 -2.101604
63.400000 -2.115057 -2.101604
63.450000 -2.108446 -2.101604
63.500000 -2.101703 -2.101604
63.550000 -2.095003 -2.101604
63.600000 -2.088523 -2.101604
63.650000 -2.082430 -2.101604
63.700000 -2.076880 -2.101604
63.750000 -2.072015 -2.101604
63.800000 -2.067956 -2.101604
63.850000 -2.064805 -2.101604
63.900000 -2.062636 -2.101604
63.950000 -2.061500 -2.101604
64.000000 -2.061419 -2.101604
64.050000 -2.062389 -2.101604
64.100000 -2.064376 -2.101604
64.150000 -2.067321 -2.101604
64.200000 -2.071140 -2.101604
64.250000 -2.075729 -2.101604
64.300000 -2.080961 -2.101604
64.350000 -2.086696 -2.101604
64.400000 -2.092780 -2.101604
64.450000 -2.099053 -2.101604
64.500000 -2.105347 -2.101604
64.550000 -2.111501 -2.101604
64.600000 -2.117352 -2.101604
64.650000 -2.122752 -2.101604
64.700000 -2.127561 -2.101604
64.750000 -2.131659 -2.101604
64.800000 -2.134944 -2.101604
64.850000 -2.137335 -2.101604
64.900000 -2.138776 -2.101604
64.950000 -2.139236 -2.101604
65.000000 -2.138710 -2.101604
65.050000 -2.137219 -2.101604
65.100000 -2.134808 -2.101604
65.150000 -2.131547 -2.101604
65.200000 -2.127527 -2.101604
65.250000 -2.122858 -2.101604
65.300000 -2.117666 -2.101604
65.350000 -2.112091 -2.101604
65.400000 -2.106281 -2.101604
65.450000 -2.100390 -2.101604
65.500000 -2.094571 -2.101604
65.550000 -2.088977 -2.101604
65.600000 -2.083752 -2.101604
65.650000 -2.079029 -2.101604
65.700000 -2.074929 -2.101604
65.750000 -2.071554 -2.101604
65.800000 -2.068987 -2.101604
65.850000 -2.067291 -2.101604
65.900000 -2.066502 -2.101604
65.950000 -2.066635 -2.101604
66.000000 -2.067680 -2.101604
66.050000 -2.069605 -2.101604
66.100000 -2.072351 -2.101604
66.150000 -2.075842 -2.101604
66.200000 -2.079982 -2.101604
66.250000 -2.084657 -2.101604
66.300000 -2.089742 -2.101604
66.350000 -2.095102 -2.101604
66.400000 -2.100594 -2.101604
66.450000 -2.106074 -2.101604
66.500000 -2.111398 -2.101604
66.550000 -2.116430 -2.101604
66.600000 -2.121040 -2.101604
66.650000 -2.125110 -2.101604
66.700000 -2.128537 -2.101604
66.750000 -2.131237 -2.101604
66.800000 -2.133145 -2.101604
66.850000 -2.134215 -2.101604
66.900000 -2.134426 -2.101604
66.950000 -2.133779 -2.101604
67.000000 -2.132296 -2.101604
67.050000 -2.130022 -2.101604
67.100000 -2.127021 -2.101604
67.150000 -2.123378 -2.101604
67.200000 -2.119191 -2.101604
67.250000 -2.114575 -2.101604
67.300000 -2.109652 -2.101604
67.350000 -2.104553 -2.101604
67.400000 -2.099412 -2.101604
67.450000 -2.094365 -2.101604
67.500000 -2.089543 -2.101604
67.550000 -2.085068 -2.101604
67.600000 -2.081057 -2.101604
67.650000 -2.077611 -2.101604
67.700000 -2.074815 -2.101604
67.750000 -2.072738 -2.101604
67.800000 -2.071430 -2.101604
67.850000 -2.070919 -2.101604
67.900000 -2.071213 -2.101604
67.950000 -2.072298 -2.101604
68.000000 -2.074141 -2.101604
68.050000 -2.076688 -2.101604
68.100000 -2.079869 -2.101604
68.150000 -2.083594 -2.101604
68.200000 -2.087764 -2.101604
68.250000 -2.092267 -2.101604
68.300000 -2.096981 -2.101604
68.350000 -2.101784 -2.101604
68.400000 -2.106548 -2.101604
68.450000 -2.111150 -2.101604
68.500000 -2.115470 -2.101604
68.550000 -2.119398 -2.101604
68.600000 -2.122834 -2.101604
68.650000 -2.125692 -2.101604
68.700000 -2.127900 -2.101604
68.750000 -2.129407 -2.101604
68.800000 -2.130176 -2.101604
68.850000 -2.130194 -2.101604
68.900000 -2.129466 -2.101604
68.950000 -2.128015 -2.101604
69.000000 -2.125884 -2.101604
69.050000 -2.123134 -2.101604
69.100000 -2.119841 -2.101604
69.150000 -2.116095 -2.101604
69.200000 -2.111996 -2.101604
69.250000 -2.107655 -2.101604
69.300000 -2.103186 -2.101604
69.350000 -2.098707 -2.101604
69.400000 -2.094335 -2.101604
69.450000 -2.090183 -2.101604
69.500000 -2.086359 -2.101604
69.550000 -2.082959 -2.101604
69.600000 -2.080070 -2.101604
69.650000 -2.077763 -2.101604
69.700000 -2.076096 -2.101604
69.750000 -2.075106 -2.101604
69.800000 -2.074815 -2.101604
69.850000 -2.075225 -2.101604
69.900000 -2.076322 -2.101604
69.950000 -2.078071 -2.101604
70.000000 -2.080423 -2.101604
70.050000 -2.083311 -2.101604
70.100000 -2.086657 -2.101604
70.150000 -2.090370 -2.101604
70.200000 -2.094350 -2.101604
70.250000 -2.098492 -2.101604
70.300000 -2.102686 -2.101604
70.350000 -2.106823 -2.101604
70.400000 -2.110794 -2.101604
70.450000 -2.114498 -2.101604
70.500000 -2.117839 -2.101604
70.550000 -2.120733 -2.101604
70.600000 -2.123107 -2.101604
70.650000 -2.124903 -2.101604
70.700000 -2.126078 -2.101604
70.750000 -2.126605 -2.101604
70.800000 -2.126476 -2.101604
70.850000 -2.125699 -2.101604
70.900000 -2.124297 -2.101604
70.950000 -2.122313 -2.101604
71.000000 -2.119801 -2.101604
71.050000 -2.116832 -2.101604
71.100000 -2.113487 -2.101604
71.150000 -2.109854 -2.101604
71.200000 -2.106031 -2.101604
71.250000 -2.102119 -2.101604
71.300000 -2.098221 -2.101604
71.350000 -2.094438 -2.101604
71.400000 -2.090870 -2.101604
71.450000 -2.087606 -2.101604
71.500000 -2.084731 -2.101604
71.550000 -2.082316 -2.101604
71.600000 -2.080422 -2.101604
71.650000 -2.079095 -2.101604
71.700000 -2.078364 -2.101604
71.750000 -2.078246 -2.101604
71.800000 -2.078738 -2.101604
71.850000 -2.079824 -2.101604
71.900000 -2.081472 -2.101604
71.950000 -2.083633 -2.101604
72.000000 -2.086249 -2.101604
72.050000 -2.089247 -2.101604
72.100000 -2.092548 -2.101604
72.150000 -2.096061 -2.101604
72.200000 -2.099695 -2.101604
72.250000 -2.103354 -2.101604
72.300000 -2.106941 -2.101604
72.350000 -2.110363 -2.101604
72.400000 -2.113533 -2.101604
72.450000 -2.116370 -2.101604
72.500000 -2.118801 -2.101604
72.550000 -2.120766 -2.101604
72.600000 -2.122216 -2.101604
72.650000 -2.123119 -2.101604
72.700000 -2.123453 -2.101604
72.750000 -2.123214 -2.101604
72.800000 -2.122412 -2.101604
72.850000 -2.121073 -2.101604
72.900000 -2.119235 -2.101604
72.950000 -2.116949 -2.101604
73.000000 -2.114278 -2.101604
73.050000 -2.111295 -2.101604
73.100000 -2.108079 -2.101604
73.150000 -2.104718 -2.101604
73.200000 -2.101298 -2.101604
73.250000 -2.097910 -2.101604
73.300000 -2.094642 -2.101604
73.350000 -2.091579 -2.101604
73.400000 -2.088799 -2.101604
73.450000 -2.086373 -2.101604
73.500000 -2.084361 -2.101604
73.550000 -2.082814 -2.101604
73.600000 -2.081769 -2.101604
73.650000 -2.081249 -2.101604
73.700000 -2.081264 -2.101604
73.750000 -2.081810 -2.101604
73.800000 -2.082869 -2.101604
73.850000 -2.084410 -2.101604
73.900000 -2.086389 -2.101604
73.950000 -2.088752 -2.101604
74.000000 -2.091434 -2.101604
74.050000 -2.094363 -2.101604
74.100000 -2.097460 -2.101604
74.150000 -2.100644 -2.101604
74.200000 -2.103831 -2.101604
74.250000 -2.106938 -2.101604
74.300000 -2.109883 -2.101604
74.350000 -2.112592 -2.101604
74.400000 -2.114994 -2.101604
74.450000 -2.117031 -2.101604
74.500000 -2.118650 -2.101604
74.550000 -2.119813 -2.101604
74.600000 -2.120492 -2.101604
74.650000 -2.120673 -2.101604
74.700000 -2.120355 -2.101604
74.750000 -2.119549 -2.101604
74.800000 -2.118281 -2.101604
74.850000 -2.116585 -2.101604
74.900000 -2.114511 -2.101604
74.950000 -2.112113 -2.101604
75.000000 -2.109458 -2.101604
75.050000 -2.106617 -2.101604
75.100000 -2.103664 -2.101604
75.150000 -2.100678 -2.101604
75.200000 -2.097738 -2.101604
75.250000 -2.094918 -2.101604
75.300000 -2.092293 -2.101604
75.350000 -2.089930 -2.101604
75.400000 -2.087888 -2.101604
75.450000 -2.086218 -2.101604
75.500000 -2.084962 -2.101604
75.550000 -2.084149 -2.101604
75.600000 -2.083798 -2.101604
75.650000 -2.083914 -2.101604
75.700000 -2.084492 -2.101604
75.750000 -2.085512 -2.101604
75.800000 -2.086945 -2.101604
75.850000 -2.088751 -2.101604
75.900000 -2.090880 -2.101604
75.950000 -2.093275 -2.101604
76.000000 -2.095870 -2.101604
76.050000 -2.098597 -2.101604
76.100000 -2.101383 -2.101604
76.150000 -2.104155 -2.101604
76.200000 -2.106842 -2.101604
76.250000 -2.109373 -2.101604
76.300000 -2.111683 -2.101604
76.350000 -2.113715 -2.101604
76.400000 -2.115415 -2.101604
76.450000 -2.116743 -2.101604
76.500000 -2.117667 -2.101604
76.550000 -2.118164 -2.101604
76.600000 -2.118226 -2.101604
76.650000 -2.117853 -2.101604
76.700000 -2.117058 -2.101604
76.750000 -2.115865 -2.101604
76.800000 -2.114308 -2.101604
76.850000 -2.112431 -2.101604
76.900000 -2.110283 -2.101604
76.950000 -2.107924 -2.101604
77.000000 -2.105417 -2.101604
77.050000 -2.102827 -2.101604
77.100000 -2.100223 -2.101604
77.150000 -2.097674 -2.101604
77.200000 -2.095245 -2.101604
77.250000 -2.092999 -2.101604
77.300000 -2.090994 -2.101604
77.350000 -2.089280 -2.101604
77.400000 -2.087899 -2.101604
77.450000 -2.086886 -2.101604
77.500000 -2.086265 -2.101604
77.550000 -2.086048 -2.101604
77.600000 -2.086239 -2.101604
77.650000 -2.086830 -2.101604
77.700000 -2.087803 -2.101604
77.750000 -2.089130 -2.101604
77.800000 -2.090772 -2.101604
77.850000 -2.092687 -2.101604
77.900000 -2.094820 -2.101604
77.950000 -2.097116 -2.101604
78.000000 -2.099514 -2.101604
78.050000 -2.101949 -2.101604
78.100000 -2.104358 -2.101604
78.150000 -2.106678 -2.101604
78.200000 -2.108850 -2.101604
78.250000 -2.110817 -2.101604
78.300000 -2.112530 -2.101604
78.350000 -2.113945 -2.101604
78.400000 -2.115028 -2.101604
78.450000 -2.115754 -2.101604
78.500000 -2.116104 -2.101604
78.550000 -2.116074 -2.101604
78.600000 -2.115666 -2.101604
78.650000 -2.114893 -2.101604
78.700000 -2.113779 -2.101604
78.750000 -2.112355 -2.101604
78.800000 -2.110659 -2.101604
78.850000 -2.108740 -2.101604
78.900000 -2.106647 -2.101604
78.950000 -2.104437 -2.101604
79.000000 -2.102169 -2.101604
79.050000 -2.099901 -2.101604
79.100000 -2.097694 -2.101604
79.150000 -2.095605 -2.101604
79.200000 -2.093687 -2.101604
79.250000 -2.091989 -2.101604
79.300000 -2.090554 -2.101604
79.350000 -2.089417 -2.101604
79.400000 -2.088607 -2.101604
79.450000 -2.088142 -2.101604
79.500000 -2.088031 -2.101604
79.550000 -2.088276 -2.101604
79.600000 -2.088867 -2.101604
79.650000 -2.089787 -2.101604
79.700000 -2.091009 -2.101604
79.750000 -2.092499 -2.101604
79.800000 -2.094216 -2.101604
79.850000 -2.096115 -2.101604
79.900000 -2.098143 -2.101604
79.950000 -2.100248 -2.101604
80.000000 -2.102373 -2.101604
80.050000 -2.104464 -2.101604
80.100000 -2.106465 -2.101604
80.150000 -2.108325 -2.101604
80.200000 -2.109997 -2.101604
80.250000 -2.111438 -2.101604
80.300000 -2.112612 -2.101604
80.350000 -2.113490 -2.101604
80.400000 -2.114052 -2.101604
80.450000 -2.114284 -2.101604
80.500000 -2.114184 -2.101604
80.550000 -2.113757 -2.101604
80.600000 -2.113014 -2.101604
80.650000 -2.111979 -2.101604
80.700000 -2.110681 -2.101604
80.750000 -2.109154 -2.101604
80.800000 -2.107441 -2.101604
80.850000 -2.105587 -2.101604
80.900000 -2.103642 -2.101604
80.950000 -2.101658 -2.101604
81.000000 -2.099686 -2.101604
81.050000 -2.097778 -2.101604
81.100000 -2.095983 -2.101604
81.150000 -2.094348 -2.101604
81.200000 -2.092913 -2.101604
81.250000 -2.091715 -2.101604
81.300000 -2.090784 -2.101604
81.350000 -2.090143 -2.101604
81.400000 -2.089804 -2.101604
81.450000 -2.089777 -2.101604
81.500000 -2.090058 -2.101604
81.550000 -2.090639 -2.101604
81.600000 -2.091503 -2.101604
81.650000 -2.092624 -2.101604
81.700000 -2.093971 -2.101604
81.750000 -2.095509 -2.101604
81.800000 -2.097195 -2.101604
81.850000 -2.098985 -2.101604
81.900000 -2.100830 -2.101604
81.950000 -2.102683 -2.101604
82.000000 -2.104494 -2.101604
82.050000 -2.106218 -2.101604
82.100000 -2.107809 -2.101604
82.150000 -2.109226 -2.101604
82.200000 -2.110435 -2.101604
82.250000 -2.111405 -2.101604
82.300000 -2.112112 -2.101604
82.350000 -2.112540 -2.101604
82.400000 -2.112679 -2.101604
82.450000 -2.112527 -2.101604
82.500000 -2.112092 -2.101604
82.550000 -2.111386 -2.101604
82.600000 -2.110429 -2.101604
82.650000 -2.109249 -2.101604
82.700000 -2.107877 -2.101604
82.750000 -2.106351 -2.101604
82.800000 -2.104711 -2.101604
82.850000 -2.103002 -2.101604
82.900000 -2.101268 -2.101604
82.950000 -2.099555 -2.101604
83.000000 -2.097908 -2.101604
83.050000 -2.096369 -2.101604
83.100000 -2.094977 -2.101604
83.150000 -2.093768 -2.101604
83.200000 -2.092772 -2.101604
83.250000 -2.092013 -2.101604
83.300000 -2.091511 -2.101604
83.350000 -2.091275 -2.101604
83.400000 -2.091311 -2.101604
83.450000 -2.091615 -2.101604
83.500000 -2.092179 -2.101604
83.550000 -2.092984 -2.101604
83.600000 -2.094009 -2.101604
83.650000 -2.095225 -2.101604
83.700000 -2.096599 -2.101604
83.750000 -2.098094 -2.101604
83.800000 -2.099671 -2.101604
83.850000 -2.101286 -2.101604
83.900000 -2.102899 -2.101604
83.950000 -2.104467 -2.101604
84.000000 -2.105949 -2.101604
84.050000 -2.107308 -2.101604
84.100000 -2.108507 -2.101604
84.150000 -2.109519 -2.101604
84.200000 -2.110316 -2.101604
84.250000 -2.110880 -2.101604
84.300000 -2.111198 -2.101604
84.350000 -2.111264 -2.101604
84.400000 -2.111076 -2.101604
84.450000 -2.110643 -2.101604
84.500000 -2.109976 -2.101604
84.550000 -2.109096 -2.101604
84.600000 -2.108026 -2.101604
84.650000 -2.106796 -2.101604
84.700000 -2.105439 -2.101604
84.750000 -2.103991 -2.101604
84.800000 -2.102491 -2.101604
84.850000 -2.100978 -2.101604
84.900000 -2.099492 -2.101604
84.950000 -2.098072 -2.101604
85.000000 -2.096754 -2.101604
85.050000 -2.095571 -2.101604
85.100000 -2.094555 -2.101604
85.150000 -2.093729 -2.101604
85.200000 -2.093116 -2.101604
85.250000 -2.092728 -2.101604
85.300000 -2.092574 -2.101604
85.350000 -2.092658 -2.101604
85.400000 -2.092974 -2.101604
85.450000 -2.093514 -2.101604
85.500000 -2.094261 -2.101604
85.550000 -2.095195 -2.101604
85.600000 -2.096290 -2.101604
85.650000 -2.097515 -2.101604
85.700000 -2.098839 -2.101604
85.750000 -2.100226 -2.101604
85.800000 -2.101639 -2.101604
85.850000 -2.103042 -2.101604
85.900000 -2.104397 -2.101604
85.950000 -2.105669 -2.101604
86.000000 -2.106827 -2.101604
86.050000 -2.107840 -2.101604
86.100000 -2.108683 -2.101604
86.150000 -2.109336 -2.101604
86.200000 -2.109782 -2.101604
86.250000 -2.110011 -2.101604
86.300000 -2.110019 -2.101604
86.350000 -2.109807 -2.101604
86.400000 -2.109383 -2.101604
86.450000 -2.108758 -2.101604
86.500000 -2.107951 -2.101604
86.550000 -2.106984 -2.101604
86.600000 -2.105883 -2.101604
86.650000 -2.104678 -2.101604
86.700000 -2.103401 -2.101604
86.750000 -2.102086 -2.101604
86.800000 -2.100768 -2.101604
86.850000 -2.099481 -2.101604
86.900000 -2.098258 -2.101604
86.950000 -2.097131 -2.101604
87.000000 -2.096129 -2.101604
87.050000 -2.095276 -2.101604
87.100000 -2.094595 -2.101604
87.150000 -2.094102 -2.101604
87.200000 -2.093808 -2.101604
87.250000 -2.093720 -2.101604
87.300000 -2.093838 -2.101604
87.350000 -2.094159 -2.101604
87.400000 -2.094671 -2.101604
87.450000 -2.095361 -2.101604
87.500000 -2.096209 -2.101604
87.550000 -2.097192 -2.101604
87.600000 -2.098284 -2.101604
87.650000 -2.099454 -2.101604
87.700000 -2.100673 -2.101604
87.750000 -2.101907 -2.101604
87.800000 -2.103125 -2.101604
87.850000 -2.104294 -2.101604
87.900000 -2.105385 -2.101604
87.950000 -2.106370 -2.101604
88.000000 -2.107224 -2.101604
88.050000 -2.107924 -2.101604
88.100000 -2.108455 -2.101604
88.150000 -2.108803 -2.101604
88.200000 -2.108961 -2.101604
88.250000 -2.108925 -2.101604
88.300000 -2.108699 -2.101604
88.350000 -2.108288 -2.101604
88.400000 -2.107706 -2.101604
88.450000 -2.106969 -2.101604
88.500000 -2.106097 -2.101604
88.550000 -2.105114 -2.101604
88.600000 -2.104045 -2.101604
88.650000 -2.102921 -2.101604
88.700000 -2.101770 -2.101604
88.750000 -2.100623 -2.101604
88.800000 -2.099509 -2.101604
88.850000 -2.098458 -2.101604
88.900000 -2.097496 -2.101604
88.950000 -2.096648 -2.101604
89.000000 -2.095936 -2.101604
89.050000 -2.095376 -2.101604
89.100000 -2.094984 -2.101604
89.150000 -2.094766 -2.101604
89.200000 -2.094729 -2.101604
89.250000 -2.094872 -2.101604
89.300000 -2.095190 -2.101604
89.350000 -2.095672 -2.101604
89.400000 -2.096307 -2.101604
89.450000 -2.097075 -2.101604
89.500000 -2.097956 -2.101604
89.550000 -2.098926 -2.101604
89.600000 -2.099960 -2.101604
89.650000 -2.101029 -2.101604
89.700000 -2.102106 -2.101604
89.750000 -2.103162 -2.101604
89.800000 -2.104170 -2.101604
89.850000 -2.105104 -2.101604
89.900000 -2.105940 -2.101604
89.950000 -2.106657 -2.101604
90.000000 -2.107237 -2.101604
90.050000 -2.107665 -2.101604
90.100000 -2.107933 -2.101604
90.150000 -2.108033 -2.101604
90.200000 -2.107965 -2.101604
90.250000 -2.107731 -2.101604
90.300000 -2.107339 -2.101604
90.350000 -2.106800 -2.101604
90.400000 -2.106129 -2.101604
90.450000 -2.105344 -2.101604
90.500000 -2.104467 -2.101604
90.550000 -2.103522 -2.101604
90.600000 -2.102533 -2.101604
90.650000 -2.101526 -2.101604
90.700000 -2.100529 -2.101604
90.750000 -2.099567 -2.101604
90.800000 -2.098665 -2.101604
90.850000 -2.097845 -2.101604
90.900000 -2.097130 -2.101604
90.950000 -2.096536 -2.101604
91.000000 -2.096079 -2.101604
91.050000 -2.095770 -2.101604
91.100000 -2.095615 -2.101604
91.150000 -2.095617 -2.101604
91.200000 -2.095776 -2.101604
91.250000 -2.096086 -2.101604
91.300000 -2.096538 -2.101604
91.350000 -2.097119 -2.101604
91.400000 -2.097813 -2.101604
91.450000 -2.098601 -2.101604
91.500000 -2.099462 -2.101604
91.550000 -2.100373 -2.101604
91.600000 -2.101310 -2.101604
91.650000 -2.102248 -2.101604
91.700000 -2.103162 -2.101604
91.750000 -2.104030 -2.101604
91.800000 -2.104828 -2.101604
91.850000 -2.105536 -2.101604
91.900000 -2.106137 -2.101604
91.950000 -2.106615 -2.101604
92.000000 -2.106959 -2.101604
92.050000 -2.107161 -2.101604
92.100000 -2.107216 -2.101604
92.150000 -2.107124 -2.101604
92.200000 -2.106889 -2.101604
92.250000 -2.106517 -2.101604
92.300000 -2.106020 -2.101604
92.350000 -2.105410 -2.101604
92.400000 -2.104706 -2.101604
92.450000 -2.103926 -2.101604
92.500000 -2.103090 -2.101604
92.550000 -2.102221 -2.101604
92.600000 -2.101343 -2.101604
92.650000 -2.100477 -2.101604
92.700000 -2.099647 -2.101604
92.750000 -2.098873 -2.101604
92.800000 -2.098177 -2.101604
92.850000 -2.097574 -2.101604
92.900000 -2.097082 -2.101604
92.950000 -2.096710 -2.101604
93.000000 -2.096470 -2.101604
93.050000 -2.096364 -2.101604
93.100000 -2.096397 -2.101604
93.150000 -2.096565 -2.101604
93.200000 -2.096864 -2.101604
93.250000 -2.097284 -2.101604
93.300000 -2.097814 -2.101604
93.350000 -2.098440 -2.101604
93.400000 -2.099144 -2.101604
93.450000 -2.099907 -2.101604
93.500000 -2.100709 -2.101604
93.550000 -2.101529 -2.101604
93.600000 -2.102345 -2.101604
93.650000 -2.103136 -2.101604
93.700000 -2.103881 -2.101604
93.750000 -2.104562 -2.101604
93.800000 -2.105161 -2.101604
93.850000 -2.105663 -2.101604
93.900000 -2.106055 -2.101604
93.950000 -2.106328 -2.101604
94.000000 -2.106476 -2.101604
94.050000 -2.106496 -2.101604
94.100000 -2.106388 -2.101604
94.150000 -2.106155 -2.101604
94.200000 -2.105806 -2.101604
94.250000 -2.105349 -2.101604
94.300000 -2.104797 -2.101604
94.350000 -2.104166 -2.101604
94.400000 -2.103473 -2.101604
94.450000 -2.102735 -2.101604
94.500000 -2.101973 -2.101604
94.550000 -2.101207 -2.101604
94.600000 -2.100457 -2.101604
94.650000 -2.099741 -2.101604
94.700000 -2.099080 -2.101604
94.750000 -2.098489 -2.101604
94.800000 -2.097983 -2.101604
94.850000 -2.097575 -2.101604
94.900000 -2.097276 -2.101604
94.950000 -2.097091 -2.101604
95.000000 -2.097026 -2.101604
95.050000 -2.097081 -2.101604
95.100000 -2.097253 -2.101604
95.150000 -2.097538 -2.101604
95.200000 -2.097927 -2.101604
95.250000 -2.098410 -2.101604
95.300000 -2.098972 -2.101604
95.350000 -2.099600 -2.101604
95.400000 -2.100275 -2.101604
95.450000 -2.100980 -2.101604
95.500000 -2.101696 -2.101604
95.550000 -2.102406 -2.101604
95.600000 -2.103089 -2.101604
95.650000 -2.103729 -2.101604
95.700000 -2.104308 -2.101604
95.750000 -2.104813 -2.101604
95.800000 -2.105231 -2.101604
95.850000 -2.105551 -2.101604
95.900000 -2.105766 -2.101604
95.950000 -2.105871 -2.101604
96.000000 -2.105863 -2.101604
96.050000 -2.105744 -2.101604
96.100000 -2.105518 -2.101604
96.150000 -2.105192 -2.101604
96.200000 -2.104773 -2.101604
96.250000 -2.104275 -2.101604
96.300000 -2.103711 -2.101604
96.350000 -2.103096 -2.101604
96.400000 -2.102446 -2.101604
96.450000 -2.101778 -2.101604
96.500000 -2.101111 -2.101604
96.550000 -2.100461 -2.101604
96.600000 -2.099846 -2.101604
96.650000 -2.099281 -2.101604
96.700000 -2.098780 -2.101604
96.750000 -2.098357 -2.101604
96.800000 -2.098021 -2.101604
96.850000 -2.097781 -2.101604
96.900000 -2.097643 -2.101604
96.950000 -2.097610 -2.101604
97.000000 -2.097680 -2.101604
97.050000 -2.097853 -2.101604
97.100000 -2.098123 -2.101604
97.150000 -2.098481 -2.101604
97.200000 -2.098919 -2.101604
97.250000 -2.099423 -2.101604
97.300000 -2.099981 -2.101604
97.350000 -2.100578 -2.101604
97.400000 -2.101197 -2.101604
97.450000 -2.101823 -2.101604
97.500000 -2.102438 -2.101604
97.550000 -2.103027 -2.101604
97.600000 -2.103575 -2.101604
97.650000 -2.104068 -2.101604
97.700000 -2.104493 -2.101604
97.750000 -2.104840 -2.101604
97.800000 -2.105099 -2.101604
97.850000 -2.105266 -2.101604
97.900000 -2.105335 -2.101604
97.950000 -2.105307 -2.101604
98.000000 -2.105182 -2.101604
98.050000 -2.104965 -2.101604
98.100000 -2.104662 -2.101604
98.150000 -2.104280 -2.101604
98.200000 -2.103832 -2.101604
98.250000 -2.103328 -2.101604
98.300000 -2.102783 -2.101604
98.350000 -2.102211 -2.101604
98.400000 -2.101627 -2.101604
98.450000 -2.101047 -2.101604
98.500000 -2.100485 -2.101604
98.550000 -2.099956 -2.101604
98.600000 -2.099474 -2.101604
98.650000 -2.099051 -2.101604
98.700000 -2.098698 -2.101604
98.750000 -2.098423 -2.101604
98.800000 -2.098233 -2.101604
98.850000 -2.098132 -2.101604
98.900000 -2.098123 -2.101604
98.950000 -2.098205 -2.101604
99.000000 -2.098375 -2.101604
99.050000 -2.098628 -2.101604
99.100000 -2.098957 -2.101604
99.150000 -2.099353 -2.101604
99.200000 -2.099804 -2.101604
99.250000 -2.100300 -2.101604
99.300000 -2.100826 -2.101604
99.350000 -2.101369 -2.101604
99.400000 -2.101915 -2.101604
99.450000 -2.102448 -2.101604
99.500000 -2.102956 -2.101604
99.550000 -2.103424 -2.101604
99.600000 -2.103842 -2.101604
99.650000 -2.104199 -2.101604
99.700000 -2.104485 -2.101604
99.750000 -2.104694 -2.101604
99.800000 -2.104821 -2.101604
99.850000 -2.104863 -2.101604
99.900000 -2.104820 -2.101604
99.950000 -2.104693 -2.101604
100.000000 -2.104486 -2.101604
100.050000 -2.104205 -2.101604
100.100000 -2.103858 -2.101604
100.150000 -2.103455 -2.101604
100.200000 -2.103007 -2.101604
100.250000 -2.102525 -2.101604
100.300000 -2.102022 -2.101604
100.350000 -2.101512 -2.101604
100.400000 -2.101007 -2.101604
100.450000 -2.100522 -2.101604
100.500000 -2.100069 -2.101604
100.550000 -2.099659 -2.101604
100.600000 -2.099302 -2.101604
100.650000 -2.099008 -2.101604
100.700000 -2.098784 -2.101604
100.750000 -2.098635 -2.101604
100.800000 -2.098565 -2.101604
100.850000 -2.098574 -2.101604
100.900000 -2.098663 -2.101604
100.950000 -2.098828 -2.101604
101.000000 -2.099064 -2.101604
101.050000 -2.099365 -2.101604
101.100000 -2.099722 -2.101604
101.150000 -2.100126 -2.101604
101.200000 -2.100565 -2.101604
101.250000 -2.101029 -2.101604
101.300000 -2.101505 -2.101604
101.350000 -2.101979 -2.101604
101.400000 -2.102441 -2.101604
101.450000 -2.102878 -2.101604
101.500000 -2.103278 -2.101604
101.550000 -2.103631 -2.101604
101.600000 -2.103930 -2.101604
101.650000 -2.104165 -2.101604
101.700000 -2.104332 -2.101604
101.750000 -2.104427 -2.101604
101.800000 -2.104447 -2.101604
101.850000 -2.104393 -2.101604
101.900000 -2.104266 -2.101604
101.950000 -2.104071 -2.101604
102.000000 -2.103812 -2.101604
102.050000 -2.103498 -2.101604
102.100000 -2.103137 -2.101604
102.150000 -2.102738 -2.101604
102.200000 -2.102312 -2.101604
102.250000 -2.101870 -2.101604
102.300000 -2.101425 -2.101604
102.350000 -2.100988 -2.101604
102.400000 -2.100570 -2.101604
102.450000 -2.100181 -2.101604
102.500000 -2.099833 -2.101604
102.550000 -2.099533 -2.101604
102.600000 -2.099289 -2.101604
102.650000 -2.099108 -2.101604
102.700000 -2.098993 -2.101604
102.750000 -2.098947 -2.101604
102.800000 -2.098971 -2.101604
102.850000 -2.099063 -2.101604
102.900000 -2.099221 -2.101604
102.950000 -2.099440 -2.101604
103.000000 -2.099714 -2.101604
103.050000 -2.100036 -2.101604
103.100000 -2.100396 -2.101604
103.150000 -2.100785 -2.101604
103.200000 -2.101193 -2.101604
103.250000 -2.101609 -2.101604
103.300000 -2.102022 -2.101604
103.350000 -2.102421 -2.101604
103.400000 -2.102796 -2.101604
103.450000 -2.103137 -2.101604
103.500000 -2.103436 -2.101604
103.550000 -2.103685 -2.101604
103.600000 -2.103877 -2.101604
103.650000 -2.104009 -2.101604
103.700000 -2.104078 -2.101604
103.750000 -2.104081 -2.101604
103.800000 -2.104019 -2.101604
103.850000 -2.103895 -2.101604
103.900000 -2.103712 -2.101604
103.950000 -2.103475 -2.101604
104.000000 -2.103191 -2.101604
104.050000 -2.102867 -2.101604
104.100000 -2.102513 -2.101604
104.150000 -2.102138 -2.101604
104.200000 -2.101751 -2.101604
104.250000 -2.101363 -2.101604
104.300000 -2.100984 -2.101604
104.350000 -2.100624 -2.101604
104.400000 -2.100292 -2.101604
104.450000 -2.099996 -2.101604
104.500000 -2.099745 -2.101604
104.550000 -2.099544 -2.101604
104.600000 -2.099398 -2.101604
104.650000 -2.099311 -2.101604
104.700000 -2.099284 -2.101604
104.750000 -2.099318 -2.101604
104.800000 -2.099411 -2.101604
104.850000 -2.099562 -2.101604
104.900000 -2.099764 -2.101604
104.950000 -2.100013 -2.101604
105.000000 -2.100302 -2.101604
105.050000 -2.100623 -2.101604
105.100000 -2.100967 -2.101604
105.150000 -2.101325 -2.101604
105.200000 -2.101689 -2.101604
105.250000 -2.102047 -2.101604
105.300000 -2.102392 -2.101604
105.350000 -2.102713 -2.101604
105.400000 -2.103003 -2.101604
105.450000 -2.103255 -2.101604
105.500000 -2.103462 -2.101604
105.550000 -2.103618 -2.101604
105.600000 -2.103722 -2.101604
105.650000 -2.103769 -2.101604
105.700000 -2.103759 -2.101604
105.750000 -2.103693 -2.101604
105.800000 -2.103573 -2.101604
105.850000 -2.103402 -2.101604
105.900000 -2.103186 -2.101604
105.950000 -2.102930 -2.101604
106.000000 -2.102641 -2.101604
106.050000 -2.102326 -2.101604
106.100000 -2.101996 -2.101604
106.150000 -2.101657 -2.101604
106.200000 -2.101319 -2.101604
106.250000 -2.100991 -2.101604
106.300000 -2.100682 -2.101604
106.350000 -2.100398 -2.101604
106.400000 -2.100148 -2.101604
106.450000 -2.099938 -2.101604
106.500000 -2.099773 -2.101604
106.550000 -2.099657 -2.101604
106.600000 -2.099592 -2.101604
106.650000 -2.099581 -2.101604
106.700000 -2.099622 -2.101604
106.750000 -2.099715 -2.101604
106.800000 -2.099856 -2.101604
106.850000 -2.100042 -2.101604
106.900000 -2.100268 -2.101604
106.950000 -2.100527 -2.101604
107.000000 -2.100812 -2.101604
107.050000 -2.101116 -2.101604
107.100000 -2.101431 -2.101604
107.150000 -2.101748 -2.101604
107.200000 -2.102059 -2.101604
107.250000 -2.102355 -2.101604
107.300000 -2.102631 -2.101604
107.350000 -2.102877 -2.101604
107.400000 -2.103088 -2.101604
107.450000 -2.103260 -2.101604
107.500000 -2.103386 -2.101604
107.550000 -2.103466 -2.101604
107.600000 -2.103496 -2.101604
107.650000 -2.103477 -2.101604
107.700000 -2.103408 -2.101604
107.750000 -2.103293 -2.101604
107.800000 -2.103135 -2.101604
107.850000 -2.102938 -2.101604
107.900000 -2.102708 -2.101604
107.950000 -2.102450 -2.101604
108.000000 -2.102172 -2.101604
108.050000 -2.101881 -2.101604
108.100000 -2.101585 -2.101604
108.150000 -2.101291 -2.101604
108.200000 -2.101008 -2.101604
108.250000 -2.100742 -2.101604
108.300000 -2.100501 -2.101604
108.350000 -2.100290 -2.101604
108.400000 -2.100115 -2.101604
108.450000 -2.099980 -2.101604
108.500000 -2.099888 -2.101604
108.550000 -2.099842 -2.101604
108.600000 -2.099842 -2.101604
108.650000 -2.099888 -2.101604
108.700000 -2.099979 -2.101604
108.750000 -2.100111 -2.101604
108.800000 -2.100282 -2.101604
108.850000 -2.100485 -2.101604
108.900000 -2.100717 -2.101604
108.950000 -2.100970 -2.101604
109.000000 -2.101238 -2.101604
109.050000 -2.101514 -2.101604
109.100000 -2.101790 -2.101604
109.150000 -2.102059 -2.101604
109.200000 -2.102315 -2.101604
109.250000 -2.102550 -2.101604
109.300000 -2.102759 -2.101604
109.350000 -2.102936 -2.101604
109.400000 -2.103077 -2.101604
109.450000 -2.103179 -2.101604
109.500000 -2.103239 -2.101604
109.550000 -2.103256 -2.101604
109.600000 -2.103229 -2.101604
109.650000 -2.103160 -2.101604
109.700000 -2.103051 -2.101604
109.750000 -2.102905 -2.101604
109.800000 -2.102727 -2.101604
109.850000 -2.102520 -2.101604
109.900000 -2.102290 -2.101604
109.950000 -2.102044 -2.101604
110.000000 -2.101789 -2.101604
110.050000 -2.101530 -2.101604
110.100000 -2.101275 -2.101604
110.150000 -2.101031 -2.101604
110.200000 -2.100803 -2.101604
110.250000 -2.100598 -2.101604
110.300000 -2.100420 -2.101604
110.350000 -2.100275 -2.101604
110.400000 -2.100165 -2.101604
110.450000 -2.100094 -2.101604
110.500000 -2.100062 -2.101604
110.550000 -2.100071 -2.101604
110.600000 -2.100120 -2.101604
110.650000 -2.100208 -2.101604
110.700000 -2.100331 -2.101604
110.750000 -2.100487 -2.101604
110.800000 -2.100670 -2.101604
110.850000 -2.100877 -2.101604
110.900000 -2.101102 -2.101604
110.950000 -2.101338 -2.101604
111.000000 -2.101579 -2.101604
111.050000 -2.101819 -2.101604
111.100000 -2.102052 -2.101604
111.150000 -2.102272 -2.101604
111.200000 -2.102472 -2.101604
111.250000 -2.102649 -2.101604
111.300000 -2.102797 -2.101604
111.350000 -2.102913 -2.101604
111.400000 -2.102993 -2.101604
111.450000 -2.103037 -2.101604
111.500000 -2.103044 -2.101604
111.550000 -2.103012 -2.101604
111.600000 -2.102944 -2.101604
111.650000 -2.102842 -2.101604
111.700000 -2.102708 -2.101604
111.750000 -2.102546 -2.101604
111.800000 -2.102360 -2.101604
111.850000 -2.102157 -2.101604
111.900000 -2.101940 -2.101604
111.950000 -2.101716 -2.101604
112.000000 -2.101490 -2.101604
112.050000 -2.101269 -2.101604
112.100000 -2.101058 -2.101604
112.150000 -2.100863 -2.101604
112.200000 -2.100689 -2.101604
112.250000 -2.100540 -2.101604
112.300000 -2.100420 -2.101604
112.350000 -2.100331 -2.101604
112.400000 -2.100276 -2.101604
112.450000 -2.100257 -2.101604
112.500000 -2.100273 -2.101604
112.550000 -2.100323 -2.101604
112.600000 -2.100406 -2.101604
112.650000 -2.100520 -2.101604
112.700000 -2.100662 -2.101604
112.750000 -2.100827 -2.101604
112.800000 -2.101012 -2.101604
112.850000 -2.101210 -2.101604
112.900000 -2.101418 -2.101604
112.950000 -2.101629 -2.101604
113.000000 -2.101837 -2.101604
113.050000 -2.102039 -2.101604
113.100000 -2.102227 -2.101604
113.150000 -2.102398 -2.101604
113.200000 -2.102547 -2.101604
113.250000 -2.102670 -2.101604
113.300000 -2.102765 -2.101604
113.350000 -2.102828 -2.101604
113.400000 -2.102859 -2.101604
113.450000 -2.102858 -2.101604
113.500000 -2.102823 -2.101604
113.550000 -2.102757 -2.101604
113.600000 -2.102661 -2.101604
113.650000 -2.102538 -2.101604
113.700000 -2.102392 -2.101604
113.750000 -2.102226 -2.101604
113.800000 -2.102045 -2.101604
113.850000 -2.101854 -2.101604
113.900000 -2.101658 -2.101604
113.950000 -2.101461 -2.101604
114.000000 -2.101270 -2.101604
114.050000 -2.101089 -2.101604
114.100000 -2.100922 -2.101604
114.150000 -2.100775 -2.101604
114.200000 -2.100650 -2.101604
114.250000 -2.100551 -2.101604
114.300000 -2.100480 -2.101604
114.350000 -2.100439 -2.101604
114.400000 -2.100428 -2.101604
114.450000 -2.100449 -2.101604
114.500000 -2.100499 -2.101604
114.550000 -2.100578 -2.101604
114.600000 -2.100683 -2.101604
114.650000 -2.100812 -2.101604
114.700000 -2.100960 -2.101604
114.750000 -2.101124 -2.101604
114.800000 -2.101300 -2.101604
114.850000 -2.101482 -2.101604
114.900000 -2.101666 -2.101604
114.950000 -2.101847 -2.101604
115.000000 -2.102021 -2.101604
115.050000 -2.102182 -2.101604
115.100000 -2.102327 -2.101604
115.150000 -2.102453 -2.101604
115.200000 -2.102555 -2.101604
115.250000 -2.102632 -2.101604
115.300000 -2.102681 -2.101604
115.350000 -2.102702 -2.101604
115.400000 -2.102694 -2.101604
115.450000 -2.102658 -2.101604
115.500000 -2.102594 -2.101604
115.550000 -2.102505 -2.101604
115.600000 -2.102393 -2.101604
115.650000 -2.102261 -2.101604
115.700000 -2.102113 -2.101604
115.750000 -2.101953 -2.101604
115.800000 -2.101785 -2.101604
115.850000 -2.101613 -2.101604
115.900000 -2.101442 -2.101604
115.950000 -2.101277 -2.101604
116.000000 -2.101121 -2.101604
116.050000 -2.100979 -2.101604
116.100000 -2.100854 -2.101604
116.150000 -2.100750 -2.101604
116.200000 -2.100669 -2.101604
116.250000 -2.100612 -2.101604
116.300000 -2.100582 -2.101604
116.350000 -2.100579 -2.101604
116.400000 -2.100603 -2.101604
116.450000 -2.100653 -2.101604
116.500000 -2.100727 -2.101604
116.550000 -2.100824 -2.101604
116.600000 -2.100940 -2.101604
116.650000 -2.101073 -2.101604
116.700000 -2.101218 -2.101604
116.750000 -2.101373 -2.101604
116.800000 -2.101533 -2.101604
116.850000 -2.101693 -2.101604
116.900000 -2.101850 -2.101604
116.950000 -2.102000 -2.101604
117.000000 -2.102138 -2.101604
117.050000 -2.102261 -2.101604
117.100000 -2.102366 -2.101604
117.150000 -2.102451 -2.101604
117.200000 -2.102513 -2.101604
117.250000 -2.102550 -2.101604
117.300000 -2.102563 -2.101604
117.350000 -2.102551 -2.101604
117.400000 -2.102513 -2.101604
117.450000 -2.102453 -2.101604
117.500000 -2.102371 -2.101604
117.550000 -2.102269 -2.101604
117.600000 -2.102150 -2.101604
117.650000 -2.102018 -2.101604
117.700000 -2.101877 -2.101604
117.750000 -2.101729 -2.101604
117.800000 -2.101579 -2.101604
117.850000 -2.101430 -2.101604
117.900000 -2.101287 -2.101604
117.950000 -2.101154 -2.101604
118.000000 -2.101033 -2.101604
118.050000 -2.100928 -2.101604
118.100000 -2.100841 -2.101604
118.150000 -2.100775 -2.101604
118.200000 -2.100731 -2.101604
118.250000 -2.100710 -2.101604
118.300000 -2.100712 -2.101604
118.350000 -2.100738 -2.101604
118.400000 -2.100786 -2.101604
118.450000 -2.100855 -2.101604
118.500000 -2.100944 -2.101604
118.550000 -2.101049 -2.101604
118.600000 -2.101167 -2.101604
118.650000 -2.101297 -2.101604
118.700000 -2.101433 -2.101604
118.750000 -2.101573 -2.101604
118.800000 -2.101713 -2.101604
118.850000 -2.101849 -2.101604
118.900000 -2.101977 -2.101604
118.950000 -2.102095 -2.101604
119.000000 -2.102199 -2.101604
119.050000 -2.102287 -2.101604
119.100000 -2.102357 -2.101604
119.150000 -2.102406 -2.101604
119.200000 -2.102434 -2.101604
119.250000 -2.102441 -2.101604
119.300000 -2.102425 -2.101604
119.350000 -2.102388 -2.101604
119.400000 -2.102331 -2.101604
119.450000 -2.102255 -2.101604
119.500000 -2.102163 -2.101604
119.550000 -2.102056 -2.101604
119.600000 -2.101939 -2.101604
119.650000 -2.101814 -2.101604
119.700000 -2.101684 -2.101604
119.750000 -2.101553 -2.101604
119.800000 -2.101424 -2.101604
119.850000 -2.101301 -2.101604
119.900000 -2.101187 -2.101604
119.950000 -2.101084 -2.101604
120.000000 -2.100995 -2.101604
120.050000 -2.100924 -2.101604
120.100000 -2.100870 -2.101604
120.150000 -2.100836 -2.101604
120.200000 -2.100822 -2.101604
120.250000 -2.100829 -2.101604
120.300000 -2.100856 -2.101604
120.350000 -2.100902 -2.101604
120.400000 -2.100966 -2.101604
120.450000 -2.101047 -2.101604
120.500000 -2.101141 -2.101604
120.550000 -2.101247 -2.101604
120.600000 -2.101362 -2.101604
120.650000 -2.101482 -2.101604
120.700000 -2.101604 -2.101604
120.750000 -2.101725 -2.101604
120.800000 -2.101843 -2.101604
120.850000 -2.101953 -2.101604
120.900000 -2.102054 -2.101604
120.950000 -2.102142 -2.101604
121.000000 -2.102215 -2.101604
121.050000 -2.102272 -2.101604
121.100000 -2.102311 -2.101604
121.150000 -2.102332 -2.101604
121.200000 -2.102333 -2.101604
121.250000 -2.102315 -2.101604
121.300000 -2.102279 -2.101604
121.350000 -2.102225 -2.101604
121.400000 -2.102156 -2.101604
121.450000 -2.102072 -2.101604
121.500000 -2.101977 -2.101604
121.550000 -2.101873 -2.101604
121.600000 -2.101762 -2.101604
121.650000 -2.101649 -2.101604
121.700000 -2.101534 -2.101604
121.750000 -2.101423 -2.101604
121.800000 -2.101317 -2.101604
121.850000 -2.101219 -2.101604
121.900000 -2.101132 -2.101604
121.950000 -2.101058 -2.101604
122.000000 -2.100998 -2.101604
122.050000 -2.100955 -2.101604
122.100000 -2.100929 -2.101604
122.150000 -2.100921 -2.101604
122.200000 -2.100931 -2.101604
122.250000 -2.100958 -2.101604
122.300000 -2.101002 -2.101604
122.350000 -2.101062 -2.101604
122.400000 -2.101135 -2.101604
122.450000 -2.101220 -2.101604
122.500000 -2.101314 -2.101604
122.550000 -2.101415 -2.101604
122.600000 -2.101521 -2.101604
122.650000 -2.101628 -2.101604
122.700000 -2.101733 -2.101604
122.750000 -2.101835 -2.101604
122.800000 -2.101929 -2.101604
122.850000 -2.102015 -2.101604
122.900000 -2.102089 -2.101604
122.950000 -2.102150 -2.101604
123.000000 -2.102196 -2.101604
123.050000 -2.102227 -2.101604
123.100000 -2.102241 -2.101604
123.150000 -2.102238 -2.101604
123.200000 -2.102219 -2.101604
123.250000 -2.102184 -2.101604
123.300000 -2.102134 -2.101604
123.350000 -2.102070 -2.101604
123.400000 -2.101995 -2.101604
123.450000 -2.101910 -2.101604
123.500000 -2.101818 -2.101604
123.550000 -2.101720 -2.101604
123.600000 -2.101621 -2.101604
123.650000 -2.101521 -2.101604
123.700000 -2.101425 -2.101604
123.750000 -2.101334 -2.101604
123.800000 -2.101250 -2.101604
123.850000 -2.101176 -2.101604
123.900000 -2.101114 -2.101604
123.950000 -2.101066 -2.101604
124.000000 -2.101031 -2.101604
124.050000 -2.101012 -2.101604
124.100000 -2.101008 -2.101604
124.150000 -2.101020 -2.101604
124.200000 -2.101048 -2.101604
124.250000 -2.101089 -2.101604
124.300000 -2.101144 -2.101604
124.350000 -2.101210 -2.101604
124.400000 -2.101286 -2.101604
124.450000 -2.101370 -2.101604
124.500000 -2.101459 -2.101604
124.550000 -2.101552 -2.101604
124.600000 -2.101645 -2.101604
124.650000 -2.101737 -2.101604
124.700000 -2.101824 -2.101604
124.750000 -2.101905 -2.101604
124.800000 -2.101978 -2.101604
124.850000 -2.102040 -2.101604
124.900000 -2.102091 -2.101604
124.950000 -2.102128 -2.101604
125.000000 -2.102152 -2.101604
125.050000 -2.102161 -2.101604
125.100000 -2.102155 -2.101604
125.150000 -2.102135 -2.101604
125.200000 -2.102102 -2.101604
125.250000 -2.102055 -2.101604
125.300000 -2.101997 -2.101604
125.350000 -2.101930 -2.101604
125.400000 -2.101854 -2.101604
125.450000 -2.101772 -2.101604
125.500000 -2.101687 -2.101604
125.550000 -2.101599 -2.101604
125.600000 -2.101513 -2.101604
125.650000 -2.101430 -2.101604
125.700000 -2.101351 -2.101604
125.750000 -2.101280 -2.101604
125.800000 -2.101218 -2.101604
125.850000 -2.101166 -2.101604
125.900000 -2.101126 -2.101604
125.950000 -2.101099 -2.101604
126.000000 -2.101085 -2.101604
126.050000 -2.101085 -2.101604
126.100000 -2.101099 -2.101604
126.150000 -2.101125 -2.101604
126.200000 -2.101164 -2.101604
126.250000 -2.101214 -2.101604
126.300000 -2.101274 -2.101604
126.350000 -2.101342 -2.101604
126.400000 -2.101417 -2.101604
126.450000 -2.101495 -2.101604
126.500000 -2.101576 -2.101604
126.550000 -2.101658 -2.101604
126.600000 -2.101737 -2.101604
126.650000 -2.101812 -2.101604
126.700000 -2.101882 -2.101604
126.750000 -2.101943 -2.101604
126.800000 -2.101995 -2.101604
126.850000 -2.102037 -2.101604
126.900000 -2.102067 -2.101604
126.950000 -2.102085 -2.101604
127.000000 -2.102090 -2.101604
127.050000 -2.102082 -2.101604
127.100000 -2.102062 -2.101604
127.150000 -2.102030 -2.101604
127.200000 -2.101988 -2.101604
127.250000 -2.101935 -2.101604
127.300000 -2.101874 -2.101604
127.350000 -2.101807 -2.101604
127.400000 -2.101734 -2.101604
127.450000 -2.101659 -2.101604
127.500000 -2.101583 -2.101604
127.550000 -2.101508 -2.101604
127.600000 -2.101436 -2.101604
127.650000 -2.101369 -2.101604
127.700000 -2.101309 -2.101604
127.750000 -2.101256 -2.101604
127.800000 -2.101213 -2.101604
127.850000 -2.101181 -2.101604
127.900000 -2.101160 -2.101604
127.950000 -2.101150 -2.101604
128.000000 -2.101153 -2.101604
128.050000 -2.101167 -2.101604
128.100000 -2.101193 -2.101604
128.150000 -2.101229 -2.101604
128.200000 -2.101275 -2.101604
128.250000 -2.101329 -2.101604
128.300000 -2.101389 -2.101604
128.350000 -2.101455 -2.101604
128.400000 -2.101525 -2.101604
128.450000 -2.101596 -2.101604
128.500000 -2.101666 -2.101604
128.550000 -2.101735 -2.101604
128.600000 -2.101800 -2.101604
128.650000 -2.101859 -2.101604
128.700000 -2.101911 -2.101604
128.750000 -2.101954 -2.101604
128.800000 -2.101989 -2.101604
128.850000 -2.102013 -2.101604
128.900000 -2.102026 -2.101604
128.950000 -2.102028 -2.101604
129.000000 -2.102019 -2.101604
129.050000 -2.101999 -2.101604
129.100000 -2.101969 -2.101604
129.150000 -2.101929 -2.101604
129.200000 -2.101882 -2.101604
129.250000 -2.101827 -2.101604
129.300000 -2.101767 -2.101604
129.350000 -2.101704 -2.101604
129.400000 -2.101638 -2.101604
129.450000 -2.101571 -2.101604
129.500000 -2.101506 -2.101604
129.550000 -2.101444 -2.101604
129.600000 -2.101387 -2.101604
129.650000 -2.101335 -2.101604
129.700000 -2.101291 -2.101604
129.750000 -2.101256 -2.101604
129.800000 -2.101230 -2.101604
129.850000 -2.101213 -2.101604
129.900000 -2.101208 -2.101604
129.950000 -2.101212 -2.101604
130.000000 -2.101227 -2.101604
130.050000 -2.101251 -2.101604
130.100000 -2.101285 -2.101604
130.150000 -2.101326 -2.101604
130.200000 -2.101375 -2.101604
130.250000 -2.101429 -2.101604
130.300000 -2.101487 -2.101604
130.350000 -2.101548 -2.101604
130.400000 -2.101610 -2.101604
130.450000 -2.101672 -2.101604
130.500000 -2.101731 -2.101604
130.550000 -2.101787 -2.101604
130.600000 -2.101837 -2.101604
130.650000 -2.101881 -2.101604
130.700000 -2.101917 -2.101604
130.750000 -2.101945 -2.101604
130.800000 -2.101964 -2.101604
130.850000 -2.101973 -2.101604
130.900000 -2.101973 -2.101604
130.950000 -2.101963 -2.101604
131.000000 -2.101944 -2.101604
131.050000 -2.101915 -2.101604
131.100000 -2.101879 -2.101604
131.150000 -2.101836 -2.101604
131.200000 -2.101788 -2.101604
131.250000 -2.101735 -2.101604
131.300000 -2.101678 -2.101604
131.350000 -2.101621 -2.101604
131.400000 -2.101563 -2.101604
131.450000 -2.101506 -2.101604
131.500000 -2.101453 -2.101604
131.550000 -2.101404 -2.101604
131.600000 -2.101360 -2.101604
131.650000 -2.101324 -2.101604
131.700000 -2.101294 -2.101604
131.750000 -2.101273 -2.101604
131.800000 -2.101261 -2.101604
131.850000 -2.101258 -2.101604
131.900000 -2.101264 -2.101604
131.950000 -2.101279 -2.101604
132.000000 -2.101302 -2.101604
132.050000 -2.101333 -2.101604
132.100000 -2.101370 -2.101604
132.150000 -2.101414 -2.101604
132.200000 -2.101462 -2.101604
132.250000 -2.101514 -2.101604
132.300000 -2.101567 -2.101604
132.350000 -2.101622 -2.101604
132.400000 -2.101675 -2.101604
132.450000 -2.101726 -2.101604
132.500000 -2.101774 -2.101604
132.550000 -2.101816 -2.101604
132.600000 -2.101853 -2.101604
132.650000 -2.101884 -2.101604
132.700000 -2.101906 -2.101604
132.750000 -2.101921 -2.101604
132.800000 -2.101927 -2.101604
132.850000 -2.101925 -2.101604
132.900000 -2.101914 -2.101604
132.950000 -2.101896 -2.101604
133.000000 -2.101869 -2.101604
133.050000 -2.101837 -2.101604
133.100000 -2.101798 -2.101604
133.150000 -2.101754 -2.101604
133.200000 -2.101707 -2.101604
133.250000 -2.101658 -2.101604
133.300000 -2.101607 -2.101604
133.350000 -2.101557 -2.101604
133.400000 -2.101508 -2.101604
133.450000 -2.101462 -2.101604
133.500000 -2.101421 -2.101604
133.550000 -2.101384 -2.101604
133.600000 -2.101353 -2.101604
133.650000 -2.101329 -2.101604
133.700000 -2.101312 -2.101604
133.750000 -2.101303 -2.101604
133.800000 -2.101302 -2.101604
133.850000 -2.101309 -2.101604
133.900000 -2.101324 -2.101604
133.950000 -2.101346 -2.101604
134.000000 -2.101374 -2.101604
134.050000 -2.101408 -2.101604
134.100000 -2.101447 -2.101604
134.150000 -2.101490 -2.101604
134.200000 -2.101535 -2.101604
134.250000 -2.101582 -2.101604
134.300000 -2.101630 -2.101604
134.350000 -2.101676 -2.101604
134.400000 -2.101720 -2.101604
134.450000 -2.101761 -2.101604
134.500000 -2.101797 -2.101604
134.550000 -2.101828 -2.101604
134.600000 -2.101853 -2.101604
134.650000 -2.101871 -2.101604
134.700000 -2.101882 -2.101604
134.750000 -2.101886 -2.101604
134.800000 -2.101883 -2.101604
134.850000 -2.101872 -2.101604
134.900000 -2.101854 -2.101604
134.950000 -2.101830 -2.101604
135.000000 -2.101800 -2.101604
135.050000 -2.101765 -2.101604
135.100000 -2.101726 -2.101604
135.150000 -2.101685 -2.101604
135.200000 -2.101641 -2.101604
135.250000 -2.101597 -2.101604
135.300000 -2.101553 -2.101604
135.350000 -2.101511 -2.101604
135.400000 -2.101472 -2.101604
135.450000 -2.101436 -2.101604
135.500000 -2.101405 -2.101604
135.550000 -2.101380 -2.101604
135.600000 -2.101360 -2.101604
135.650000 -2.101347 -2.101604
135.700000 -2.101341 -2.101604
135.750000 -2.101341 -2.101604
135.800000 -2.101349 -2.101604
135.850000 -2.101363 -2.101604
135.900000 -2.101383 -2.101604
135.950000 -2.101409 -2.101604
136.000000 -2.101440 -2.101604
136.050000 -2.101475 -2.101604
136.100000 -2.101513 -2.101604
136.150000 -2.101553 -2.101604
136.200000 -2.101594 -2.101604
136.250000 -2.101635 -2.101604
136.300000 -2.101675 -2.101604
136.350000 -2.101713 -2.101604
136.400000 -2.101748 -2.101604
136.450000 -2.101779 -2.101604
136.500000 -2.101805 -2.101604
136.550000 -2.101825 -2.101604
136.600000 -2.101840 -2.101604
136.650000 -2.101848 -2.101604
136.700000 -2.101850 -2.101604
136.750000 -2.101846 -2.101604
136.800000 -2.101835 -2.101604
136.850000 -2.101818 -2.101604
136.900000 -2.101796 -2.101604
136.950000 -2.101769 -2.101604
137.000000 -2.101738 -2.101604
137.050000 -2.101703 -2.101604
137.100000 -2.101666 -2.101604
137.150000 -2.101628 -2.101604
137.200000 -2.101589 -2.101604
137.250000 -2.101552 -2.101604
137.300000 -2.101515 -2.101604
137.350000 -2.101482 -2.101604
137.400000 -2.101451 -2.101604
137.450000 -2.101425 -2.101604
137.500000 -2.101404 -2.101604
137.550000 -2.101388 -2.101604
137.600000 -2.101378 -2.101604
137.650000 -2.101374 -2.101604
137.700000 -2.101376 -2.101604
137.750000 -2.101384 -2.101604
137.800000 -2.101397 -2.101604
137.850000 -2.101416 -2.101604
137.900000 -2.101440 -2.101604
137.950000 -2.101467 -2.101604
138.000000 -2.101499 -2.101604
138.050000 -2.101532 -2.101604
138.100000 -2.101568 -2.101604
138.150000 -2.101604 -2.101604
138.200000 -2.101639 -2.101604
138.250000 -2.101674 -2.101604
138.300000 -2.101706 -2.101604
138.350000 -2.101736 -2.101604
138.400000 -2.101762 -2.101604
138.450000 -2.101784 -2.101604
138.500000 -2.101800 -2.101604
138.550000 -2.101812 -2.101604
138.600000 -2.101818 -2.101604
138.650000 -2.101819 -2.101604
138.700000 -2.101813 -2.101604
138.750000 -2.101803 -2.101604
138.800000 -2.101787 -2.101604
138.850000 -2.101767 -2.101604
138.900000 -2.101742 -2.101604
138.950000 -2.101714 -2.101604
139.000000 -2.101683 -2.101604
139.050000 -2.101651 -2.101604
139.100000 -2.101618 -2.101604
139.150000 -2.101584 -2.101604
139.200000 -2.101551 -2.101604
139.250000 -2.101520 -2.101604
139.300000 -2.101491 -2.101604
139.350000 -2.101465 -2.101604
139.400000 -2.101443 -2.101604
139.450000 -2.101426 -2.101604
139.500000 -2.101413 -2.101604
139.550000 -2.101405 -2.101604
139.600000 -2.101403 -2.101604
139.650000 -2.101406 -2.101604
139.700000 -2.101414 -2.101604
139.750000 -2.101427 -2.101604
139.800000 -2.101444 -2.101604
139.850000 -2.101466 -2.101604
139.900000 -2.101491 -2.101604
139.950000 -2.101518 -2.101604
140.000000 -2.101548 -2.101604
140.050000 -2.101579 -2.101604
140.100000 -2.101611 -2.101604
140.150000 -2.101642 -2.101604
140.200000 -2.101671 -2.101604
140.250000 -2.101699 -2.101604
140.300000 -2.101725 -2.101604
140.350000 -2.101746 -2.101604
140.400000 -2.101764 -2.101604
140.450000 -2.101778 -2.101604
140.500000 -2.101787 -2.101604
140.550000 -2.101791 -2.101604
140.600000 -2.101791 -2.101604
140.650000 -2.101785 -2.101604
140.700000 -2.101775 -2.101604
140.750000 -2.101760 -2.101604
140.800000 -2.101741 -2.101604
140.850000 -2.101719 -2.101604
140.900000 -2.101694 -2.101604
140.950000 -2.101667 -2.101604
141.000000 -2.101639 -2.101604
141.050000 -2.101609 -2.101604
141.100000 -2.101580 -2.101604
141.150000 -2.101552 -2.101604
141.200000 -2.101525 -2.101604
141.250000 -2.101500 -2.101604
141.300000 -2.101478 -2.101604
141.350000 -2.101460 -2.101604
141.400000 -2.101446 -2.101604
141.450000 -2.101436 -2.101604
141.500000 -2.101430 -2.101604
141.550000 -2.101429 -2.101604
141.600000 -2.101432 -2.101604
141.650000 -2.101440 -2.101604
141.700000 -2.101452 -2.101604
141.750000 -2.101468 -2.101604
141.800000 -2.101488 -2.101604
141.850000 -2.101510 -2.101604
141.900000 -2.101535 -2.101604
141.950000 -2.101561 -2.101604
142.000000 -2.101588 -2.101604
142.050000 -2.101616 -2.101604
142.100000 -2.101643 -2.101604
142.150000 -2.101668 -2.101604
142.200000 -2.101692 -2.101604
142.250000 -2.101714 -2.101604
142.300000 -2.101732 -2.101604
142.350000 -2.101747 -2.101604
142.400000 -2.101758 -2.101604
142.450000 -2.101765 -2.101604
142.500000 -2.101768 -2.101604
142.550000 -2.101766 -2.101604
142.600000 -2.101760 -2.101604
142.650000 -2.101751 -2.101604
142.700000 -2.101737 -2.101604
142.750000 -2.101720 -2.101604
142.800000 -2.101700 -2.101604
142.850000 -2.101678 -2.101604
142.900000 -2.101654 -2.101604
142.950000 -2.101629 -2.101604
143.000000 -2.101603 -2.101604
143.050000 -2.101578 -2.101604
143.100000 -2.101553 -2.101604
143.150000 -2.101530 -2.101604
143.200000 -2.101509 -2.101604
143.250000 -2.101491 -2.101604
143.300000 -2.101475 -2.101604
143.350000 -2.101464 -2.101604
143.400000 -2.101455 -2.101604
143.450000 -2.101451 -2.101604
143.500000 -2.101451 -2.101604
143.550000 -2.101455 -2.101604
143.600000 -2.101463 -2.101604
143.650000 -2.101474 -2.101604
143.700000 -2.101489 -2.101604
143.750000 -2.101507 -2.101604
143.800000 -2.101527 -2.101604
143.850000 -2.101549 -2.101604
143.900000 -2.101572 -2.101604
143.950000 -2.101596 -2.101604
144.000000 -2.101619 -2.101604
144.050000 -2.101643 -2.101604
144.100000 -2.101665 -2.101604
144.150000 -2.101685 -2.101604
144.200000 -2.101704 -2.101604
144.250000 -2.101719 -2.101604
144.300000 -2.101731 -2.101604
144.350000 -2.101740 -2.101604
144.400000 -2.101745 -2.101604
144.450000 -2.101747 -2.101604
144.500000 -2.101745 -2.101604
144.550000 -2.101739 -2.101604
144.600000 -2.101730 -2.101604
144.650000 -2.101717 -2.101604
144.700000 -2.101702 -2.101604
144.750000 -2.101684 -2.101604
144.800000 -2.101664 -2.101604
144.850000 -2.101643 -2.101604
144.900000 -2.101621 -2.101604
144.950000 -2.101598 -2.101604
145.000000 -2.101576 -2.101604
145.050000 -2.101555 -2.101604
145.100000 -2.101535 -2.101604
145.150000 -2.101517 -2.101604
145.200000 -2.101502 -2.101604
145.250000 -2.101489 -2.101604
145.300000 -2.101480 -2.101604
145.350000 -2.101473 -2.101604
145.400000 -2.101470 -2.101604
145.450000 -2.101471 -2.101604
145.500000 -2.101475 -2.101604
145.550000 -2.101483 -2.101604
145.600000 -2.101493 -2.101604
145.650000 -2.101507 -2.101604
145.700000 -2.101523 -2.101604
145.750000 -2.101541 -2.101604
145.800000 -2.101560 -2.101604
145.850000 -2.101580 -2.101604
145.900000 -2.101601 -2.101604
145.950000 -2.101622 -2.101604
146.000000 -2.101642 -2.101604
146.050000 -2.101661 -2.101604
146.100000 -2.101679 -2.101604
146.150000 -2.101694 -2.101604
146.200000 -2.101707 -2.101604
146.250000 -2.101717 -2.101604
146.300000 -2.101724 -2.101604
146.350000 -2.101728 -2.101604
146.400000 -2.101729 -2.101604
146.450000 -2.101726 -2.101604
146.500000 -2.101720 -2.101604
146.550000 -2.101711 -2.101604
146.600000 -2.101700 -2.101604
146.650000 -2.101686 -2.101604
146.700000 -2.101670 -2.101604
146.750000 -2.101652 -2.101604
146.800000 -2.101634 -2.101604
146.850000 -2.101614 -2.101604
146.900000 -2.101595 -2.101604
146.950000 -2.101575 -2.101604
147.000000 -2.101557 -2.101604
147.050000 -2.101540 -2.101604
147.100000 -2.101525 -2.101604
147.150000 -2.101512 -2.101604
147.200000 -2.101502 -2.101604
147.250000 -2.101494 -2.101604
147.300000 -2.101489 -2.101604
147.350000 -2.101487 -2.101604
147.400000 -2.101489 -2.101604
147.450000 -2.101493 -2.101604
147.500000 -2.101500 -2.101604
147.550000 -2.101510 -2.101604
147.600000 -2.101522 -2.101604
147.650000 -2.101536 -2.101604
147.700000 -2.101552 -2.101604
147.750000 -2.101569 -2.101604
147.800000 -2.101587 -2.101604
147.850000 -2.101606 -2.101604
147.900000 -2.101624 -2.101604
147.950000 -2.101641 -2.101604
148.000000 -2.101658 -2.101604
148.050000 -2.101672 -2.101604
148.100000 -2.101685 -2.101604
148.150000 -2.101696 -2.101604
148.200000 -2.101704 -2.101604
148.250000 -2.101710 -2.101604
148.300000 -2.101713 -2.101604
148.350000 -2.101713 -2.101604
148.400000 -2.101710 -2.101604
148.450000 -2.101704 -2.101604
148.500000 -2.101696 -2.101604
148.550000 -2.101685 -2.101604
148.600000 -2.101673 -2.101604
148.650000 -2.101658 -2.101604
148.700000 -2.101643 -2.101604
148.750000 -2.101626 -2.101604
148.800000 -2.101609 -2.101604
148.850000 -2.101592 -2.101604
148.900000 -2.101575 -2.101604
148.950000 -2.101560 -2.101604
149.000000 -2.101545 -2.101604
149.050000 -2.101532 -2.101604
149.100000 -2.101522 -2.101604
149.150000 -2.101513 -2.101604
149.200000 -2.101507 -2.101604
149.250000 -2.101503 -2.101604
149.300000 -2.101502 -2.101604
149.350000 -2.101504 -2.101604
149.400000 -2.101508 -2.101604
149.450000 -2.101515 -2.101604
149.500000 -2.101524 -2.101604
149.550000 -2.101535 -2.101604
149.600000 -2.101548 -2.101604
149.650000 -2.101562 -2.101604
149.700000 -2.101577 -2.101604
149.750000 -2.101593 -2.101604
149.800000 -2.101609 -2.101604
149.850000 -2.101625 -2.101604
149.900000 -2.101640 -2.101604
149.950000 -2.101654 -2.101604
150.000000 -2.101666 -2.101604
150.050000 -2.101677 -2.101604
150.100000 -2.101686 -2.101604
150.150000 -2.101693 -2.101604
150.200000 -2.101697 -2.101604
150.250000 -2.101699 -2.101604
150.300000 -2.101698 -2.101604
150.350000 -2.101695 -2.101604
150.400000 -2.101690 -2.101604
150.450000 -2.101682 -2.101604
150.500000 -2.101673 -2.101604
150.550000 -2.101661 -2.101604
150.600000 -2.101648 -2.101604
150.650000 -2.101635 -2.101604
150.700000 -2.101620 -2.101604
150.750000 -2.101605 -2.101604
150.800000 -2.101590 -2.101604
150.850000 -2.101576 -2.101604
150.900000 -2.101562 -2.101604
150.950000 -2.101550 -2.101604
151.000000 -2.101539 -2.101604
151.050000 -2.101530 -2.101604
151.100000 -2.101523 -2.101604
151.150000 -2.101518 -2.101604
151.200000 -2.101516 -2.101604
151.250000 -2.101515 -2.101604
151.300000 -2.101517 -2.101604
151.350000 -2.101521 -2.101604
151.400000 -2.101528 -2.101604
151.450000 -2.101536 -2.101604
151.500000 -2.101546 -2.101604
151.550000 -2.101558 -2.101604
151.600000 -2.101570 -2.101604
151.650000 -2.101584 -2.101604
151.700000 -2.101597 -2.101604
151.750000 -2.101611 -2.101604
151.800000 -2.101625 -2.101604
151.850000 -2.101638 -2.101604
151.900000 -2.101650 -2.101604
151.950000 -2.101661 -2.101604
152.000000 -2.101670 -2.101604
152.050000 -2.101677 -2.101604
152.100000 -2.101683 -2.101604
152.150000 -2.101686 -2.101604
152.200000 -2.101687 -2.101604
152.250000 -2.101686 -2.101604
152.300000 -2.101683 -2.101604
152.350000 -2.101678 -2.101604
152.400000 -2.101671 -2.101604
152.450000 -2.101662 -2.101604
152.500000 -2.101652 -2.101604
152.550000 -2.101640 -2.101604
152.600000 -2.101628 -2.101604
152.650000 -2.101615 -2.101604
152.700000 -2.101602 -2.101604
152.750000 -2.101589 -2.101604
152.800000 -2.101577 -2.101604
152.850000 -2.101565 -2.101604
152.900000 -2.101555 -2.101604
152.950000 -2.101546 -2.101604
153.000000 -2.101538 -2.101604
153.050000 -2.101532 -2.101604
153.100000 -2.101528 -2.101604
153.150000 -2.101527 -2.101604
153.200000 -2.101527 -2.101604
153.250000 -2.101529 -2.101604
153.300000 -2.101533 -2.101604
153.350000 -2.101539 -2.101604
153.400000 -2.101547 -2.101604
153.450000 -2.101556 -2.101604
153.500000 -2.101566 -2.101604
153.550000 -2.101577 -2.101604
153.600000 -2.101589 -2.101604
153.650000 -2.101601 -2.101604
153.700000 -2.101613 -2.101604
153.750000 -2.101625 -2.101604
153.800000 -2.101636 -2.101604
153.850000 -2.101646 -2.101604
153.900000 -2.101655 -2.101604
153.950000 -2.101663 -2.101604
154.000000 -2.101669 -2.101604
154.050000 -2.101673 -2.101604
154.100000 -2.101676 -2.101604
154.150000 -2.101676 -2.101604
154.200000 -2.101675 -2.101604
154.250000 -2.101672 -2.101604
154.300000 -2.101667 -2.101604
154.350000 -2.101661 -2.101604
154.400000 -2.101653 -2.101604
154.450000 -2.101643 -2.101604
154.500000 -2.101633 -2.101604
154.550000 -2.101622 -2.101604
154.600000 -2.101611 -2.101604
154.650000 -2.101600 -2.101604
154.700000 -2.101589 -2.101604
154.750000 -2.101578 -2.101604
154.800000 -2.101568 -2.101604
154.850000 -2.101559 -2.101604
154.900000 -2.101551 -2.101604
154.950000 -2.101545 -2.101604
155.000000 -2.101540 -2.101604
155.050000 -2.101537 -2.101604
155.100000 -2.101536 -2.101604
155.150000 -2.101537 -2.101604
155.200000 -2.101539 -2.101604
155.250000 -2.101543 -2.101604
155.300000 -2.101549 -2.101604
155.350000 -2.101556 -2.101604
155.400000 -2.101564 -2.101604
155.450000 -2.101573 -2.101604
155.500000 -2.101583 -2.101604
155.550000 -2.101593 -2.101604
155.600000 -2.101604 -2.101604
155.650000 -2.101614 -2.101604
155.700000 -2.101624 -2.101604
155.750000 -2.101634 -2.101604
155.800000 -2.101643 -2.101604
155.850000 -2.101650 -2.101604
155.900000 -2.101657 -2.101604
155.950000 -2.101662 -2.101604
156.000000 -2.101665 -2.101604
156.050000 -2.101667 -2.101604
156.100000 -2.101667 -2.101604
156.150000 -2.101666 -2.101604
156.200000 -2.101663 -2.101604
156.250000 -2.101658 -2.101604
156.300000 -2.101652 -2.101604
156.350000 -2.101645 -2.101604
156.400000 -2.101636 -2.101604
156.450000 -2.101627 -2.101604
156.500000 -2.101618 -2.101604
156.550000 -2.101608 -2.101604
156.600000 -2.101598 -2.101604
156.650000 -2.101589 -2.101604
156.700000 -2.101579 -2.101604
156.750000 -2.101571 -2.101604
156.800000 -2.101563 -2.101604
156.850000 -2.101557 -2.101604
156.900000 -2.101552 -2.101604
156.950000 -2.101548 -2.101604
157.000000 -2.101546 -2.101604
157.050000 -2.101545 -2.101604
157.100000 -2.101546 -2.101604
157.150000 -2.101548 -2.101604
157.200000 -2.101552 -2.101604
157.250000 -2.101557 -2.101604
157.300000 -2.101563 -2.101604
157.350000 -2.101570 -2.101604
157.400000 -2.101579 -2.101604
157.450000 -2.101587 -2.101604
157.500000 -2.101597 -2.101604
157.550000 -2.101606 -2.101604
157.600000 -2.101615 -2.101604
157.650000 -2.101624 -2.101604
157.700000 -2.101632 -2.101604
157.750000 -2.101639 -2.101604
157.800000 -2.101646 -2.101604
157.850000 -2.101651 -2.101604
157.900000 -2.101655 -2.101604
157.950000 -2.101658 -2.101604
158.000000 -2.101659 -2.101604
158.050000 -2.101659 -2.101604
158.100000 -2.101657 -2.101604
158.150000 -2.101654 -2.101604
158.200000 -2.101650 -2.101604
158.250000 -2.101645 -2.101604
158.300000 -2.101638 -2.101604
158.350000 -2.101631 -2.101604
158.400000 -2.101623 -2.101604
158.450000 -2.101614 -2.101604
158.500000 -2.101606 -2.101604
158.550000 -2.101597 -2.101604
158.600000 -2.101589 -2.101604
158.650000 -2.101581 -2.101604
158.700000 -2.101573 -2.101604
158.750000 -2.101567 -2.101604
158.800000 -2.101562 -2.101604
158.850000 -2.101557 -2.101604
158.900000 -2.101554 -2.101604
158.950000 -2.101553 -2.101604
159.000000 -2.101552 -2.101604
159.050000 -2.101553 -2.101604
159.100000 -2.101556 -2.101604
159.150000 -2.101559 -2.101604
159.200000 -2.101564 -2.101604
159.250000 -2.101570 -2.101604
159.300000 -2.101576 -2.101604
159.350000 -2.101584 -2.101604
159.400000 -2.101591 -2.101604
159.450000 -2.101599 -2.101604
159.500000 -2.101607 -2.101604
159.550000 -2.101615 -2.101604
159.600000 -2.101623 -2.101604
159.650000 -2.101630 -2.101604
159.700000 -2.101636 -2.101604
159.750000 -2.101642 -2.101604
159.800000 -2.101646 -2.101604
159.850000 -2.101649 -2.101604
159.900000 -2.101651 -2.101604
159.950000 -2.101652 -2.101604
160.000000 -2.101652 -2.101604
160.050000 -2.101650 -2.101604
160.100000 -2.101647 -2.101604
160.150000 -2.101643 -2.101604
160.200000 -2.101638 -2.101604
160.250000 -2.101632 -2.101604
160.300000 -2.101626 -2.101604
160.350000 -2.101619 -2.101604
160.400000 -2.101611 -2.101604
160.450000 -2.101604 -2.101604
160.500000 -2.101596 -2.101604
160.550000 -2.101589 -2.101604
160.600000 -2.101582 -2.101604
160.650000 -2.101576 -2.101604
160.700000 -2.101571 -2.101604
160.750000 -2.101566 -2.101604
160.800000 -2.101563 -2.101604
160.850000 -2.101560 -2.101604
160.900000 -2.101559 -2.101604
160.950000 -2.101559 -2.101604
161.000000 -2.101560 -2.101604
161.050000 -2.101562 -2.101604
161.100000 -2.101566 -2.101604
161.150000 -2.101570 -2.101604
161.200000 -2.101575 -2.101604
161.250000 -2.101581 -2.101604
161.300000 -2.101588 -2.101604
161.350000 -2.101594 -2.101604
161.400000 -2.101601 -2.101604
161.450000 -2.101608 -2.101604
161.500000 -2.101615 -2.101604
161.550000 -2.101622 -2.101604
161.600000 -2.101628 -2.101604
161.650000 -2.101633 -2.101604
161.700000 -2.101638 -2.101604
161.750000 -2.101641 -2.101604
161.800000 -2.101644 -2.101604
161.850000 -2.101646 -2.101604
161.900000 -2.101646 -2.101604
161.950000 -2.101645 -2.101604
162.000000 -2.101644 -2.101604
162.050000 -2.101641 -2.101604
162.100000 -2.101637 -2.101604
162.150000 -2.101633 -2.101604
162.200000 -2.101628 -2.101604
162.250000 -2.101622 -2.101604
162.300000 -2.101615 -2.101604
162.350000 -2.101609 -2.101604
162.400000 -2.101602 -2.101604
162.450000 -2.101596 -2.101604
162.500000 -2.101590 -2.101604
162.550000 -2.101584 -2.101604
162.600000 -2.101579 -2.101604
162.650000 -2.101574 -2.101604
162.700000 -2.101570 -2.101604
162.750000 -2.101567 -2.101604
162.800000 -2.101566 -2.101604
162.850000 -2.101565 -2.101604
162.900000 -2.101565 -2.101604
162.950000 -2.101566 -2.101604
163.000000 -2.101568 -2.101604
163.050000 -2.101571 -2.101604
163.100000 -2.101575 -2.101604
163.150000 -2.101580 -2.101604
163.200000 -2.101585 -2.101604
163.250000 -2.101591 -2.101604
163.300000 -2.101597 -2.101604
163.350000 -2.101603 -2.101604
163.400000 -2.101609 -2.101604
163.450000 -2.101615 -2.101604
163.500000 -2.101621 -2.101604
163.550000 -2.101626 -2.101604
163.600000 -2.101630 -2.101604
163.650000 -2.101634 -2.101604
163.700000 -2.101637 -2.101604
163.750000 -2.101639 -2.101604
163.800000 -2.101640 -2.101604
163.850000 -2.101641 -2.101604
163.900000 -2.101640 -2.101604
163.950000 -2.101638 -2.101604
164.000000 -2.101636 -2.101604
164.050000 -2.101632 -2.101604
164.100000 -2.101628 -2.101604
164.150000 -2.101623 -2.101604
164.200000 -2.101618 -2.101604
164.250000 -2.101613 -2.101604
164.300000 -2.101607 -2.101604
164.350000 -2.101601 -2.101604
164.400000 -2.101596 -2.101604
164.450000 -2.101590 -2.101604
164.500000 -2.101585 -2.101604
164.550000 -2.101581 -2.101604
164.600000 -2.101577 -2.101604
164.650000 -2.101574 -2.101604
164.700000 -2.101572 -2.101604
164.750000 -2.101570 -2.101604
164.800000 -2.101570 -2.101604
164.850000 -2.101570 -2.101604
164.900000 -2.101571 -2.101604
164.950000 -2.101573 -2.101604
165.000000 -2.101576 -2.101604
165.050000 -2.101580 -2.101604
165.100000 -2.101584 -2.101604
165.150000 -2.101589 -2.101604
165.200000 -2.101594 -2.101604
165.250000 -2.101599 -2.101604
165.300000 -2.101604 -2.101604
165.350000 -2.101610 -2.101604
165.400000 -2.101615 -2.101604
165.450000 -2.101620 -2.101604
165.500000 -2.101624 -2.101604
165.550000 -2.101628 -2.101604
165.600000 -2.101631 -2.101604
165.650000 -2.101633 -2.101604
165.700000 -2.101635 -2.101604
165.750000 -2.101636 -2.101604
165.800000 -2.101636 -2.101604
165.850000 -2.101635 -2.101604
165.900000 -2.101633 -2.101604
165.950000 -2.101631 -2.101604
166.000000 -2.101628 -2.101604
166.050000 -2.101624 -2.101604
166.100000 -2.101620 -2.101604
166.150000 -2.101615 -2.101604
166.200000 -2.101611 -2.101604
166.250000 -2.101606 -2.101604
166.300000 -2.101601 -2.101604
166.350000 -2.101596 -2.101604
166.400000 -2.101591 -2.101604
166.450000 -2.101587 -2.101604
166.500000 -2.101583 -2.101604
166.550000 -2.101580 -2.101604
166.600000 -2.101577 -2.101604
166.650000 -2.101575 -2.101604
166.700000 -2.101574 -2.101604
166.750000 -2.101574 -2.101604
166.800000 -2.101574 -2.101604
166.850000 -2.101576 -2.101604
166.900000 -2.101578 -2.101604
166.950000 -2.101580 -2.101604
167.000000 -2.101584 -2.101604
167.050000 -2.101587 -2.101604
167.100000 -2.101592 -2.101604
167.150000 -2.101596 -2.101604
167.200000 -2.101601 -2.101604
167.250000 -2.101605 -2.101604
167.300000 -2.101610 -2.101604
167.350000 -2.101614 -2.101604
167.400000 -2.101619 -2.101604
167.450000 -2.101622 -2.101604
167.500000 -2.101625 -2.101604
167.550000 -2.101628 -2.101604
167.600000 -2.101630 -2.101604
167.650000 -2.101631 -2.101604
167.700000 -2.101632 -2.101604
167.750000 -2.101632 -2.101604
167.800000 -2.101631 -2.101604
167.850000 -2.101629 -2.101604
167.900000 -2.101627 -2.101604
167.950000 -2.101624 -2.101604
168.000000 -2.101621 -2.101604
168.050000 -2.101617 -2.101604
168.100000 -2.101613 -2.101604
168.150000 -2.101609 -2.101604
168.200000 -2.101604 -2.101604
168.250000 -2.101600 -2.101604
168.300000 -2.101596 -2.101604
168.350000 -2.101592 -2.101604
168.400000 -2.101588 -2.101604
168.450000 -2.101585 -2.101604
168.500000 -2.101582 -2.101604
168.550000 -2.101580 -2.101604
168.600000 -2.101579 -2.101604
168.650000 -2.101578 -2.101604
168.700000 -2.101578 -2.101604
168.750000 -2.101578 -2.101604
168.800000 -2.101580 -2.101604
168.850000 -2.101582 -2.101604
168.900000 -2.101584 -2.101604
168.950000 -2.101587 -2.101604
169.000000 -2.101590 -2.101604
169.050000 -2.101594 -2.101604
169.100000 -2.101598 -2.101604
169.150000 -2.101602 -2.101604
169.200000 -2.101606 -2.101604
169.250000 -2.101610 -2.101604
169.300000 -2.101614 -2.101604
169.350000 -2.101617 -2.101604
169.400000 -2.101621 -2.101604
169.450000 -2.101623 -2.101604
169.500000 -2.101625 -2.101604
169.550000 -2.101627 -2.101604
169.600000 -2.101628 -2.101604
169.650000 -2.101628 -2.101604
169.700000 -2.101628 -2.101604
169.750000 -2.101627 -2.101604
169.800000 -2.101626 -2.101604
169.850000 -2.101624 -2.101604
169.900000 -2.101621 -2.101604
169.950000 -2.101618 -2.101604
170.000000 -2.101615 -2.101604
170.050000 -2.101611 -2.101604
170.100000 -2.101607 -2.101604
170.150000 -2.101603 -2.101604
170.200000 -2.101600 -2.101604
170.250000 -2.101596 -2.101604
170.300000 -2.101593 -2.101604
170.350000 -2.101590 -2.101604
170.400000 -2.101587 -2.101604
170.450000 -2.101585 -2.101604
170.500000 -2.101583 -2.101604
170.550000 -2.101582 -2.101604
170.600000 -2.101581 -2.101604
170.650000 -2.101581 -2.101604
170.700000 -2.101582 -2.101604
170.750000 -2.101583 -2.101604
170.800000 -2.101585 -2.101604
170.850000 -2.101587 -2.101604
170.900000 -2.101590 -2.101604
170.950000 -2.101593 -2.101604
171.000000 -2.101596 -2.101604
171.050000 -2.101599 -2.101604
171.100000 -2.101603 -2.101604
171.150000 -2.101607 -2.101604
171.200000 -2.101610 -2.101604
171.250000 -2.101613 -2.101604
171.300000 -2.101616 -2.101604
171.350000 -2.101619 -2.101604
171.400000 -2.101621 -2.101604
171.450000 -2.101623 -2.101604
171.500000 -2.101624 -2.101604
171.550000 -2.101625 -2.101604
171.600000 -2.101625 -2.101604
171.650000 -2.101625 -2.101604
171.700000 -2.101624 -2.101604
171.750000 -2.101623 -2.101604
171.800000 -2.101621 -2.101604
171.850000 -2.101618 -2.101604
171.900000 -2.101616 -2.101604
171.950000 -2.101613 -2.101604
172.000000 -2.101609 -2.101604
172.050000 -2.101606 -2.101604
172.100000 -2.101603 -2.101604
172.150000 -2.101600 -2.101604
172.200000 -2.101596 -2.101604
172.250000 -2.101593 -2.101604
172.300000 -2.101591 -2.101604
172.350000 -2.101589 -2.101604
172.400000 -2.101587 -2.101604
172.450000 -2.101585 -2.101604
172.500000 -2.101584 -2.101604
172.550000 -2.101584 -2.101604
172.600000 -2.101584 -2.101604
172.650000 -2.101585 -2.101604
172.700000 -2.101586 -2.101604
172.750000 -2.101588 -2.101604
172.800000 -2.101590 -2.101604
172.850000 -2.101592 -2.101604
172.900000 -2.101595 -2.101604
172.950000 -2.101598 -2.101604
173.000000 -2.101601 -2.101604
173.050000 -2.101604 -2.101604
173.100000 -2.101607 -2.101604
173.150000 -2.101610 -2.101604
173.200000 -2.101613 -2.101604
173.250000 -2.101615 -2.101604
173.300000 -2.101618 -2.101604
173.350000 -2.101619 -2.101604
173.400000 -2.101621 -2.101604
173.450000 -2.101622 -2.101604
173.500000 -2.101623 -2.101604
173.550000 -2.101623 -2.101604
173.600000 -2.101622 -2.101604
173.650000 -2.101621 -2.101604
173.700000 -2.101620 -2.101604
173.750000 -2.101618 -2.101604
173.800000 -2.101616 -2.101604
173.850000 -2.101614 -2.101604
173.900000 -2.101611 -2.101604
173.950000 -2.101608 -2.101604
174.000000 -2.101605 -2.101604
174.050000 -2.101602 -2.101604
174.100000 -2.101599 -2.101604
174.150000 -2.101597 -2.101604
174.200000 -2.101594 -2.101604
174.250000 -2.101592 -2.101604
174.300000 -2.101590 -2.101604
174.350000 -2.101589 -2.101604
174.400000 -2.101587 -2.101604
174.450000 -2.101587 -2.101604
174.500000 -2.101587 -2.101604
174.550000 -2.101587 -2.101604
174.600000 -2.101587 -2.101604
174.650000 -2.101589 -2.101604
174.700000 -2.101590 -2.101604
174.750000 -2.101592 -2.101604
174.800000 -2.101594 -2.101604
174.850000 -2.101596 -2.101604
174.900000 -2.101599 -2.101604
174.950000 -2.101602 -2.101604
175.000000 -2.101604 -2.101604
175.050000 -2.101607 -2.101604
175.100000 -2.101610 -2.101604
175.150000 -2.101612 -2.101604
175.200000 -2.101614 -2.101604
175.250000 -2.101616 -2.101604
175.300000 -2.101618 -2.101604
175.350000 -2.101619 -2.101604
175.400000 -2.101620 -2.101604
175.450000 -2.101620 -2.101604
175.500000 -2.101620 -2.101604
175.550000 -2.101620 -2.101604
175.600000 -2.101619 -2.101604
175.650000 -2.101618 -2.101604
175.700000 -2.101616 -2.101604
175.750000 -2.101614 -2.101604
175.800000 -2.101612 -2.101604
175.850000 -2.101610 -2.101604
175.900000 -2.101607 -2.101604
175.950000 -2.101604 -2.101604
176.000000 -2.101602 -2.101604
176.050000 -2.101599 -2.101604
176.100000 -2.101597 -2.101604
176.150000 -2.101595 -2.101604
176.200000 -2.101593 -2.101604
176.250000 -2.101592 -2.101604
176.300000 -2.101590 -2.101604
176.350000 -2.101589 -2.101604
176.400000 -2.101589 -2.101604
176.450000 -2.101589 -2.101604
176.500000 -2.101589 -2.101604
176.550000 -2.101590 -2.101604
176.600000 -2.101591 -2.101604
176.650000 -2.101592 -2.101604
176.700000 -2.101594 -2.101604
176.750000 -2.101596 -2.101604
176.800000 -2.101598 -2.101604
176.850000 -2.101600 -2.101604
176.900000 -2.101603 -2.101604
176.950000 -2.101605 -2.101604
177.000000 -2.101607 -2.101604
177.050000 -2.101609 -2.101604
177.100000 -2.101612 -2.101604
177.150000 -2.101613 -2.101604
177.200000 -2.101615 -2.101604
177.250000 -2.101616 -2.101604
177.300000 -2.101617 -2.101604
177.350000 -2.101618 -2.101604
177.400000 -2.101618 -2.101604
177.450000 -2.101618 -2.101604
177.500000 -2.101618 -2.101604
177.550000 -2.101617 -2.101604
177.600000 -2.101616 -2.101604
177.650000 -2.101614 -2.101604
177.700000 -2.101612 -2.101604
177.750000 -2.101610 -2.101604
177.800000 -2.101608 -2.101604
177.850000 -2.101606 -2.101604
177.900000 -2.101604 -2.101604
177.950000 -2.101602 -2.101604
178.000000 -2.101600 -2.101604
178.050000 -2.101598 -2.101604
178.100000 -2.101596 -2.101604
178.150000 -2.101594 -2.101604
178.200000 -2.101593 -2.101604
178.250000 -2.101592 -2.101604
178.300000 -2.101591 -2.101604
178.350000 -2.101591 -2.101604
178.400000 -2.101591 -2.101604
178.450000 -2.101591 -2.101604
178.500000 -2.101592 -2.101604
178.550000 -2.101593 -2.101604
178.600000 -2.101594 -2.101604
178.650000 -2.101595 -2.101604
178.700000 -2.101597 -2.101604
178.750000 -2.101599 -2.101604
178.800000 -2.101601 -2.101604
178.850000 -2.101603 -2.101604
178.900000 -2.101605 -2.101604
178.950000 -2.101607 -2.101604
179.000000 -2.101609 -2.101604
179.050000 -2.101611 -2.101604
179.100000 -2.101613 -2.101604
179.150000 -2.101614 -2.101604
179.200000 -2.101615 -2.101604
179.250000 -2.101616 -2.101604
179.300000 -2.101616 -2.101604
179.350000 -2.101616 -2.101604
179.400000 -2.101616 -2.101604
179.450000 -2.101616 -2.101604
179.500000 -2.101615 -2.101604
179.550000 -2.101614 -2.101604
179.600000 -2.101612 -2.101604
179.650000 -2.101611 -2.101604
179.700000 -2.101609 -2.101604
179.750000 -2.101607 -2.101604
179.800000 -2.101605 -2.101604
179.850000 -2.101604 -2.101604
179.900000 -2.101602 -2.101604
179.950000 -2.101600 -2.101604
180.000000 -2.101598 -2.101604
180.050000 -2.101596 -2.101604
180.100000 -2.101595 -2.101604
180.150000 -2.101594 -2.101604
180.200000 -2.101593 -2.101604
180.250000 -2.101593 -2.101604
180.300000 -2.101592 -2.101604
180.350000 -2.101592 -2.101604
180.400000 -2.101593 -2.101604
180.450000 -2.101593 -2.101604
180.500000 -2.101594 -2.101604
180.550000 -2.101596 -2.101604
180.600000 -2.101597 -2.101604
180.650000 -2.101598 -2.101604
180.700000 -2.101600 -2.101604
180.750000 -2.101602 -2.101604
180.800000 -2.101604 -2.101604
180.850000 -2.101605 -2.101604
180.900000 -2.101607 -2.101604
180.950000 -2.101609 -2.101604
181.000000 -2.101610 -2.101604
181.050000 -2.101612 -2.101604
181.100000 -2.101613 -2.101604
181.150000 -2.101614 -2.101604
181.200000 -2.101614 -2.101604
181.250000 -2.101615 -2.101604
181.300000 -2.101615 -2.101604
181.350000 -2.101615 -2.101604
181.400000 -2.101614 -2.101604
181.450000 -2.101613 -2.101604
181.500000 -2.101612 -2.101604
181.550000 -2.101611 -2.101604
181.600000 -2.101610 -2.101604
181.650000 -2.101608 -2.101604
181.700000 -2.101607 -2.101604
181.750000 -2.101605 -2.101604
181.800000 -2.101603 -2.101604
181.850000 -2.101602 -2.101604
181.900000 -2.101600 -2.101604
181.950000 -2.101598 -2.101604
182.000000 -2.101597 -2.101604
182.050000 -2.101596 -2.101604
182.100000 -2.101595 -2.101604
182.150000 -2.101594 -2.101604
182.200000 -2.101594 -2.101604
182.250000 -2.101594 -2.101604
182.300000 -2.101594 -2.101604
182.350000 -2.101594 -2.101604
182.400000 -2.101595 -2.101604
182.450000 -2.101596 -2.101604
182.500000 -2.101597 -2.101604
182.550000 -2.101598 -2.101604
182.600000 -2.101599 -2.101604
182.650000 -2.101601 -2.101604
182.700000 -2.101602 -2.101604
182.750000 -2.101604 -2.101604
182.800000 -2.101606 -2.101604
182.850000 -2.101607 -2.101604
182.900000 -2.101609 -2.101604
182.950000 -2.101610 -2.101604
183.000000 -2.101611 -2.101604
183.050000 -2.101612 -2.101604
183.100000 -2.101613 -2.101604
183.150000 -2.101613 -2.101604
183.200000 -2.101613 -2.101604
183.250000 -2.101613 -2.101604
183.300000 -2.101613 -2.101604
183.350000 -2.101613 -2.101604
183.400000 -2.101612 -2.101604
183.450000 -2.101611 -2.101604
183.500000 -2.101610 -2.101604
183.550000 -2.101609 -2.101604
183.600000 -2.101607 -2.101604
183.650000 -2.101606 -2.101604
183.700000 -2.101604 -2.101604
183.750000 -2.101603 -2.101604
183.800000 -2.101602 -2.101604
183.850000 -2.101600 -2.101604
183.900000 -2.101599 -2.101604
183.950000 -2.101598 -2.101604
184.000000 -2.101597 -2.101604
184.050000 -2.101596 -2.101604
184.100000 -2.101596 -2.101604
184.150000 -2.101595 -2.101604
184.200000 -2.101595 -2.101604
184.250000 -2.101595 -2.101604
184.300000 -2.101596 -2.101604
184.350000 -2.101596 -2.101604
184.400000 -2.101597 -2.101604
184.450000 -2.101598 -2.101604
184.500000 -2.101599 -2.101604
184.550000 -2.101600 -2.101604
184.600000 -2.101602 -2.101604
184.650000 -2.101603 -2.101604
184.700000 -2.101604 -2.101604
184.750000 -2.101606 -2.101604
184.800000 -2.101607 -2.101604
184.850000 -2.101608 -2.101604
184.900000 -2.101609 -2.101604
184.950000 -2.101610 -2.101604
185.000000 -2.101611 -2.101604
185.050000 -2.101612 -2.101604
185.100000 -2.101612 -2.101604
185.150000 -2.101612 -2.101604
185.200000 -2.101612 -2.101604
185.250000 -2.101612 -2.101604
185.300000 -2.101611 -2.101604
185.350000 -2.101611 -2.101604
185.400000 -2.101610 -2.101604
185.450000 -2.101609 -2.101604
185.500000 -2.101608 -2.101604
185.550000 -2.101607 -2.101604
185.600000 -2.101605 -2.101604
185.650000 -2.101604 -2.101604
185.700000 -2.101603 -2.101604
185.750000 -2.101602 -2.101604
185.800000 -2.101600 -2.101604
185.850000 -2.101599 -2.101604
185.900000 -2.101598 -2.101604
185.950000 -2.101598 -2.101604
186.000000 -2.101597 -2.101604
186.050000 -2.101597 -2.101604
186.100000 -2.101596 -2.101604
186.150000 -2.101596 -2.101604
186.200000 -2.101596 -2.101604
186.250000 -2.101597 -2.101604
186.300000 -2.101597 -2.101604
186.350000 -2.101598 -2.101604
186.400000 -2.101599 -2.101604
186.450000 -2.101600 -2.101604
186.500000 -2.101601 -2.101604
186.550000 -2.101602 -2.101604
186.600000 -2.101603 -2.101604
186.650000 -2.101605 -2.101604
186.700000 -2.101606 -2.101604
186.750000 -2.101607 -2.101604
186.800000 -2.101608 -2.101604
186.850000 -2.101609 -2.101604
186.900000 -2.101610 -2.101604
186.950000 -2.101610 -2.101604
