time[ns] Raw_signal[mV]
-11.100000 -0.136761
-11.050000 -0.184724
-11.000000 -0.270371
-10.950000 -0.376573
-10.900000 -0.445091
-10.850000 -0.458795
-10.800000 -0.445091
-10.750000 -0.431388
-10.700000 -0.397129
-10.650000 -0.325185
-10.600000 -0.218983
-10.550000 -0.102502
-10.500000 0.010552
-10.450000 0.127033
-10.400000 0.229809
-10.350000 0.298327
-10.300000 0.346290
-10.250000 0.390826
-10.200000 0.407956
-10.150000 0.401103
-10.100000 0.390826
-10.050000 0.397678
-10.000000 0.401103
-9.950000 0.380549
-9.900000 0.342863
-9.850000 0.305179
-9.800000 0.253790
-9.750000 0.181847
-9.700000 0.109903
-9.650000 0.044811
-9.600000 -0.027132
-9.550000 -0.095650
-9.500000 -0.140187
-9.450000 -0.147039
-9.400000 -0.136761
-9.350000 -0.092225
-9.300000 -0.033984
-9.250000 0.024256
-9.200000 0.096200
-9.150000 0.164717
-9.100000 0.181847
-9.050000 0.168143
-9.000000 0.154439
-8.950000 0.085922
-8.900000 -0.061392
-8.850000 -0.181298
-8.800000 -0.239538
-8.750000 -0.301204
-8.700000 -0.338889
-8.650000 -0.308056
-8.600000 -0.249815
-8.550000 -0.177872
-8.500000 -0.054540
-8.450000 0.072218
-8.400000 0.144162
-8.350000 0.202401
-8.300000 0.246938
-8.250000 0.236661
-8.200000 0.164717
-8.150000 0.061940
-8.100000 -0.075095
-8.050000 -0.215556
-8.000000 -0.332037
-7.950000 -0.451943
-7.900000 -0.568423
-7.850000 -0.630089
-7.800000 -0.623238
-7.750000 -0.578701
-7.700000 -0.499906
-7.650000 -0.376573
-7.600000 -0.222408
-7.550000 -0.044262
-7.500000 0.127032
-7.450000 0.281197
-7.400000 0.418233
-7.350000 0.531287
-7.300000 0.575824
-7.250000 0.562120
-7.200000 0.517584
-7.150000 0.404530
-7.100000 0.209253
-7.050000 0.003700
-7.000000 -0.174446
-6.950000 -0.352592
-6.900000 -0.520461
-6.850000 -0.630090
-6.800000 -0.691755
-6.750000 -0.715736
-6.700000 -0.681478
-6.650000 -0.633515
-6.600000 -0.619811
-6.550000 -0.602682
-6.500000 -0.571849
-6.450000 -0.585553
-6.400000 -0.654070
-6.350000 -0.739718
-6.300000 -0.842494
-6.250000 -0.945272
-6.200000 -1.000085
-6.150000 -1.044622
-6.100000 -1.075455
-6.050000 -1.006938
-6.000000 -0.852773
-5.950000 -0.698607
-5.900000 -0.527312
-5.850000 -0.294352
-5.800000 -0.061391
-5.750000 0.123607
-5.700000 0.264068
-5.650000 0.353141
-5.600000 0.390826
-5.550000 0.407955
-5.500000 0.390826
-5.450000 0.315456
-5.400000 0.253790
-5.350000 0.229809
-5.300000 0.181846
-5.250000 0.127032
-5.200000 0.123607
-5.150000 0.144162
-5.100000 0.154440
-5.050000 0.178421
-5.000000 0.188699
-4.950000 0.147587
-4.900000 0.075644
-4.850000 0.013978
-4.800000 -0.064817
-4.750000 -0.167594
-4.700000 -0.290927
-4.650000 -0.421110
-4.600000 -0.517035
-4.550000 -0.561572
-4.500000 -0.575275
-4.450000 -0.564997
-4.400000 -0.513609
-4.350000 -0.424536
-4.300000 -0.332037
-4.250000 -0.263519
-4.200000 -0.218983
-4.150000 -0.195001
-4.100000 -0.208705
-4.050000 -0.246389
-4.000000 -0.308056
-3.950000 -0.407407
-3.900000 -0.517034
-3.850000 -0.602682
-3.800000 -0.660923
-3.750000 -0.695181
-3.700000 -0.664348
-3.650000 -0.575276
-3.600000 -0.455368
-3.550000 -0.304630
-3.500000 -0.126484
-3.450000 0.072218
-3.400000 0.253790
-3.350000 0.425084
-3.300000 0.568973
-3.250000 0.606657
-3.200000 0.510732
-3.150000 0.445640
-3.100000 0.483325
-3.050000 0.387400
-3.000000 0.140736
-2.950000 0.037960
-2.900000 0.061940
-2.850000 -0.054540
-2.800000 -0.212130
-2.750000 -0.253242
-2.700000 -0.335463
-2.650000 -0.414258
-2.600000 -0.266945
-2.550000 -0.153891
-2.500000 -0.311481
-2.450000 -0.390278
-2.400000 -0.270371
-2.350000 -0.359444
-2.300000 -0.609534
-2.250000 -0.643793
-2.200000 -0.660923
-2.150000 -0.917864
-2.100000 -1.027492
-2.050000 -0.876754
-2.000000 -0.876754
-1.950000 -1.068604
-1.900000 -1.096011
-1.850000 -0.979530
-1.800000 -0.849346
-1.750000 -0.647219
-1.700000 -0.517035
-1.650000 -0.575275
-1.600000 -0.541016
-1.550000 -0.345741
-1.500000 -0.314907
-1.450000 -0.366296
-1.400000 -0.195002
-1.350000 0.007126
-1.300000 -0.010004
-1.250000 -0.023707
-1.200000 0.020829
-1.150000 -0.081947
-1.100000 -0.095651
-1.050000 0.099625
-1.000000 0.048236
-0.950000 -0.308055
-0.900000 -0.407407
-0.850000 -0.246390
-0.800000 -0.287500
-0.750000 -0.369721
-0.700000 -0.201853
-0.650000 -0.064817
-0.600000 -0.071670
-0.550000 0.051662
-0.500000 0.267494
-0.450000 0.370271
-0.400000 0.442214
-0.350000 0.565546
-0.300000 0.599805
-0.250000 0.541565
-0.200000 0.449066
-0.150000 0.305179
-0.100000 0.130458
-0.050000 -0.016855
0.000000 -0.160742
0.050000 -0.273797
0.100000 -0.301204
0.150000 -0.338889
0.200000 -0.431387
0.250000 -0.383426
0.300000 -0.225834
0.350000 -0.232686
0.400000 -0.373148
0.450000 -0.366296
0.500000 -0.246390
0.550000 -0.239537
0.600000 -0.332037
0.650000 -0.376573
0.700000 -0.445091
0.750000 -0.541016
0.800000 -0.530738
0.850000 -0.349166
0.900000 -0.030559
0.950000 0.503880
1.000000 1.350076
1.050000 2.535433
1.100000 4.162731
1.150000 6.392986
1.200000 9.257028
1.250000 12.693196
1.300000 16.718613
1.350000 21.326440
1.400000 26.376198
1.450000 31.658925
1.500000 37.044428
1.550000 42.477883
1.600000 47.842825
1.650000 52.937129
1.700000 57.640879
1.750000 61.981479
1.800000 65.938389
1.850000 69.364279
1.900000 72.245449
1.950000 74.725789
2.000000 76.829279
2.050000 78.480569
2.100000 79.676199
2.150000 80.436749
2.200000 80.745079
2.250000 80.597769
2.300000 79.939989
2.350000 78.710099
2.400000 76.959469
2.450000 74.749779
2.500000 72.063869
2.550000 68.953169
2.600000 65.537549
2.650000 61.858139
2.700000 57.962909
2.750000 54.029979
2.800000 50.155309
2.850000 46.297759
2.900000 42.553259
2.950000 39.134219
3.000000 36.102299
3.050000 33.382149
3.100000 31.052549
3.150000 29.199139
3.200000 27.726007
3.250000 26.609160
3.300000 25.927411
3.350000 25.643057
3.400000 25.629360
3.450000 25.865748
3.500000 26.376202
3.550000 27.092218
3.600000 27.914422
3.650000 28.774323
3.700000 29.637652
3.750000 30.483844
3.800000 31.251246
3.850000 31.885033
3.900000 32.378363
3.950000 32.703823
4.000000 32.806602
4.050000 32.703823
4.100000 32.443449
4.150000 31.991229
4.200000 31.309489
4.250000 30.439309
4.300000 29.435519
4.350000 28.287849
4.400000 26.972309
4.450000 25.564269
4.500000 24.128819
4.550000 22.624853
4.600000 21.018106
4.650000 19.397667
4.700000 17.862867
4.750000 16.403432
4.800000 15.002247
4.850000 13.734671
4.900000 12.669220
4.950000 11.785337
5.000000 11.072748
5.050000 10.552013
5.100000 10.209427
5.150000 10.017579
5.200000 10.010729
5.250000 10.178593
5.300000 10.462938
5.350000 10.846644
5.400000 11.326269
5.450000 11.850424
5.500000 12.395148
5.550000 12.956993
5.600000 13.484582
5.650000 13.916236
5.700000 14.275957
5.750000 14.546605
5.800000 14.673363
5.850000 14.663080
5.900000 14.580860
5.950000 14.389012
6.000000 14.090958
6.050000 13.724394
6.100000 13.285880
6.150000 12.792544
6.200000 12.299219
6.250000 11.778483
6.300000 11.182379
6.350000 10.558867
6.400000 9.952486
6.450000 9.291289
6.500000 8.547871
6.550000 7.777045
6.600000 7.026775
6.650000 6.327893
6.700000 5.697529
6.750000 5.132257
6.800000 4.680040
6.850000 4.409395
6.900000 4.306618
6.950000 4.292915
7.000000 4.388839
7.050000 4.608097
7.100000 4.885593
7.150000 5.180221
7.200000 5.502254
7.250000 5.786603
7.300000 6.019563
7.350000 6.231968
7.400000 6.410115
7.450000 6.519743
7.500000 6.608816
7.550000 6.701315
7.600000 6.776684
7.650000 6.855480
7.700000 6.951405
7.750000 7.006219
7.800000 7.002794
7.850000 6.992516
7.900000 6.920572
7.950000 6.745852
8.000000 6.536872
8.050000 6.293634
8.100000 5.951045
8.150000 5.529660
8.200000 5.104850
8.250000 4.666337
8.300000 4.183286
8.350000 3.703662
8.400000 3.244592
8.450000 2.812930
8.500000 2.432657
8.550000 2.100345
8.600000 1.815996
8.650000 1.607017
8.700000 1.483685
8.750000 1.418593
8.800000 1.398038
8.850000 1.452851
8.900000 1.552203
8.950000 1.682387
9.000000 1.857107
9.050000 2.045530
9.100000 2.223677
9.150000 2.412101
9.200000 2.600525
9.250000 2.730709
9.300000 2.809504
9.350000 2.874596
9.400000 2.925985
9.450000 2.943114
9.500000 2.929411
9.550000 2.898577
9.600000 2.857466
9.650000 2.823208
9.700000 2.806079
9.750000 2.792375
9.800000 2.761542
9.850000 2.699876
9.900000 2.624506
9.950000 2.555988
10.000000 2.439508
10.050000 2.244233
10.100000 2.018124
10.150000 1.771459
10.200000 1.459704
10.250000 1.113689
10.300000 0.805358
10.350000 0.524436
10.400000 0.250364
10.450000 0.013978
10.500000 -0.157316
10.550000 -0.253241
10.600000 -0.273796
10.650000 -0.242964
10.700000 -0.188149
10.750000 -0.088799
10.800000 0.055089
10.850000 0.205828
10.900000 0.346289
10.950000 0.476474
11.000000 0.579250
11.050000 0.651194
11.100000 0.692305
11.150000 0.709434
11.200000 0.671749
11.250000 0.592953
11.300000 0.510732
11.350000 0.442215
11.400000 0.373696
11.450000 0.301753
11.500000 0.246938
11.550000 0.222957
11.600000 0.219532
11.650000 0.246938
11.700000 0.312031
11.750000 0.370271
11.800000 0.414807
11.850000 0.479899
11.900000 0.551843
11.950000 0.558694
12.000000 0.486750
12.050000 0.401103
12.100000 0.294901
12.150000 0.144162
12.200000 -0.003152
12.250000 -0.126484
12.300000 -0.239538
12.350000 -0.338888
12.400000 -0.376574
12.450000 -0.380000
12.500000 -0.397129
12.550000 -0.407407
12.600000 -0.386851
12.650000 -0.352592
12.700000 -0.338889
12.750000 -0.338889
12.800000 -0.335463
12.850000 -0.328611
12.900000 -0.366296
12.950000 -0.451943
13.000000 -0.506758
13.050000 -0.499905
13.100000 -0.499906
13.150000 -0.523887
13.200000 -0.520461
13.250000 -0.493053
13.300000 -0.486202
13.350000 -0.462221
13.400000 -0.403981
13.450000 -0.362870
13.500000 -0.345741
13.550000 -0.308056
13.600000 -0.263519
13.650000 -0.246390
13.700000 -0.229261
13.750000 -0.208705
13.800000 -0.201853
13.850000 -0.191575
13.900000 -0.171020
13.950000 -0.160742
14.000000 -0.143613
14.050000 -0.105928
14.100000 -0.109354
14.150000 -0.177872
14.200000 -0.232686
14.250000 -0.287501
14.300000 -0.400555
14.350000 -0.520461
14.400000 -0.616386
14.450000 -0.719163
14.500000 -0.808235
14.550000 -0.808236
14.600000 -0.760274
14.650000 -0.736292
14.700000 -0.678052
14.750000 -0.534164
14.800000 -0.386851
14.850000 -0.301204
14.900000 -0.222409
14.950000 -0.157317
15.000000 -0.160743
15.050000 -0.215556
15.100000 -0.270371
15.150000 -0.383425
15.200000 -0.571849
15.250000 -0.770551
15.300000 -0.955549
15.350000 -1.126844
15.400000 -1.257028
15.450000 -1.342674
15.500000 -1.414618
15.550000 -1.452303
15.600000 -1.418044
15.650000 -1.342674
15.700000 -1.246750
15.750000 -1.113140
15.800000 -0.976104
15.850000 -0.856198
15.900000 -0.763699
15.950000 -0.712310
16.000000 -0.702033
16.050000 -0.722588
16.100000 -0.784255
16.150000 -0.876753
16.200000 -0.969253
16.250000 -1.020641
16.300000 -1.030919
16.350000 -1.010363
16.400000 -0.945271
16.450000 -0.849347
16.500000 -0.739718
16.550000 -0.588978
16.600000 -0.410832
16.650000 -0.260094
16.700000 -0.153891
16.750000 -0.075095
16.800000 -0.047688
16.850000 -0.112780
16.900000 -0.249815
16.950000 -0.386851
17.000000 -0.499906
17.050000 -0.616386
17.100000 -0.726014
17.150000 -0.787680
17.200000 -0.818513
17.250000 -0.859624
17.300000 -0.890457
17.350000 -0.869902
17.400000 -0.845921
17.450000 -0.849347
17.500000 -0.849347
17.550000 -0.832217
17.600000 -0.859624
17.650000 -0.911012
17.700000 -0.924716
17.750000 -0.945271
17.800000 -1.020641
17.850000 -1.096010
17.900000 -1.126843
17.950000 -1.150825
18.000000 -1.188510
18.050000 -1.205639
18.100000 -1.205639
18.150000 -1.181658
18.200000 -1.133695
18.250000 -1.089158
18.300000 -1.065178
18.350000 -1.041196
18.400000 -1.024067
18.450000 -1.034344
18.500000 -1.041196
18.550000 -1.041196
18.600000 -1.058326
18.650000 -1.109713
18.700000 -1.150825
18.750000 -1.174806
18.800000 -1.181658
18.850000 -1.174806
18.900000 -1.157677
18.950000 -1.099436
19.000000 -1.013789
19.050000 -0.917864
19.100000 -0.828791
19.150000 -0.753422
19.200000 -0.705459
19.250000 -0.691756
19.300000 -0.691755
19.350000 -0.708885
19.400000 -0.753422
19.450000 -0.808236
19.500000 -0.876754
19.550000 -0.948697
19.600000 -0.993234
19.650000 -0.993233
19.700000 -0.979530
19.750000 -0.924716
19.800000 -0.811662
19.850000 -0.671200
19.900000 -0.517035
19.950000 -0.362870
20.000000 -0.229260
20.050000 -0.140187
20.100000 -0.075095
20.150000 -0.054539
20.200000 -0.136761
20.250000 -0.290927
20.300000 -0.458795
20.350000 -0.654070
20.400000 -0.907587
20.450000 -1.147398
20.500000 -1.315267
20.550000 -1.431747
20.600000 -1.517395
20.650000 -1.561932
20.700000 -1.561932
20.750000 -1.513969
20.800000 -1.442025
20.850000 -1.373507
20.900000 -1.301564
20.950000 -1.215917
21.000000 -1.185083
21.050000 -1.229620
21.100000 -1.287861
21.150000 -1.335823
21.200000 -1.414618
21.250000 -1.517395
21.300000 -1.585913
21.350000 -1.613320
21.400000 -1.616746
21.450000 -1.603043
21.500000 -1.582487
21.550000 -1.544802
21.600000 -1.445451
21.650000 -1.291287
21.700000 -1.137121
21.750000 -0.993234
21.800000 -0.845921
21.850000 -0.749996
21.900000 -0.729440
21.950000 -0.746570
22.000000 -0.784255
22.050000 -0.863050
22.100000 -0.976104
22.150000 -1.089159
22.200000 -1.195361
22.250000 -1.287860
22.300000 -1.352953
22.350000 -1.383785
22.400000 -1.376933
22.450000 -1.342674
22.500000 -1.287860
22.550000 -1.229621
22.600000 -1.181657
22.650000 -1.143973
22.700000 -1.106289
22.750000 -1.065177
22.800000 -1.044622
22.850000 -1.068603
22.900000 -1.106288
22.950000 -1.140547
23.000000 -1.181658
23.050000 -1.267305
23.100000 -1.359804
23.150000 -1.442025
23.200000 -1.520820
23.250000 -1.599616
23.300000 -1.661282
23.350000 -1.716097
23.400000 -1.746930
23.450000 -1.722948
23.500000 -1.647579
23.550000 -1.517395
23.600000 -1.342675
23.650000 -1.171380
23.700000 -1.034345
23.750000 -0.883605
23.800000 -0.753421
23.850000 -0.732866
23.900000 -0.777402
23.950000 -0.821939
24.000000 -0.911013
24.050000 -1.054899
24.100000 -1.171380
24.150000 -1.253601
24.200000 -1.366656
24.250000 -1.469433
24.300000 -1.517395
24.350000 -1.579060
24.400000 -1.681838
24.450000 -1.746930
24.500000 -1.777762
24.550000 -1.832577
24.600000 -1.904520
24.650000 -1.952483
24.700000 -1.979890
24.750000 -1.979890
24.800000 -1.925076
24.850000 -1.839428
24.900000 -1.729800
24.950000 -1.568783
25.000000 -1.387212
25.050000 -1.246750
25.100000 -1.133695
25.150000 -1.013789
25.200000 -0.941845
25.250000 -0.934994
25.300000 -0.938419
25.350000 -0.962400
25.400000 -1.061752
25.450000 -1.191936
25.500000 -1.301564
25.550000 -1.390637
25.600000 -1.462581
25.650000 -1.520821
25.700000 -1.561931
25.750000 -1.561931
25.800000 -1.531099
25.850000 -1.513969
25.900000 -1.500266
25.950000 -1.445452
26.000000 -1.380359
26.050000 -1.346100
26.100000 -1.291286
26.150000 -1.212490
26.200000 -1.157677
26.250000 -1.119992
26.300000 -1.096011
26.350000 -1.113139
26.400000 -1.174806
26.450000 -1.236472
26.500000 -1.322120
26.550000 -1.445451
26.600000 -1.558505
26.650000 -1.654431
26.700000 -1.774336
26.750000 -1.890817
26.800000 -1.973038
26.850000 -2.027852
26.900000 -2.089518
26.950000 -2.144332
27.000000 -2.185444
27.050000 -2.223128
27.100000 -2.271090
27.150000 -2.325905
27.200000 -2.367016
27.250000 -2.380719
27.300000 -2.370441
27.350000 -2.319054
27.400000 -2.229980
27.450000 -2.116926
27.500000 -1.976464
27.550000 -1.818874
27.600000 -1.681838
27.650000 -1.568784
27.700000 -1.445451
27.750000 -1.339249
27.800000 -1.287861
27.850000 -1.284434
27.900000 -1.301564
27.950000 -1.342675
28.000000 -1.397489
28.050000 -1.462581
28.100000 -1.517395
28.150000 -1.561931
28.200000 -1.582487
28.250000 -1.572209
28.300000 -1.541376
28.350000 -1.479710
28.400000 -1.414618
28.450000 -1.370082
28.500000 -1.356378
28.550000 -1.356378
28.600000 -1.390637
28.650000 -1.455729
28.700000 -1.513969
28.750000 -1.579061
28.800000 -1.664709
28.850000 -1.719523
28.900000 -1.736652
28.950000 -1.757207
29.000000 -1.764059
29.050000 -1.740078
29.100000 -1.685264
29.150000 -1.609894
29.200000 -1.513969
29.250000 -1.435173
29.300000 -1.376933
29.350000 -1.315267
29.400000 -1.277583
29.450000 -1.294712
29.500000 -1.318694
29.550000 -1.352952
29.600000 -1.442025
29.650000 -1.568784
29.700000 -1.674986
29.750000 -1.784615
29.800000 -1.901095
29.850000 -1.979890
29.900000 -2.024426
29.950000 -2.041556
30.000000 -1.997019
30.050000 -1.911372
30.100000 -1.829151
30.150000 -1.705819
30.200000 -1.534524
30.250000 -1.404341
30.300000 -1.311841
30.350000 -1.222768
30.400000 -1.157676
30.450000 -1.150824
30.500000 -1.167954
30.550000 -1.212491
30.600000 -1.298138
30.650000 -1.407766
30.700000 -1.517395
30.750000 -1.620172
30.800000 -1.678411
30.850000 -1.688689
30.900000 -1.685264
30.950000 -1.651005
31.000000 -1.541377
31.050000 -1.421469
31.100000 -1.339249
31.150000 -1.246750
31.200000 -1.137121
31.250000 -1.089158
31.300000 -1.116566
31.350000 -1.137121
31.400000 -1.150824
31.450000 -1.229620
31.500000 -1.387211
31.550000 -1.537950
31.600000 -1.644153
31.650000 -1.746929
31.700000 -1.849706
31.750000 -1.911372
31.800000 -1.918224
31.850000 -1.935353
31.900000 -1.973038
31.950000 -1.986742
32.000000 -1.997019
32.050000 -2.055260
32.100000 -2.147759
32.150000 -2.229980
32.200000 -2.332756
32.250000 -2.476644
32.300000 -2.606828
32.350000 -2.658216
32.400000 -2.665068
32.450000 -2.620531
32.500000 -2.517755
32.550000 -2.363590
32.600000 -2.188869
32.650000 -2.031279
32.700000 -1.894243
32.750000 -1.774336
32.800000 -1.685263
32.850000 -1.698967
32.900000 -1.815447
32.950000 -1.955909
33.000000 -2.106648
33.050000 -2.312201
33.100000 -2.517755
33.150000 -2.634235
33.200000 -2.671920
33.250000 -2.647939
33.300000 -2.534885
33.350000 -2.343035
33.400000 -2.116925
33.450000 -1.866835
33.500000 -1.620172
33.550000 -1.421470
33.600000 -1.267305
33.650000 -1.164529
33.700000 -1.154250
33.750000 -1.229620
33.800000 -1.342675
33.850000 -1.503692
33.900000 -1.709245
33.950000 -1.901094
34.000000 -2.044982
34.050000 -2.154611
34.100000 -2.233406
34.150000 -2.243683
34.200000 -2.209425
34.250000 -2.158036
34.300000 -2.068963
34.350000 -1.969612
34.400000 -1.907946
34.450000 -1.870262
34.500000 -1.856558
34.550000 -1.907946
34.600000 -2.031278
34.650000 -2.168314
34.700000 -2.346460
34.750000 -2.572569
34.800000 -2.767845
34.850000 -2.918584
34.900000 -3.072749
34.950000 -3.168674
35.000000 -3.144692
35.050000 -3.079600
35.100000 -3.004231
35.150000 -2.846640
35.200000 -2.627384
35.250000 -2.452663
35.300000 -2.264239
35.350000 -2.051834
35.400000 -1.911372
35.450000 -1.863410
35.500000 -1.829150
35.550000 -1.808596
35.600000 -1.846280
35.650000 -1.890817
35.700000 -1.928502
35.750000 -1.969613
35.800000 -1.993594
35.850000 -1.993594
35.900000 -1.997020
35.950000 -1.976465
36.000000 -1.921650
36.050000 -1.907946
36.100000 -1.907947
36.150000 -1.863410
36.200000 -1.849706
36.250000 -1.914799
36.300000 -1.969612
36.350000 -2.000445
36.400000 -2.079241
36.450000 -2.175165
36.500000 -2.226554
36.550000 -2.277943
36.600000 -2.319053
36.650000 -2.298498
36.700000 -2.260813
36.750000 -2.260813
36.800000 -2.247110
36.850000 -2.185443
36.900000 -2.127203
36.950000 -2.106648
37.000000 -2.096370
37.050000 -2.099796
37.100000 -2.130629
37.150000 -2.182018
37.200000 -2.233406
37.250000 -2.288221
37.300000 -2.346460
37.350000 -2.401275
37.400000 -2.452663
37.450000 -2.476644
37.500000 -2.469792
37.550000 -2.449237
37.600000 -2.432108
37.650000 -2.387571
37.700000 -2.332756
37.750000 -2.305350
37.800000 -2.305349
37.850000 -2.298498
37.900000 -2.301924
37.950000 -2.325905
38.000000 -2.339608
38.050000 -2.332757
38.100000 -2.339609
38.150000 -2.353312
38.200000 -2.343035
38.250000 -2.312201
38.300000 -2.308775
38.350000 -2.312201
38.400000 -2.312201
38.450000 -2.332757
38.500000 -2.387571
38.550000 -2.435533
38.600000 -2.452663
38.650000 -2.459515
38.700000 -2.432107
38.750000 -2.380719
38.800000 -2.312201
38.850000 -2.223128
38.900000 -2.096370
38.950000 -1.931927
39.000000 -1.770911
39.050000 -1.630449
39.100000 -1.510543
39.150000 -1.421470
39.200000 -1.363230
39.250000 -1.346101
39.300000 -1.373508
39.350000 -1.431748
39.400000 -1.503691
39.450000 -1.592765
39.500000 -1.661282
39.550000 -1.702393
39.600000 -1.722949
39.650000 -1.722948
39.700000 -1.654430
39.750000 -1.548228
39.800000 -1.452303
39.850000 -1.370082
39.900000 -1.277583
39.950000 -1.185083
40.000000 -1.113140
40.050000 -1.075455
40.100000 -1.102862
40.150000 -1.171380
40.200000 -1.260453
40.250000 -1.359804
40.300000 -1.483136
40.350000 -1.606468
40.400000 -1.726374
40.450000 -1.839428
40.500000 -1.921650
40.550000 -1.938780
40.600000 -1.928502
40.650000 -1.921650
40.700000 -1.897669
40.750000 -1.859984
40.800000 -1.832577
40.850000 -1.829151
40.900000 -1.839428
40.950000 -1.842855
41.000000 -1.856558
41.050000 -1.904520
41.100000 -1.973038
41.150000 -2.041557
41.200000 -2.106648
41.250000 -2.185443
41.300000 -2.253961
41.350000 -2.295072
41.400000 -2.322479
41.450000 -2.363590
41.500000 -2.397849
41.550000 -2.418404
41.600000 -2.445811
41.650000 -2.497199
41.700000 -2.531458
41.750000 -2.531458
41.800000 -2.528033
41.850000 -2.504051
41.900000 -2.432108
41.950000 -2.325905
42.000000 -2.192296
42.050000 -2.048408
42.100000 -1.901094
42.150000 -1.788041
42.200000 -1.705819
42.250000 -1.647579
42.300000 -1.620172
42.350000 -1.637302
42.400000 -1.702393
42.450000 -1.791466
42.500000 -1.873687
42.550000 -1.945631
42.600000 -1.997020
42.650000 -2.014148
42.700000 -1.993594
42.750000 -1.914798
42.800000 -1.764059
42.850000 -1.572209
42.900000 -1.380360
42.950000 -1.185084
43.000000 -1.003512
43.050000 -0.893883
43.100000 -0.835643
43.150000 -0.801384
43.200000 -0.821939
43.250000 -0.917864
43.300000 -1.037770
43.350000 -1.140547
43.400000 -1.260453
43.450000 -1.397489
43.500000 -1.489988
43.550000 -1.548228
43.600000 -1.609894
43.650000 -1.671560
43.700000 -1.695541
43.750000 -1.712671
43.800000 -1.757207
43.850000 -1.822300
43.900000 -1.894242
43.950000 -1.969612
44.000000 -2.044982
44.050000 -2.113499
44.100000 -2.188869
44.150000 -2.243684
44.200000 -2.243684
44.250000 -2.195721
44.300000 -2.120352
44.350000 -2.034705
44.400000 -1.942206
44.450000 -1.856558
44.500000 -1.791466
44.550000 -1.767484
44.600000 -1.788040
44.650000 -1.812022
44.700000 -1.832577
44.750000 -1.887391
44.800000 -1.959335
44.850000 -1.986742
44.900000 -1.959335
44.950000 -1.901094
45.000000 -1.812021
45.050000 -1.692116
45.100000 -1.551654
45.150000 -1.390637
45.200000 -1.260454
45.250000 -1.191935
45.300000 -1.174806
45.350000 -1.198787
45.400000 -1.291286
45.450000 -1.435174
45.500000 -1.603043
45.550000 -1.801744
45.600000 -2.007297
45.650000 -2.182018
45.700000 -2.315627
45.750000 -2.425255
45.800000 -2.476644
45.850000 -2.469792
45.900000 -2.421829
45.950000 -2.339608
46.000000 -2.233406
46.050000 -2.164888
46.100000 -2.137481
46.150000 -2.086093
46.200000 -2.034704
46.250000 -2.041557
46.300000 -2.079241
46.350000 -2.106648
46.400000 -2.140907
46.450000 -2.178592
46.500000 -2.171740
46.550000 -2.130629
46.600000 -2.086093
46.650000 -2.031278
46.700000 -1.945631
46.750000 -1.842855
46.800000 -1.750356
46.850000 -1.692115
46.900000 -1.674985
46.950000 -1.664708
47.000000 -1.654431
47.050000 -1.692115
47.100000 -1.757207
47.150000 -1.784615
47.200000 -1.784615
47.250000 -1.801744
47.300000 -1.829151
47.350000 -1.825725
47.400000 -1.812021
47.450000 -1.805169
47.500000 -1.794892
47.550000 -1.770910
47.600000 -1.716096
47.650000 -1.664708
47.700000 -1.644152
47.750000 -1.623598
47.800000 -1.599616
47.850000 -1.606469
47.900000 -1.657856
47.950000 -1.709245
48.000000 -1.750355
48.050000 -1.818873
48.100000 -1.904521
48.150000 -1.969612
48.200000 -2.017575
48.250000 -2.055259
48.300000 -2.065538
48.350000 -2.051834
48.400000 -2.014149
48.450000 -1.949057
48.500000 -1.849706
48.550000 -1.733226
48.600000 -1.630449
48.650000 -1.561932
48.700000 -1.534524
48.750000 -1.517395
48.800000 -1.513969
48.850000 -1.558506
48.900000 -1.644153
48.950000 -1.746929
49.000000 -1.870261
49.050000 -2.017575
49.100000 -2.137481
49.150000 -2.226554
49.200000 -2.322479
49.250000 -2.428681
49.300000 -2.510903
49.350000 -2.517755
49.400000 -2.483496
49.450000 -2.459515
49.500000 -2.418404
49.550000 -2.284794
49.600000 -2.096370
49.650000 -1.928502
49.700000 -1.770911
49.750000 -1.579061
49.800000 -1.414618
49.850000 -1.318694
49.900000 -1.253602
49.950000 -1.222768
50.000000 -1.236471
50.050000 -1.298138
50.100000 -1.397489
50.150000 -1.527673
50.200000 -1.651005
50.250000 -1.746929
50.300000 -1.849706
50.350000 -1.931927
50.400000 -1.925076
50.450000 -1.856558
50.500000 -1.818873
50.550000 -1.791466
50.600000 -1.716096
50.650000 -1.627023
50.700000 -1.589339
50.750000 -1.596190
50.800000 -1.640727
50.850000 -1.716097
50.900000 -1.815448
50.950000 -1.921650
51.000000 -2.031278
51.050000 -2.120352
51.100000 -2.175166
51.150000 -2.202573
51.200000 -2.202573
51.250000 -2.175166
51.300000 -2.110074
51.350000 -2.003871
51.400000 -1.887391
51.450000 -1.794892
51.500000 -1.740078
51.550000 -1.709244
51.600000 -1.698967
51.650000 -1.719522
51.700000 -1.757207
51.750000 -1.798317
51.800000 -1.870261
51.850000 -1.966186
51.900000 -2.044982
51.950000 -2.089519
52.000000 -2.144333
52.050000 -2.202573
52.100000 -2.240258
52.150000 -2.247110
52.200000 -2.247109
52.250000 -2.243683
52.300000 -2.223129
52.350000 -2.188869
52.400000 -2.164888
52.450000 -2.175166
52.500000 -2.199147
52.550000 -2.240258
52.600000 -2.305349
52.650000 -2.356738
52.700000 -2.377293
52.750000 -2.401274
52.800000 -2.411552
52.850000 -2.377293
52.900000 -2.288220
52.950000 -2.154611
53.000000 -2.000446
53.050000 -1.846280
53.100000 -1.716097
53.150000 -1.603043
53.200000 -1.524247
53.250000 -1.507117
53.300000 -1.537950
53.350000 -1.551653
53.400000 -1.572209
53.450000 -1.637301
53.500000 -1.702393
53.550000 -1.698967
53.600000 -1.664708
53.650000 -1.654431
53.700000 -1.616745
53.750000 -1.517395
53.800000 -1.445451
53.850000 -1.469433
53.900000 -1.531099
53.950000 -1.592764
54.000000 -1.698967
54.050000 -1.866836
54.100000 -2.034704
54.150000 -2.151185
54.200000 -2.240258
54.250000 -2.349886
54.300000 -2.445811
54.350000 -2.452662
54.400000 -2.387571
54.450000 -2.349886
54.500000 -2.332757
54.550000 -2.281368
54.600000 -2.226555
54.650000 -2.219703
54.700000 -2.243684
54.750000 -2.240257
54.800000 -2.243684
54.850000 -2.271091
54.900000 -2.295072
54.950000 -2.295072
55.000000 -2.291646
55.050000 -2.301924
55.100000 -2.319053
55.150000 -2.332757
55.200000 -2.363590
55.250000 -2.411552
55.300000 -2.449237
55.350000 -2.459515
55.400000 -2.469792
55.450000 -2.476644
55.500000 -2.435534
55.550000 -2.343035
55.600000 -2.247109
55.650000 -2.151184
55.700000 -2.024427
55.750000 -1.887391
55.800000 -1.760634
55.850000 -1.668134
55.900000 -1.613320
55.950000 -1.579061
56.000000 -1.592765
56.050000 -1.671560
56.100000 -1.794892
56.150000 -1.907946
56.200000 -2.034704
56.250000 -2.171740
56.300000 -2.308775
56.350000 -2.428682
56.400000 -2.497200
56.450000 -2.510903
56.500000 -2.486922
56.550000 -2.442385
56.600000 -2.373867
56.650000 -2.281368
56.700000 -2.192296
56.750000 -2.099797
56.800000 -2.021001
56.850000 -1.969613
56.900000 -1.949057
56.950000 -1.921650
57.000000 -1.897669
57.050000 -1.894243
57.100000 -1.880539
57.150000 -1.832576
57.200000 -1.784614
57.250000 -1.764059
57.300000 -1.726375
57.350000 -1.705818
57.400000 -1.729800
57.450000 -1.760633
57.500000 -1.794892
57.550000 -1.836003
57.600000 -1.859984
57.650000 -1.846281
57.700000 -1.842855
57.750000 -1.846280
57.800000 -1.815448
57.850000 -1.764059
57.900000 -1.736652
57.950000 -1.716097
58.000000 -1.712671
58.050000 -1.753781
58.100000 -1.805169
58.150000 -1.866836
58.200000 -1.979890
58.250000 -2.110074
58.300000 -2.185444
58.350000 -2.223128
58.400000 -2.264239
58.450000 -2.271091
58.500000 -2.212851
58.550000 -2.110074
58.600000 -1.990168
58.650000 -1.877114
58.700000 -1.774336
58.750000 -1.664709
58.800000 -1.575635
58.850000 -1.537950
58.900000 -1.537951
58.950000 -1.541376
59.000000 -1.572209
59.050000 -1.630450
59.100000 -1.681837
59.150000 -1.722948
59.200000 -1.746929
59.250000 -1.764059
59.300000 -1.777762
59.350000 -1.760633
59.400000 -1.722948
59.450000 -1.685263
59.500000 -1.654431
59.550000 -1.620172
59.600000 -1.589339
59.650000 -1.579061
59.700000 -1.599616
59.750000 -1.640727
59.800000 -1.692116
59.850000 -1.750355
59.900000 -1.846280
59.950000 -1.952483
60.000000 -2.048407
60.050000 -2.140907
60.100000 -2.247109
60.150000 -2.325905
60.200000 -2.367015
60.250000 -2.408126
60.300000 -2.456089
60.350000 -2.456089
60.400000 -2.408126
60.450000 -2.353312
60.500000 -2.284794
60.550000 -2.178591
60.600000 -2.062112
60.650000 -1.966187
60.700000 -1.877114
60.750000 -1.767484
60.800000 -1.657856
60.850000 -1.582487
60.900000 -1.517395
60.950000 -1.445451
61.000000 -1.390637
61.050000 -1.356378
61.100000 -1.332397
61.150000 -1.322120
61.200000 -1.335823
61.250000 -1.359804
61.300000 -1.373508
61.350000 -1.376933
61.400000 -1.390637
61.450000 -1.400915
61.500000 -1.411192
61.550000 -1.424896
61.600000 -1.438599
61.650000 -1.462581
61.700000 -1.476284
61.750000 -1.493413
61.800000 -1.531099
61.850000 -1.596191
61.900000 -1.664708
61.950000 -1.722948
62.000000 -1.791466
62.050000 -1.877113
62.100000 -1.952483
62.150000 -2.010723
62.200000 -2.065538
62.250000 -2.116925
62.300000 -2.147759
62.350000 -2.164888
62.400000 -2.185443
62.450000 -2.202573
62.500000 -2.185444
62.550000 -2.158036
62.600000 -2.134056
62.650000 -2.103222
62.700000 -2.041556
62.750000 -1.949057
62.800000 -1.866836
62.850000 -1.798318
62.900000 -1.729800
62.950000 -1.640727
63.000000 -1.551653
63.050000 -1.510543
63.100000 -1.520820
63.150000 -1.534524
63.200000 -1.558506
63.250000 -1.616746
63.300000 -1.692115
63.350000 -1.740078
63.400000 -1.784614
63.450000 -1.853132
63.500000 -1.911372
63.550000 -1.925075
63.600000 -1.911372
63.650000 -1.887391
63.700000 -1.829151
63.750000 -1.719522
63.800000 -1.620172
63.850000 -1.568783
63.900000 -1.513969
63.950000 -1.455729
64.000000 -1.462580
64.050000 -1.517395
64.100000 -1.572209
64.150000 -1.651005
64.200000 -1.760633
64.250000 -1.863410
64.300000 -1.942205
64.350000 -2.000446
64.400000 -2.041557
64.450000 -2.048408
64.500000 -2.014149
64.550000 -1.935353
64.600000 -1.818873
64.650000 -1.688689
64.700000 -1.585913
64.750000 -1.520820
64.800000 -1.469432
64.850000 -1.424896
64.900000 -1.428322
64.950000 -1.472859
65.000000 -1.524247
65.050000 -1.582487
65.100000 -1.664709
65.150000 -1.746930
65.200000 -1.798318
65.250000 -1.825725
65.300000 -1.849706
65.350000 -1.859983
65.400000 -1.839428
65.450000 -1.805169
65.500000 -1.798318
65.550000 -1.812021
65.600000 -1.825725
65.650000 -1.842855
65.700000 -1.890817
65.750000 -1.962761
65.800000 -2.024427
65.850000 -2.089518
65.900000 -2.154611
65.950000 -2.205999
66.000000 -2.243684
66.050000 -2.253961
66.100000 -2.205999
66.150000 -2.099796
66.200000 -1.990168
66.250000 -1.880539
66.300000 -1.733226
66.350000 -1.592765
66.400000 -1.510543
66.450000 -1.469432
66.500000 -1.438599
66.550000 -1.455729
66.600000 -1.537950
66.650000 -1.654431
66.700000 -1.770910
66.750000 -1.890817
66.800000 -1.993593
66.850000 -2.044982
66.900000 -2.048408
66.950000 -2.034704
67.000000 -1.993594
67.050000 -1.897669
67.100000 -1.770911
67.150000 -1.637301
67.200000 -1.524246
67.250000 -1.448877
67.300000 -1.400915
67.350000 -1.387211
67.400000 -1.400915
67.450000 -1.445451
67.500000 -1.510543
67.550000 -1.585912
67.600000 -1.681838
67.650000 -1.770910
67.700000 -1.825725
67.750000 -1.842854
67.800000 -1.846280
67.850000 -1.849706
67.900000 -1.853132
67.950000 -1.842854
68.000000 -1.818873
68.050000 -1.794892
68.100000 -1.784614
68.150000 -1.770910
68.200000 -1.726374
68.250000 -1.678412
68.300000 -1.633875
68.350000 -1.568784
68.400000 -1.469433
68.450000 -1.387211
68.500000 -1.346100
68.550000 -1.308415
68.600000 -1.287860
68.650000 -1.311842
68.700000 -1.366656
68.750000 -1.411192
68.800000 -1.483136
68.850000 -1.609894
68.900000 -1.729800
68.950000 -1.805170
69.000000 -1.873688
69.050000 -1.942205
69.100000 -1.983316
69.150000 -1.997020
69.200000 -2.000446
69.250000 -2.000445
69.300000 -1.990168
69.350000 -1.976464
69.400000 -1.966187
69.450000 -1.973039
69.500000 -1.979890
69.550000 -1.945631
69.600000 -1.890817
69.650000 -1.883966
69.700000 -1.877113
69.750000 -1.798318
69.800000 -1.705819
69.850000 -1.647579
69.900000 -1.589339
69.950000 -1.527673
70.000000 -1.503691
70.050000 -1.524246
70.100000 -1.555079
70.150000 -1.606468
70.200000 -1.671559
70.250000 -1.736652
70.300000 -1.805170
70.350000 -1.887391
70.400000 -1.938780
70.450000 -1.952483
70.500000 -1.979890
70.550000 -2.000445
70.600000 -1.983316
70.650000 -1.959335
70.700000 -1.945631
70.750000 -1.931927
70.800000 -1.911372
70.850000 -1.914798
70.900000 -1.949057
70.950000 -1.993594
71.000000 -2.017575
71.050000 -2.041557
71.100000 -2.089518
71.150000 -2.130629
71.200000 -2.127203
71.250000 -2.110074
71.300000 -2.127203
71.350000 -2.113500
71.400000 -2.058686
71.450000 -2.031278
71.500000 -2.041556
71.550000 -2.024427
71.600000 -1.962761
71.650000 -1.928502
71.700000 -1.914799
71.750000 -1.870262
71.800000 -1.818873
71.850000 -1.801744
71.900000 -1.774337
71.950000 -1.719523
72.000000 -1.671559
72.050000 -1.651005
72.100000 -1.616745
72.150000 -1.561932
72.200000 -1.524247
72.250000 -1.520821
72.300000 -1.517395
72.350000 -1.513969
72.400000 -1.541376
72.450000 -1.599616
72.500000 -1.657856
72.550000 -1.698967
72.600000 -1.743504
72.650000 -1.818873
72.700000 -1.911373
72.750000 -2.003872
72.800000 -2.103222
72.850000 -2.223129
72.900000 -2.332757
72.950000 -2.408126
73.000000 -2.476645
73.050000 -2.541736
73.100000 -2.569144
73.150000 -2.558865
73.200000 -2.524607
73.250000 -2.445811
73.300000 -2.322479
73.350000 -2.195721
73.400000 -2.068963
73.450000 -1.928502
73.500000 -1.794892
73.550000 -1.709244
73.600000 -1.654431
73.650000 -1.640727
73.700000 -1.688689
73.750000 -1.774337
73.800000 -1.849707
73.850000 -1.938779
73.900000 -2.038130
73.950000 -2.113500
74.000000 -2.147759
74.050000 -2.147758
74.100000 -2.103222
74.150000 -2.003871
74.200000 -1.880540
74.250000 -1.764059
74.300000 -1.651005
74.350000 -1.537950
74.400000 -1.452303
74.450000 -1.424896
74.500000 -1.472858
74.550000 -1.544802
74.600000 -1.613320
74.650000 -1.698967
74.700000 -1.801744
74.750000 -1.887391
74.800000 -1.962760
74.850000 -2.021001
74.900000 -2.044982
74.950000 -2.034705
75.000000 -2.024427
75.050000 -2.014149
75.100000 -1.990168
75.150000 -1.962761
75.200000 -1.928502
75.250000 -1.866836
75.300000 -1.805169
75.350000 -1.770911
75.400000 -1.750355
75.450000 -1.722948
75.500000 -1.712671
75.550000 -1.740077
75.600000 -1.764059
75.650000 -1.784614
75.700000 -1.815447
75.750000 -1.863409
75.800000 -1.911373
75.850000 -1.959334
75.900000 -1.997020
75.950000 -2.000445
76.000000 -1.986742
76.050000 -1.990168
76.100000 -1.983316
76.150000 -1.935354
76.200000 -1.859984
76.250000 -1.791466
76.300000 -1.746930
76.350000 -1.712671
76.400000 -1.685263
76.450000 -1.661283
76.500000 -1.661283
76.550000 -1.678412
76.600000 -1.685263
76.650000 -1.681838
76.700000 -1.681837
76.750000 -1.688689
76.800000 -1.678411
76.850000 -1.664708
76.900000 -1.640727
76.950000 -1.603042
77.000000 -1.551654
77.050000 -1.527673
77.100000 -1.517395
77.150000 -1.493413
77.200000 -1.476284
77.250000 -1.510543
77.300000 -1.551654
77.350000 -1.541376
77.400000 -1.531099
77.450000 -1.555080
77.500000 -1.561931
77.550000 -1.513969
77.600000 -1.462581
77.650000 -1.431748
77.700000 -1.387211
77.750000 -1.346101
77.800000 -1.370082
77.850000 -1.442026
77.900000 -1.496840
77.950000 -1.534524
78.000000 -1.589338
78.050000 -1.674986
78.100000 -1.753781
78.150000 -1.818873
78.200000 -1.866836
78.250000 -1.897668
78.300000 -1.918224
78.350000 -1.904520
78.400000 -1.890817
78.450000 -1.921650
78.500000 -1.983316
78.550000 -2.031278
78.600000 -2.103223
78.650000 -2.219702
78.700000 -2.339609
78.750000 -2.445811
78.800000 -2.572569
78.850000 -2.689050
78.900000 -2.757567
78.950000 -2.805529
79.000000 -2.853492
79.050000 -2.850066
79.100000 -2.791826
79.150000 -2.743864
79.200000 -2.692476
79.250000 -2.617106
79.300000 -2.562291
79.350000 -2.524607
79.400000 -2.442385
79.450000 -2.339609
79.500000 -2.243684
79.550000 -2.116926
79.600000 -1.945631
79.650000 -1.777762
79.700000 -1.620172
79.750000 -1.469432
79.800000 -1.352952
79.850000 -1.253601
79.900000 -1.157676
79.950000 -1.126843
80.000000 -1.181658
80.050000 -1.270731
80.100000 -1.387211
80.150000 -1.555079
80.200000 -1.746930
80.250000 -1.904520
80.300000 -2.034705
80.350000 -2.110074
80.400000 -2.110074
80.450000 -2.058685
80.500000 -1.973039
80.550000 -1.822299
80.600000 -1.627024
80.650000 -1.466007
80.700000 -1.332397
80.750000 -1.233046
80.800000 -1.205639
80.850000 -1.243324
80.900000 -1.315267
80.950000 -1.445451
81.000000 -1.630450
81.050000 -1.818874
81.100000 -2.010723
81.150000 -2.195721
81.200000 -2.305349
81.250000 -2.322479
81.300000 -2.291646
81.350000 -2.199147
81.400000 -2.027853
81.450000 -1.805169
81.500000 -1.579061
81.550000 -1.373507
81.600000 -1.205639
81.650000 -1.089159
81.700000 -1.030918
81.750000 -1.051474
81.800000 -1.130269
81.850000 -1.205639
81.900000 -1.284434
81.950000 -1.370081
82.000000 -1.414618
82.050000 -1.407766
82.100000 -1.370082
82.150000 -1.301564
82.200000 -1.181657
82.250000 -1.054900
82.300000 -0.979531
82.350000 -0.941845
82.400000 -0.931568
82.450000 -0.965827
82.500000 -1.065177
82.550000 -1.215916
82.600000 -1.411192
82.650000 -1.627024
82.700000 -1.825725
82.750000 -1.990168
82.800000 -2.123777
82.850000 -2.219703
82.900000 -2.271091
82.950000 -2.284795
83.000000 -2.264239
83.050000 -2.212850
83.100000 -2.147759
83.150000 -2.079241
83.200000 -2.044982
83.250000 -2.038131
83.300000 -2.051834
83.350000 -2.065538
83.400000 -2.096370
83.450000 -2.151184
83.500000 -2.216276
83.550000 -2.260813
83.600000 -2.277943
83.650000 -2.250535
83.700000 -2.185444
83.750000 -2.092945
83.800000 -1.979890
83.850000 -1.836003
83.900000 -1.664708
83.950000 -1.486562
84.000000 -1.332397
84.050000 -1.222768
84.100000 -1.143973
84.150000 -1.099436
84.200000 -1.109714
84.250000 -1.164528
84.300000 -1.236471
84.350000 -1.332397
84.400000 -1.462581
84.450000 -1.579061
84.500000 -1.654431
84.550000 -1.709245
84.600000 -1.764059
84.650000 -1.801744
84.700000 -1.808596
84.750000 -1.777763
84.800000 -1.743504
84.850000 -1.743504
84.900000 -1.753782
84.950000 -1.753781
85.000000 -1.784615
85.050000 -1.870262
85.100000 -1.959335
85.150000 -2.021001
85.200000 -2.089518
85.250000 -2.195721
85.300000 -2.284794
85.350000 -2.339608
85.400000 -2.380719
85.450000 -2.432108
85.500000 -2.469792
85.550000 -2.445811
85.600000 -2.384145
85.650000 -2.312202
85.700000 -2.219702
85.750000 -2.082667
85.800000 -1.938779
85.850000 -1.788040
85.900000 -1.599616
85.950000 -1.400915
86.000000 -1.239898
86.050000 -1.109714
86.100000 -1.003511
86.150000 -0.934993
86.200000 -0.917864
86.250000 -0.941845
86.300000 -0.993234
86.350000 -1.048048
86.400000 -1.113140
86.450000 -1.229620
86.500000 -1.359804
86.550000 -1.452303
86.600000 -1.537950
86.650000 -1.644153
86.700000 -1.726374
86.750000 -1.767485
86.800000 -1.812022
86.850000 -1.842854
86.900000 -1.818873
86.950000 -1.736652
87.000000 -1.640727
87.050000 -1.537950
87.100000 -1.428322
87.150000 -1.339248
87.200000 -1.274157
87.250000 -1.233046
87.300000 -1.236472
87.350000 -1.301564
87.400000 -1.397488
87.450000 -1.486562
87.500000 -1.592764
87.550000 -1.705819
87.600000 -1.788040
87.650000 -1.825725
87.700000 -1.818873
87.750000 -1.743503
87.800000 -1.620171
87.850000 -1.507118
87.900000 -1.387211
87.950000 -1.229620
88.000000 -1.092584
88.050000 -1.061751
88.100000 -1.099436
88.150000 -1.147399
88.200000 -1.215916
88.250000 -1.346100
88.300000 -1.503691
88.350000 -1.644153
88.400000 -1.753781
88.450000 -1.846280
88.500000 -1.914798
88.550000 -1.942205
88.600000 -1.931928
88.650000 -1.897668
88.700000 -1.825725
88.750000 -1.729801
88.800000 -1.623598
88.850000 -1.517395
88.900000 -1.424896
88.950000 -1.376933
89.000000 -1.349527
89.050000 -1.325545
89.100000 -1.339248
89.150000 -1.404341
89.200000 -1.483136
89.250000 -1.551654
89.300000 -1.627023
89.350000 -1.702393
89.400000 -1.746929
89.450000 -1.781188
89.500000 -1.781189
89.550000 -1.726374
89.600000 -1.630449
89.650000 -1.534524
89.700000 -1.418044
89.750000 -1.267305
89.800000 -1.147399
89.850000 -1.096011
89.900000 -1.054900
89.950000 -0.996659
90.000000 -1.000086
90.050000 -1.092585
90.100000 -1.178232
90.150000 -1.243324
90.200000 -1.363230
90.250000 -1.510543
90.300000 -1.603042
90.350000 -1.651005
90.400000 -1.685264
90.450000 -1.692115
90.500000 -1.671560
90.550000 -1.644153
90.600000 -1.572209
90.650000 -1.503691
90.700000 -1.510543
90.750000 -1.537951
90.800000 -1.534524
90.850000 -1.582486
90.900000 -1.722948
90.950000 -1.894243
91.000000 -2.055260
91.050000 -2.226554
91.100000 -2.373867
91.150000 -2.462940
91.200000 -2.493773
91.250000 -2.486922
91.300000 -2.421829
91.350000 -2.298498
91.400000 -2.130630
91.450000 -1.959335
91.500000 -1.794892
91.550000 -1.633875
91.600000 -1.510543
91.650000 -1.445451
91.700000 -1.428321
91.750000 -1.448877
91.800000 -1.524247
91.850000 -1.640727
91.900000 -1.750356
91.950000 -1.832577
92.000000 -1.914798
92.050000 -1.990168
92.100000 -2.000445
92.150000 -1.955909
92.200000 -1.907946
92.250000 -1.839429
92.300000 -1.750356
92.350000 -1.668134
92.400000 -1.599617
92.450000 -1.534525
92.500000 -1.493414
92.550000 -1.476284
92.600000 -1.462580
92.650000 -1.455729
92.700000 -1.472859
92.750000 -1.500266
92.800000 -1.507118
92.850000 -1.517395
92.900000 -1.568784
92.950000 -1.640727
93.000000 -1.719522
93.050000 -1.815448
93.100000 -1.918224
93.150000 -2.007298
93.200000 -2.082667
93.250000 -2.154611
93.300000 -2.192295
93.350000 -2.188869
93.400000 -2.151185
93.450000 -2.086093
93.500000 -2.000445
93.550000 -1.911372
93.600000 -1.825725
93.650000 -1.764059
93.700000 -1.736652
93.750000 -1.712671
93.800000 -1.698967
93.850000 -1.698967
93.900000 -1.705819
93.950000 -1.709244
94.000000 -1.729800
94.050000 -1.736652
94.100000 -1.709245
94.150000 -1.688689
94.200000 -1.705819
94.250000 -1.726374
94.300000 -1.716097
94.350000 -1.716096
94.400000 -1.743503
94.450000 -1.788040
94.500000 -1.849707
94.550000 -1.911372
94.600000 -1.979890
94.650000 -2.051834
94.700000 -2.127204
94.750000 -2.168314
94.800000 -2.164889
94.850000 -2.144333
94.900000 -2.120352
94.950000 -2.065537
95.000000 -1.993593
95.050000 -1.931928
95.100000 -1.883965
95.150000 -1.846281
95.200000 -1.822299
95.250000 -1.815448
95.300000 -1.832577
95.350000 -1.877114
95.400000 -1.925076
95.450000 -1.979890
95.500000 -2.044982
95.550000 -2.096371
95.600000 -2.110074
95.650000 -2.116926
95.700000 -2.120351
95.750000 -2.103222
95.800000 -2.075815
95.850000 -2.062111
95.900000 -2.065537
95.950000 -2.051834
96.000000 -2.051834
96.050000 -2.062112
96.100000 -2.079241
96.150000 -2.116926
96.200000 -2.164888
96.250000 -2.209425
96.300000 -2.240257
96.350000 -2.271090
96.400000 -2.281368
96.450000 -2.277942
96.500000 -2.267665
96.550000 -2.233406
96.600000 -2.154611
96.650000 -2.051834
96.700000 -1.931928
96.750000 -1.794892
96.800000 -1.661283
96.850000 -1.537951
96.900000 -1.435173
96.950000 -1.373507
97.000000 -1.380359
97.050000 -1.424895
97.100000 -1.503691
97.150000 -1.627024
97.200000 -1.781188
97.250000 -1.928502
97.300000 -2.051834
97.350000 -2.137481
97.400000 -2.175165
97.450000 -2.164889
97.500000 -2.120351
97.550000 -2.038130
97.600000 -1.955909
97.650000 -1.877113
97.700000 -1.801743
97.750000 -1.777763
97.800000 -1.815447
97.850000 -1.863409
97.900000 -1.945631
97.950000 -2.099797
98.000000 -2.240257
98.050000 -2.305349
98.100000 -2.363590
98.150000 -2.411553
98.200000 -2.360163
98.250000 -2.250535
98.300000 -2.161462
98.350000 -2.034705
98.400000 -1.853132
98.450000 -1.726374
98.500000 -1.661283
98.550000 -1.603042
98.600000 -1.582487
98.650000 -1.609894
98.700000 -1.637301
98.750000 -1.695541
98.800000 -1.798318
98.850000 -1.863410
98.900000 -1.866835
98.950000 -1.866835
99.000000 -1.849706
99.050000 -1.774336
99.100000 -1.692116
99.150000 -1.613320
99.200000 -1.510543
99.250000 -1.428321
99.300000 -1.400914
99.350000 -1.366656
99.400000 -1.325545
99.450000 -1.346101
99.500000 -1.394063
99.550000 -1.407766
99.600000 -1.418044
99.650000 -1.445451
99.700000 -1.435173
99.750000 -1.397488
99.800000 -1.359804
99.850000 -1.287860
99.900000 -1.178232
99.950000 -1.089158
100.000000 -1.024067
100.050000 -0.979530
100.100000 -0.996659
100.150000 -1.082307
100.200000 -1.188509
100.250000 -1.352953
100.300000 -1.592765
100.350000 -1.815448
100.400000 -2.003872
100.450000 -2.188870
100.500000 -2.336182
100.550000 -2.387571
100.600000 -2.370441
100.650000 -2.319053
100.700000 -2.205999
100.750000 -2.038130
100.800000 -1.866835
100.850000 -1.692115
100.900000 -1.520821
100.950000 -1.404340
101.000000 -1.356378
101.050000 -1.359804
101.100000 -1.404340
101.150000 -1.489987
101.200000 -1.603042
101.250000 -1.719523
101.300000 -1.818874
101.350000 -1.890817
101.400000 -1.907946
101.450000 -1.890817
101.500000 -1.870262
101.550000 -1.842855
101.600000 -1.805169
101.650000 -1.764059
101.700000 -1.753782
101.750000 -1.774337
101.800000 -1.808595
101.850000 -1.890817
101.900000 -2.010723
101.950000 -2.151184
102.000000 -2.288220
102.050000 -2.418404
102.100000 -2.524607
102.150000 -2.575994
102.200000 -2.617105
102.250000 -2.647938
102.300000 -2.630809
102.350000 -2.569143
102.400000 -2.517755
102.450000 -2.483496
102.500000 -2.435533
102.550000 -2.356738
102.600000 -2.257387
102.650000 -2.151184
102.700000 -2.062111
102.750000 -2.000446
102.800000 -1.921650
102.850000 -1.825725
102.900000 -1.767485
102.950000 -1.760633
103.000000 -1.770910
103.050000 -1.788041
103.100000 -1.829151
103.150000 -1.887391
103.200000 -1.990167
103.250000 -2.127203
103.300000 -2.271091
103.350000 -2.404701
103.400000 -2.524606
103.450000 -2.610254
103.500000 -2.654791
103.550000 -2.661642
103.600000 -2.620532
103.650000 -2.521181
103.700000 -2.418404
103.750000 -2.305349
103.800000 -2.164888
103.850000 -2.051833
103.900000 -2.000446
103.950000 -1.962761
104.000000 -1.928501
104.050000 -1.966187
104.100000 -2.068963
104.150000 -2.151185
104.200000 -2.199147
104.250000 -2.247109
104.300000 -2.288220
104.350000 -2.284794
104.400000 -2.226554
104.450000 -2.134055
104.500000 -2.017575
104.550000 -1.866835
104.600000 -1.698967
104.650000 -1.568784
104.700000 -1.472858
104.750000 -1.376934
104.800000 -1.298138
104.850000 -1.277583
104.900000 -1.277583
104.950000 -1.267304
105.000000 -1.253601
105.050000 -1.257028
105.100000 -1.267305
105.150000 -1.274157
105.200000 -1.274156
105.250000 -1.260453
105.300000 -1.260453
105.350000 -1.267305
105.400000 -1.263879
105.450000 -1.260453
105.500000 -1.277583
105.550000 -1.294712
105.600000 -1.308415
105.650000 -1.315268
105.700000 -1.315267
105.750000 -1.294712
105.800000 -1.260453
105.850000 -1.246750
105.900000 -1.233046
105.950000 -1.226194
106.000000 -1.260453
106.050000 -1.339249
106.100000 -1.418044
106.150000 -1.489988
106.200000 -1.565357
106.250000 -1.627023
106.300000 -1.668134
106.350000 -1.692115
106.400000 -1.681838
106.450000 -1.630450
106.500000 -1.579061
106.550000 -1.537950
106.600000 -1.507117
106.650000 -1.489988
106.700000 -1.496839
106.750000 -1.558505
106.800000 -1.661282
106.850000 -1.781188
106.900000 -1.901095
106.950000 -2.017575
107.000000 -2.130629
107.050000 -2.212850
107.100000 -2.253962
107.150000 -2.271090
107.200000 -2.277942
107.250000 -2.253961
107.300000 -2.202573
107.350000 -2.158036
107.400000 -2.130630
107.450000 -2.113500
107.500000 -2.116926
107.550000 -2.151184
107.600000 -2.185443
107.650000 -2.202573
107.700000 -2.205998
107.750000 -2.182018
107.800000 -2.137481
107.850000 -2.055260
107.900000 -1.945631
107.950000 -1.822299
108.000000 -1.695541
108.050000 -1.565357
108.100000 -1.435173
108.150000 -1.335822
108.200000 -1.274157
108.250000 -1.239897
108.300000 -1.250176
108.350000 -1.318693
108.400000 -1.414618
108.450000 -1.510543
108.500000 -1.606468
108.550000 -1.722948
108.600000 -1.818873
108.650000 -1.846280
108.700000 -1.836002
108.750000 -1.801743
108.800000 -1.729800
108.850000 -1.630449
108.900000 -1.537950
108.950000 -1.455729
109.000000 -1.404340
109.050000 -1.404341
109.100000 -1.448877
109.150000 -1.507117
109.200000 -1.575635
109.250000 -1.678412
109.300000 -1.791466
109.350000 -1.880539
109.400000 -1.938779
109.450000 -1.986741
109.500000 -2.010723
109.550000 -1.986742
109.600000 -1.935353
109.650000 -1.907947
109.700000 -1.901095
109.750000 -1.870262
109.800000 -1.822299
109.850000 -1.801744
109.900000 -1.791466
109.950000 -1.736652
110.000000 -1.651004
110.050000 -1.589339
110.100000 -1.537950
110.150000 -1.462581
110.200000 -1.394063
110.250000 -1.373508
110.300000 -1.363230
110.350000 -1.346101
110.400000 -1.359804
110.450000 -1.404341
110.500000 -1.414618
110.550000 -1.404340
110.600000 -1.431747
110.650000 -1.493413
110.700000 -1.520821
110.750000 -1.507117
110.800000 -1.507117
110.850000 -1.534524
110.900000 -1.572209
110.950000 -1.592764
111.000000 -1.603042
111.050000 -1.637301
111.100000 -1.709244
111.150000 -1.788040
111.200000 -1.839429
111.250000 -1.894242
111.300000 -1.952483
111.350000 -1.976464
111.400000 -1.976464
111.450000 -1.976464
111.500000 -1.949057
111.550000 -1.883965
111.600000 -1.818873
111.650000 -1.743504
111.700000 -1.661282
111.750000 -1.596191
111.800000 -1.551653
111.850000 -1.496840
111.900000 -1.462581
111.950000 -1.452303
112.000000 -1.459155
112.050000 -1.486562
112.100000 -1.531098
112.150000 -1.558505
112.200000 -1.575636
112.250000 -1.579061
112.300000 -1.572209
112.350000 -1.565357
112.400000 -1.582487
112.450000 -1.620172
112.500000 -1.668134
112.550000 -1.729800
112.600000 -1.798318
112.650000 -1.866835
112.700000 -1.931928
112.750000 -1.962761
112.800000 -1.952482
112.850000 -1.931927
112.900000 -1.931928
112.950000 -1.907947
113.000000 -1.849706
113.050000 -1.777763
113.100000 -1.712671
113.150000 -1.664708
113.200000 -1.651004
113.250000 -1.664708
113.300000 -1.705819
113.350000 -1.774337
113.400000 -1.866836
113.450000 -1.955909
113.500000 -2.048408
113.550000 -2.137481
113.600000 -2.185443
113.650000 -2.171740
113.700000 -2.151185
113.750000 -2.113499
113.800000 -2.041557
113.850000 -1.952483
113.900000 -1.887391
113.950000 -1.825725
114.000000 -1.770911
114.050000 -1.733226
114.100000 -1.726375
114.150000 -1.750355
114.200000 -1.788040
114.250000 -1.822300
114.300000 -1.839429
114.350000 -1.842855
114.400000 -1.839429
114.450000 -1.825725
114.500000 -1.805169
114.550000 -1.784614
114.600000 -1.774337
114.650000 -1.774337
114.700000 -1.788040
114.750000 -1.798318
114.800000 -1.815447
114.850000 -1.849706
114.900000 -1.866836
114.950000 -1.890817
115.000000 -1.952483
115.050000 -2.021000
115.100000 -2.034704
115.150000 -2.027852
115.200000 -2.038130
115.250000 -2.055259
115.300000 -2.062111
115.350000 -2.062112
115.400000 -2.051834
115.450000 -2.051834
115.500000 -2.072389
115.550000 -2.058686
115.600000 -1.993594
115.650000 -1.935353
115.700000 -1.890817
115.750000 -1.818874
115.800000 -1.736652
115.850000 -1.674986
115.900000 -1.603042
115.950000 -1.524247
116.000000 -1.496839
116.050000 -1.513969
116.100000 -1.531098
116.150000 -1.565357
116.200000 -1.616746
116.250000 -1.671560
116.300000 -1.702393
116.350000 -1.705819
116.400000 -1.695541
116.450000 -1.678412
116.500000 -1.620171
116.550000 -1.489988
116.600000 -1.346101
116.650000 -1.233046
116.700000 -1.109714
116.750000 -0.982956
116.800000 -0.924716
116.850000 -0.938419
116.900000 -0.972678
116.950000 -1.037770
117.000000 -1.161102
117.050000 -1.346101
117.100000 -1.572209
117.150000 -1.808596
117.200000 -2.007297
117.250000 -2.168314
117.300000 -2.291646
117.350000 -2.367016
117.400000 -2.373868
117.450000 -2.332756
117.500000 -2.250535
117.550000 -2.127203
117.600000 -1.993594
117.650000 -1.870262
117.700000 -1.781188
117.750000 -1.726374
117.800000 -1.702393
117.850000 -1.726374
117.900000 -1.788040
117.950000 -1.873687
118.000000 -1.959335
118.050000 -2.051834
118.100000 -2.127203
118.150000 -2.140907
118.200000 -2.079241
118.250000 -1.990167
118.300000 -1.873687
118.350000 -1.712671
118.400000 -1.541376
118.450000 -1.390637
118.500000 -1.263879
118.550000 -1.185084
118.600000 -1.212491
118.650000 -1.315267
118.700000 -1.448877
118.750000 -1.630449
118.800000 -1.836003
118.850000 -2.024426
118.900000 -2.161463
118.950000 -2.247110
119.000000 -2.226554
119.050000 -2.110074
119.100000 -1.962761
119.150000 -1.784614
119.200000 -1.548228
119.250000 -1.301564
119.300000 -1.106288
119.350000 -0.948697
119.400000 -0.825365
119.450000 -0.770551
119.500000 -0.787680
119.550000 -0.821939
119.600000 -0.873327
119.650000 -0.941846
119.700000 -1.003511
119.750000 -1.041196
119.800000 -1.044622
119.850000 -1.041196
119.900000 -1.037770
119.950000 -1.006937
120.000000 -0.976104
120.050000 -1.010363
120.100000 -1.106288
120.150000 -1.188509
120.200000 -1.277583
120.250000 -1.421470
120.300000 -1.572209
120.350000 -1.695541
120.400000 -1.808596
120.450000 -1.935353
120.500000 -2.041556
120.550000 -2.103222
120.600000 -2.116926
120.650000 -2.099797
120.700000 -2.062112
120.750000 -2.010723
120.800000 -1.921650
120.850000 -1.798318
120.900000 -1.654431
120.950000 -1.524247
121.000000 -1.400915
121.050000 -1.277582
121.100000 -1.147398
121.150000 -1.044622
121.200000 -0.989808
121.250000 -0.976105
121.300000 -0.986381
121.350000 -1.027493
121.400000 -1.119991
121.450000 -1.236471
121.500000 -1.370081
121.550000 -1.517395
121.600000 -1.671560
121.650000 -1.836003
121.700000 -1.983316
121.750000 -2.079241
121.800000 -2.127203
121.850000 -2.140907
121.900000 -2.113500
121.950000 -2.062111
122.000000 -2.021001
122.050000 -1.990168
122.100000 -1.942205
122.150000 -1.880539
122.200000 -1.836003
122.250000 -1.818873
122.300000 -1.815447
122.350000 -1.825725
122.400000 -1.849706
122.450000 -1.880539
122.500000 -1.904520
122.550000 -1.904520
122.600000 -1.897668
122.650000 -1.901095
122.700000 -1.904520
122.750000 -1.883965
122.800000 -1.842854
122.850000 -1.812022
122.900000 -1.770910
122.950000 -1.736652
123.000000 -1.746929
123.050000 -1.784615
123.100000 -1.805170
123.150000 -1.818873
123.200000 -1.842855
123.250000 -1.873687
123.300000 -1.911373
123.350000 -1.952483
123.400000 -1.993593
123.450000 -2.051834
123.500000 -2.116926
123.550000 -2.164889
123.600000 -2.168314
123.650000 -2.158037
123.700000 -2.134055
123.750000 -2.086093
123.800000 -2.027852
123.850000 -1.962760
123.900000 -1.866836
123.950000 -1.750355
124.000000 -1.630450
124.050000 -1.524247
124.100000 -1.414619
124.150000 -1.315267
124.200000 -1.250175
124.250000 -1.236472
124.300000 -1.243324
124.350000 -1.260454
124.400000 -1.315267
124.450000 -1.438599
124.500000 -1.585913
124.550000 -1.722948
124.600000 -1.887391
124.650000 -2.065537
124.700000 -2.192296
124.750000 -2.284794
124.800000 -2.367016
124.850000 -2.370442
124.900000 -2.274517
124.950000 -2.137481
125.000000 -1.983316
125.050000 -1.784614
125.100000 -1.579061
125.150000 -1.404341
125.200000 -1.267305
125.250000 -1.161103
125.300000 -1.096010
125.350000 -1.089158
125.400000 -1.143972
125.450000 -1.239898
125.500000 -1.349526
125.550000 -1.459155
125.600000 -1.572209
125.650000 -1.668134
125.700000 -1.743504
125.750000 -1.815447
125.800000 -1.877114
125.850000 -1.897669
125.900000 -1.866835
125.950000 -1.832577
126.000000 -1.801744
126.050000 -1.743503
126.100000 -1.647579
126.150000 -1.544802
126.200000 -1.466006
126.250000 -1.404341
126.300000 -1.325545
126.350000 -1.233046
126.400000 -1.171380
126.450000 -1.147399
126.500000 -1.161103
126.550000 -1.243324
126.600000 -1.390637
126.650000 -1.582486
126.700000 -1.801743
126.750000 -2.034704
126.800000 -2.236832
126.850000 -2.373868
126.900000 -2.486922
126.950000 -2.552014
127.000000 -2.528033
127.050000 -2.452663
127.100000 -2.339608
127.150000 -2.140907
127.200000 -1.894242
127.250000 -1.674986
127.300000 -1.476284
127.350000 -1.281008
127.400000 -1.147399
127.450000 -1.106288
127.500000 -1.119992
127.550000 -1.171380
127.600000 -1.298138
127.650000 -1.472858
127.700000 -1.647579
127.750000 -1.832577
127.800000 -2.014149
127.850000 -2.168314
127.900000 -2.264239
127.950000 -2.315627
128.000000 -2.329331
128.050000 -2.281369
128.100000 -2.171740
128.150000 -2.041556
128.200000 -1.931928
128.250000 -1.832577
128.300000 -1.726374
128.350000 -1.668134
128.400000 -1.685263
128.450000 -1.733226
128.500000 -1.791466
128.550000 -1.877113
128.600000 -1.966186
128.650000 -2.014149
128.700000 -2.055260
128.750000 -2.048408
128.800000 -1.966186
128.850000 -1.853132
128.900000 -1.764059
128.950000 -1.651005
129.000000 -1.489988
129.050000 -1.366656
129.100000 -1.318693
129.150000 -1.287861
129.200000 -1.267305
129.250000 -1.308415
129.300000 -1.400915
129.350000 -1.489987
129.400000 -1.572209
129.450000 -1.661283
129.500000 -1.733226
129.550000 -1.764059
129.600000 -1.736652
129.650000 -1.657857
129.700000 -1.599616
129.750000 -1.568783
129.800000 -1.513969
129.850000 -1.435173
129.900000 -1.404341
129.950000 -1.404341
130.000000 -1.421470
130.050000 -1.472858
130.100000 -1.548227
130.150000 -1.596190
130.200000 -1.668134
130.250000 -1.784615
130.300000 -1.870262
130.350000 -1.890817
130.400000 -1.894243
130.450000 -1.883965
130.500000 -1.849707
130.550000 -1.794892
130.600000 -1.729800
130.650000 -1.668134
130.700000 -1.623597
130.750000 -1.596190
130.800000 -1.582487
130.850000 -1.623598
130.900000 -1.722948
130.950000 -1.815447
131.000000 -1.904521
131.050000 -2.027852
131.100000 -2.158036
131.150000 -2.219702
131.200000 -2.233406
131.250000 -2.236832
131.300000 -2.209425
131.350000 -2.137481
131.400000 -2.038130
131.450000 -1.918224
131.500000 -1.767485
131.550000 -1.623597
131.600000 -1.500266
131.650000 -1.397489
131.700000 -1.270731
131.750000 -1.130269
131.800000 -1.010363
131.850000 -0.917864
131.900000 -0.852773
131.950000 -0.801384
132.000000 -0.787681
132.050000 -0.815088
132.100000 -0.873328
132.150000 -0.948697
132.200000 -1.061752
132.250000 -1.195362
132.300000 -1.332397
132.350000 -1.486562
132.400000 -1.657856
132.450000 -1.791466
132.500000 -1.863410
132.550000 -1.911372
132.600000 -1.945631
132.650000 -1.935354
132.700000 -1.890817
132.750000 -1.842855
132.800000 -1.791466
132.850000 -1.753782
132.900000 -1.736652
132.950000 -1.736652
133.000000 -1.764059
133.050000 -1.825725
133.100000 -1.894243
133.150000 -1.942205
133.200000 -1.983316
133.250000 -2.017575
133.300000 -2.034704
133.350000 -2.051834
133.400000 -2.065538
133.450000 -2.038130
133.500000 -1.973038
133.550000 -1.897669
133.600000 -1.829151
133.650000 -1.767485
133.700000 -1.705819
133.750000 -1.630449
133.800000 -1.551654
133.850000 -1.489988
133.900000 -1.431747
133.950000 -1.366656
134.000000 -1.298138
134.050000 -1.236472
134.100000 -1.181658
134.150000 -1.123417
134.200000 -1.082307
134.250000 -1.058325
134.300000 -1.072029
134.350000 -1.119992
134.400000 -1.181658
134.450000 -1.253602
134.500000 -1.322119
134.550000 -1.383785
134.600000 -1.455729
134.650000 -1.513969
134.700000 -1.544802
134.750000 -1.558506
134.800000 -1.572209
134.850000 -1.579061
134.900000 -1.589339
134.950000 -1.606468
135.000000 -1.603042
135.050000 -1.592764
135.100000 -1.609894
135.150000 -1.644153
135.200000 -1.661282
135.250000 -1.681838
135.300000 -1.712671
135.350000 -1.736652
135.400000 -1.736652
135.450000 -1.716096
135.500000 -1.709245
135.550000 -1.698967
135.600000 -1.664708
135.650000 -1.637301
135.700000 -1.657856
135.750000 -1.698967
135.800000 -1.743504
135.850000 -1.812021
135.900000 -1.894243
135.950000 -1.952483
136.000000 -2.014149
136.050000 -2.092944
136.100000 -2.137481
136.150000 -2.137481
136.200000 -2.140907
136.250000 -2.134055
136.300000 -2.089518
136.350000 -2.021000
136.400000 -1.973038
136.450000 -1.925076
136.500000 -1.866836
136.550000 -1.822299
136.600000 -1.784614
136.650000 -1.774337
136.700000 -1.774337
136.750000 -1.770910
136.800000 -1.767485
136.850000 -1.788040
136.900000 -1.812022
136.950000 -1.791466
137.000000 -1.733226
137.050000 -1.685264
137.100000 -1.647579
137.150000 -1.616745
137.200000 -1.606468
137.250000 -1.606468
137.300000 -1.582487
137.350000 -1.561931
137.400000 -1.575635
137.450000 -1.575635
137.500000 -1.531098
137.550000 -1.500265
137.600000 -1.507117
137.650000 -1.531098
137.700000 -1.558505
137.750000 -1.596191
137.800000 -1.633875
137.850000 -1.698967
137.900000 -1.815447
137.950000 -1.938780
138.000000 -2.034705
138.050000 -2.134055
138.100000 -2.240258
138.150000 -2.305350
138.200000 -2.332756
138.250000 -2.360164
138.300000 -2.356737
138.350000 -2.277943
138.400000 -2.147758
138.450000 -2.048408
138.500000 -1.959335
138.550000 -1.849706
138.600000 -1.743504
138.650000 -1.685264
138.700000 -1.654430
138.750000 -1.613320
138.800000 -1.579061
138.850000 -1.599617
138.900000 -1.657857
138.950000 -1.716096
139.000000 -1.770911
139.050000 -1.839429
139.100000 -1.883965
139.150000 -1.918224
139.200000 -1.945631
139.250000 -1.949057
139.300000 -1.907946
139.350000 -1.856558
139.400000 -1.801744
139.450000 -1.736652
139.500000 -1.681838
139.550000 -1.644152
139.600000 -1.613320
139.650000 -1.606468
139.700000 -1.637301
139.750000 -1.681838
139.800000 -1.722948
139.850000 -1.781188
139.900000 -1.853132
139.950000 -1.928502
140.000000 -2.010723
140.050000 -2.106648
140.100000 -2.192295
140.150000 -2.264238
140.200000 -2.349886
140.250000 -2.442385
140.300000 -2.486922
140.350000 -2.507477
140.400000 -2.517755
140.450000 -2.493773
140.500000 -2.418404
140.550000 -2.308776
140.600000 -2.134055
140.650000 -1.911373
140.700000 -1.695541
140.750000 -1.496840
140.800000 -1.311842
140.850000 -1.167954
140.900000 -1.099436
140.950000 -1.078881
141.000000 -1.109714
141.050000 -1.202213
141.100000 -1.335823
141.150000 -1.489988
141.200000 -1.633875
141.250000 -1.750355
141.300000 -1.825725
141.350000 -1.863410
141.400000 -1.849706
141.450000 -1.788040
141.500000 -1.692116
141.550000 -1.589338
141.600000 -1.493414
141.650000 -1.411192
141.700000 -1.332397
141.750000 -1.277582
141.800000 -1.274156
141.850000 -1.304989
141.900000 -1.332397
141.950000 -1.373508
142.000000 -1.472859
142.050000 -1.585913
142.100000 -1.671560
142.150000 -1.743504
142.200000 -1.815448
142.250000 -1.859984
142.300000 -1.890817
142.350000 -1.918224
142.400000 -1.935354
142.450000 -1.928502
142.500000 -1.901095
142.550000 -1.839429
142.600000 -1.791466
142.650000 -1.757207
142.700000 -1.692116
142.750000 -1.613320
142.800000 -1.558506
142.850000 -1.493414
142.900000 -1.394063
142.950000 -1.291286
143.000000 -1.209065
143.050000 -1.130269
143.100000 -1.065177
143.150000 -1.048048
143.200000 -1.092585
143.250000 -1.212491
143.300000 -1.370082
143.350000 -1.524247
143.400000 -1.695542
143.450000 -1.873687
143.500000 -2.003872
143.550000 -2.072389
143.600000 -2.120352
143.650000 -2.134055
143.700000 -2.072389
143.750000 -1.983316
143.800000 -1.911372
143.850000 -1.825725
143.900000 -1.729800
143.950000 -1.664709
144.000000 -1.616745
144.050000 -1.579061
144.100000 -1.585913
144.150000 -1.627024
144.200000 -1.647579
144.250000 -1.637301
144.300000 -1.616746
144.350000 -1.575635
144.400000 -1.520821
144.450000 -1.469433
144.500000 -1.404340
144.550000 -1.356378
144.600000 -1.342674
144.650000 -1.352953
144.700000 -1.387211
144.750000 -1.445452
144.800000 -1.496840
144.850000 -1.531099
144.900000 -1.603042
144.950000 -1.705819
145.000000 -1.777762
145.050000 -1.842855
145.100000 -1.938779
145.150000 -2.003872
145.200000 -2.014149
145.250000 -2.048408
145.300000 -2.110074
145.350000 -2.123778
145.400000 -2.110074
145.450000 -2.103222
145.500000 -2.075815
145.550000 -2.014149
145.600000 -1.962761
145.650000 -1.907947
145.700000 -1.818873
145.750000 -1.698967
145.800000 -1.572209
145.850000 -1.455729
145.900000 -1.356378
145.950000 -1.253601
146.000000 -1.154251
146.050000 -1.109714
146.100000 -1.116566
146.150000 -1.102862
146.200000 -1.099437
146.250000 -1.185084
146.300000 -1.318694
146.350000 -1.445451
146.400000 -1.572209
146.450000 -1.716096
146.500000 -1.846280
146.550000 -1.945631
146.600000 -1.997020
146.650000 -1.976464
146.700000 -1.901095
146.750000 -1.798318
146.800000 -1.681838
146.850000 -1.555079
146.900000 -1.407766
146.950000 -1.270730
147.000000 -1.171380
147.050000 -1.113140
147.100000 -1.085732
147.150000 -1.113140
147.200000 -1.198787
147.250000 -1.301564
147.300000 -1.400915
147.350000 -1.513969
147.400000 -1.630449
147.450000 -1.736652
147.500000 -1.842855
147.550000 -1.918224
147.600000 -1.928502
147.650000 -1.894243
147.700000 -1.849706
147.750000 -1.777762
147.800000 -1.692116
147.850000 -1.640727
147.900000 -1.579061
147.950000 -1.469432
148.000000 -1.370082
148.050000 -1.315267
148.100000 -1.246750
148.150000 -1.154250
148.200000 -1.089159
148.250000 -1.054900
148.300000 -1.027492
148.350000 -1.020641
148.400000 -1.044622
148.450000 -1.096010
148.500000 -1.185084
148.550000 -1.308416
148.600000 -1.421470
148.650000 -1.537950
148.700000 -1.678412
148.750000 -1.801744
148.800000 -1.870262
148.850000 -1.945631
148.900000 -2.014149
148.950000 -2.000445
149.000000 -1.935353
149.050000 -1.897669
149.100000 -1.870262
149.150000 -1.825725
149.200000 -1.805169
149.250000 -1.836003
149.300000 -1.866836
149.350000 -1.901094
149.400000 -1.962760
149.450000 -2.014149
149.500000 -2.010723
149.550000 -1.969612
149.600000 -1.931927
149.650000 -1.877113
149.700000 -1.794892
149.750000 -1.702393
149.800000 -1.640727
149.850000 -1.596191
149.900000 -1.531098
149.950000 -1.479710
150.000000 -1.479710
150.050000 -1.489988
150.100000 -1.489988
150.150000 -1.479710
150.200000 -1.469432
150.250000 -1.448878
150.300000 -1.438599
150.350000 -1.455729
150.400000 -1.469432
150.450000 -1.462581
150.500000 -1.469432
150.550000 -1.517395
150.600000 -1.592765
150.650000 -1.661283
150.700000 -1.722948
150.750000 -1.784614
150.800000 -1.832577
150.850000 -1.856558
150.900000 -1.863410
150.950000 -1.849707
151.000000 -1.798318
151.050000 -1.726374
151.100000 -1.644153
151.150000 -1.568783
151.200000 -1.510543
151.250000 -1.472858
151.300000 -1.466007
151.350000 -1.489988
151.400000 -1.541376
151.450000 -1.575635
151.500000 -1.572209
151.550000 -1.561932
151.600000 -1.558505
151.650000 -1.544802
151.700000 -1.486562
151.750000 -1.407767
151.800000 -1.335822
151.850000 -1.274156
151.900000 -1.209065
151.950000 -1.171380
152.000000 -1.195361
152.050000 -1.263879
152.100000 -1.342674
152.150000 -1.455729
152.200000 -1.627024
152.250000 -1.825725
152.300000 -2.000446
152.350000 -2.158037
152.400000 -2.284794
152.450000 -2.373867
152.500000 -2.418404
152.550000 -2.397849
152.600000 -2.315628
152.650000 -2.182018
152.700000 -2.017575
152.750000 -1.815447
152.800000 -1.620171
152.850000 -1.438599
152.900000 -1.260453
152.950000 -1.126844
153.000000 -1.054900
153.050000 -1.017215
153.100000 -1.010364
153.150000 -1.065178
153.200000 -1.171380
153.250000 -1.267305
153.300000 -1.356378
153.350000 -1.428322
153.400000 -1.476284
153.450000 -1.510543
153.500000 -1.513969
153.550000 -1.452303
153.600000 -1.380359
153.650000 -1.335823
153.700000 -1.263879
153.750000 -1.154250
153.800000 -1.072029
153.850000 -1.027492
153.900000 -1.003511
153.950000 -1.017215
154.000000 -1.085733
154.050000 -1.174806
154.100000 -1.270731
154.150000 -1.400915
154.200000 -1.537950
154.250000 -1.644153
154.300000 -1.722949
154.350000 -1.753781
154.400000 -1.740077
154.450000 -1.716096
154.500000 -1.681838
154.550000 -1.606468
154.600000 -1.537950
154.650000 -1.524247
154.700000 -1.548228
154.750000 -1.613319
154.800000 -1.719523
154.850000 -1.870261
154.900000 -2.038130
154.950000 -2.216277
155.000000 -2.387571
155.050000 -2.514329
155.100000 -2.582847
155.150000 -2.579421
155.200000 -2.483496
155.250000 -2.325904
155.300000 -2.140907
155.350000 -1.921650
155.400000 -1.664708
155.450000 -1.438599
155.500000 -1.267304
155.550000 -1.133695
155.600000 -1.048047
155.650000 -1.030918
155.700000 -1.096010
155.750000 -1.222769
155.800000 -1.383786
155.850000 -1.551654
155.900000 -1.705818
155.950000 -1.863410
156.000000 -2.014149
156.050000 -2.127203
156.100000 -2.182017
156.150000 -2.195721
156.200000 -2.192296
156.250000 -2.161462
156.300000 -2.092944
156.350000 -2.000445
156.400000 -1.921650
156.450000 -1.859984
156.500000 -1.788040
156.550000 -1.705819
156.600000 -1.640727
156.650000 -1.599616
156.700000 -1.544802
156.750000 -1.476284
156.800000 -1.424896
156.850000 -1.407766
156.900000 -1.397488
156.950000 -1.373507
157.000000 -1.390637
157.050000 -1.476285
157.100000 -1.589339
157.150000 -1.695541
157.200000 -1.812021
157.250000 -1.925076
157.300000 -2.000446
157.350000 -2.055260
157.400000 -2.120351
157.450000 -2.123777
157.500000 -2.068963
157.550000 -2.027853
157.600000 -2.003871
157.650000 -1.945631
157.700000 -1.901094
157.750000 -1.897669
157.800000 -1.894243
157.850000 -1.904520
157.900000 -1.969613
157.950000 -2.024426
158.000000 -2.017575
158.050000 -2.010723
158.100000 -1.997019
158.150000 -1.904520
158.200000 -1.805170
158.250000 -1.753781
158.300000 -1.688689
158.350000 -1.609894
158.400000 -1.606468
158.450000 -1.668134
158.500000 -1.733226
158.550000 -1.829151
158.600000 -1.983316
158.650000 -2.137481
158.700000 -2.253961
158.750000 -2.343034
158.800000 -2.394423
158.850000 -2.387571
158.900000 -2.329331
158.950000 -2.209424
159.000000 -2.051834
159.050000 -1.887391
159.100000 -1.733226
159.150000 -1.582487
159.200000 -1.483136
159.250000 -1.448878
159.300000 -1.435174
159.350000 -1.428322
159.400000 -1.445451
159.450000 -1.493413
159.500000 -1.551654
159.550000 -1.599617
159.600000 -1.616746
159.650000 -1.592764
159.700000 -1.561931
159.750000 -1.544802
159.800000 -1.503691
159.850000 -1.442025
159.900000 -1.411192
159.950000 -1.421470
160.000000 -1.435174
160.050000 -1.448877
160.100000 -1.462581
160.150000 -1.476284
160.200000 -1.496840
160.250000 -1.551654
160.300000 -1.620171
160.350000 -1.640727
160.400000 -1.640727
160.450000 -1.674985
160.500000 -1.729800
160.550000 -1.743503
160.600000 -1.726374
160.650000 -1.709245
160.700000 -1.702393
160.750000 -1.688689
160.800000 -1.651005
160.850000 -1.603042
160.900000 -1.561932
160.950000 -1.524246
161.000000 -1.479710
161.050000 -1.466006
161.100000 -1.489988
161.150000 -1.517395
161.200000 -1.541376
161.250000 -1.603042
161.300000 -1.688690
161.350000 -1.760633
161.400000 -1.791466
161.450000 -1.808595
161.500000 -1.808596
161.550000 -1.764059
161.600000 -1.681838
161.650000 -1.585912
161.700000 -1.496840
161.750000 -1.418044
161.800000 -1.363230
161.850000 -1.342674
161.900000 -1.342674
161.950000 -1.370082
162.000000 -1.428322
162.050000 -1.510544
162.100000 -1.575635
162.150000 -1.630449
162.200000 -1.685263
162.250000 -1.712671
162.300000 -1.692116
162.350000 -1.661282
162.400000 -1.651005
162.450000 -1.630449
162.500000 -1.579061
162.550000 -1.534524
162.600000 -1.496840
162.650000 -1.448877
162.700000 -1.373507
162.750000 -1.274156
162.800000 -1.157676
162.850000 -1.037770
162.900000 -0.911012
162.950000 -0.784255
163.000000 -0.681477
163.050000 -0.623238
163.100000 -0.599256
163.150000 -0.616385
163.200000 -0.681478
163.250000 -0.821940
163.300000 -1.030919
163.350000 -1.274157
163.400000 -1.520820
163.450000 -1.784614
163.500000 -2.041556
163.550000 -2.223128
163.600000 -2.325905
163.650000 -2.404701
163.700000 -2.438959
163.750000 -2.384145
163.800000 -2.271091
163.850000 -2.140907
163.900000 -1.993594
163.950000 -1.825725
164.000000 -1.654430
164.050000 -1.500265
164.100000 -1.359804
164.150000 -1.270730
164.200000 -1.239898
164.250000 -1.260453
164.300000 -1.291286
164.350000 -1.339249
164.400000 -1.414618
164.450000 -1.507117
164.500000 -1.568783
164.550000 -1.565358
164.600000 -1.531098
164.650000 -1.496840
164.700000 -1.424896
164.750000 -1.311842
164.800000 -1.202213
164.850000 -1.116566
164.900000 -1.027493
164.950000 -0.965826
165.000000 -0.962401
165.050000 -1.017215
165.100000 -1.137121
165.150000 -1.315267
165.200000 -1.531098
165.250000 -1.764059
165.300000 -1.997019
165.350000 -2.182018
165.400000 -2.274517
165.450000 -2.312201
165.500000 -2.288220
165.550000 -2.161463
165.600000 -1.976464
165.650000 -1.781188
165.700000 -1.589339
165.750000 -1.411193
165.800000 -1.274156
165.850000 -1.185083
165.900000 -1.147398
165.950000 -1.157676
166.000000 -1.205639
166.050000 -1.294712
166.100000 -1.411192
166.150000 -1.520821
166.200000 -1.609894
166.250000 -1.688689
166.300000 -1.746929
166.350000 -1.760633
166.400000 -1.757207
166.450000 -1.770910
166.500000 -1.791466
166.550000 -1.812022
166.600000 -1.846281
166.650000 -1.904520
166.700000 -1.983315
166.750000 -2.062111
166.800000 -2.116925
166.850000 -2.123777
166.900000 -2.096370
166.950000 -2.058686
167.000000 -1.986742
167.050000 -1.873687
167.100000 -1.757207
167.150000 -1.664708
167.200000 -1.579061
167.250000 -1.500266
167.300000 -1.455729
167.350000 -1.448878
167.400000 -1.445451
167.450000 -1.448877
167.500000 -1.466007
167.550000 -1.462580
167.600000 -1.445451
167.650000 -1.462581
167.700000 -1.459154
167.750000 -1.387211
167.800000 -1.301564
167.850000 -1.263879
167.900000 -1.215916
167.950000 -1.143973
168.000000 -1.085733
168.050000 -1.044622
168.100000 -1.010363
168.150000 -0.989808
168.200000 -0.979530
168.250000 -0.976104
168.300000 -0.996660
168.350000 -1.058326
168.400000 -1.137121
168.450000 -1.229620
168.500000 -1.339248
168.550000 -1.448877
168.600000 -1.555080
168.650000 -1.674986
168.700000 -1.781188
168.750000 -1.839428
168.800000 -1.887391
168.850000 -1.935354
168.900000 -1.935354
168.950000 -1.859984
169.000000 -1.770911
169.050000 -1.668134
169.100000 -1.537950
169.150000 -1.418044
169.200000 -1.332397
169.250000 -1.229620
169.300000 -1.126843
169.350000 -1.075455
169.400000 -1.072029
169.450000 -1.119992
169.500000 -1.205638
169.550000 -1.281009
169.600000 -1.339249
169.650000 -1.452303
169.700000 -1.596190
169.750000 -1.685264
169.800000 -1.750356
169.850000 -1.839428
169.900000 -1.904520
169.950000 -1.928501
170.000000 -1.973038
170.050000 -2.010723
170.100000 -2.010723
170.150000 -2.014149
170.200000 -2.021000
170.250000 -1.983316
170.300000 -1.952483
170.350000 -1.959334
170.400000 -1.931928
170.450000 -1.849706
170.500000 -1.788040
170.550000 -1.777762
170.600000 -1.753781
170.650000 -1.712670
170.700000 -1.705819
170.750000 -1.726375
170.800000 -1.746930
170.850000 -1.767485
170.900000 -1.788041
170.950000 -1.812021
171.000000 -1.822299
171.050000 -1.825725
171.100000 -1.839428
171.150000 -1.856558
171.200000 -1.866836
171.250000 -1.887391
171.300000 -1.911372
171.350000 -1.921650
171.400000 -1.928502
171.450000 -1.959335
171.500000 -1.990168
171.550000 -1.962761
171.600000 -1.907946
171.650000 -1.829151
171.700000 -1.712671
171.750000 -1.575635
171.800000 -1.462581
171.850000 -1.359804
171.900000 -1.243324
171.950000 -1.150824
172.000000 -1.126843
172.050000 -1.133695
172.100000 -1.164528
172.150000 -1.239898
172.200000 -1.301563
172.250000 -1.304990
172.300000 -1.308416
172.350000 -1.328971
172.400000 -1.301564
172.450000 -1.236472
172.500000 -1.181657
172.550000 -1.113140
172.600000 -1.030918
172.650000 -1.000086
172.700000 -1.024067
172.750000 -1.072029
172.800000 -1.188509
172.850000 -1.346100
172.900000 -1.493414
172.950000 -1.661282
173.000000 -1.873687
173.050000 -2.062111
173.100000 -2.192295
173.150000 -2.305350
173.200000 -2.404700
173.250000 -2.449237
173.300000 -2.462941
173.350000 -2.449237
173.400000 -2.384145
173.450000 -2.305350
173.500000 -2.223128
173.550000 -2.110074
173.600000 -1.990168
173.650000 -1.894243
173.700000 -1.788040
173.750000 -1.661283
173.800000 -1.565357
173.850000 -1.486562
173.900000 -1.373507
173.950000 -1.267305
174.000000 -1.215917
174.050000 -1.185084
174.100000 -1.157676
174.150000 -1.174806
174.200000 -1.226195
174.250000 -1.270731
174.300000 -1.328971
174.350000 -1.431748
174.400000 -1.534525
174.450000 -1.596191
174.500000 -1.651004
174.550000 -1.716096
174.600000 -1.757207
174.650000 -1.757207
174.700000 -1.746930
174.750000 -1.750356
174.800000 -1.750355
174.850000 -1.736652
174.900000 -1.729801
174.950000 -1.753781
175.000000 -1.777762
175.050000 -1.784614
175.100000 -1.808596
175.150000 -1.822300
175.200000 -1.805170
175.250000 -1.781188
175.300000 -1.788040
175.350000 -1.774337
175.400000 -1.712670
175.450000 -1.671560
175.500000 -1.657857
175.550000 -1.616745
175.600000 -1.551654
175.650000 -1.510543
175.700000 -1.483136
175.750000 -1.452302
175.800000 -1.442025
175.850000 -1.448877
175.900000 -1.455729
175.950000 -1.476285
176.000000 -1.500266
176.050000 -1.513969
176.100000 -1.534524
176.150000 -1.596190
176.200000 -1.681837
176.250000 -1.784614
176.300000 -1.897669
176.350000 -1.997020
176.400000 -2.079241
176.450000 -2.171740
176.500000 -2.240258
176.550000 -2.257387
176.600000 -2.243684
176.650000 -2.236832
176.700000 -2.212850
176.750000 -2.158036
176.800000 -2.113500
176.850000 -2.092944
176.900000 -2.068963
176.950000 -2.048408
177.000000 -2.034705
177.050000 -2.010723
177.100000 -1.976465
177.150000 -1.945631
177.200000 -1.904521
177.250000 -1.873688
177.300000 -1.880540
177.350000 -1.887391
177.400000 -1.880539
177.450000 -1.907946
177.500000 -1.952482
177.550000 -1.976464
177.600000 -1.997019
177.650000 -2.044982
177.700000 -2.055260
177.750000 -1.990168
177.800000 -1.901095
177.850000 -1.791467
177.900000 -1.630449
177.950000 -1.452303
178.000000 -1.311841
178.050000 -1.191936
178.100000 -1.085733
178.150000 -1.024067
178.200000 -1.010363
178.250000 -1.041196
178.300000 -1.143973
178.350000 -1.318693
178.400000 -1.510543
178.450000 -1.698967
178.500000 -1.890817
178.550000 -2.068964
178.600000 -2.212851
178.650000 -2.322479
178.700000 -2.384145
178.750000 -2.377293
178.800000 -2.322479
178.850000 -2.236832
178.900000 -2.106648
178.950000 -1.942206
179.000000 -1.767485
179.050000 -1.565357
179.100000 -1.373507
179.150000 -1.215917
179.200000 -1.089158
179.250000 -0.979530
179.300000 -0.941845
179.350000 -0.996660
179.400000 -1.065178
179.450000 -1.140547
179.500000 -1.274157
179.550000 -1.445451
179.600000 -1.609894
179.650000 -1.777763
179.700000 -1.928502
179.750000 -2.024426
179.800000 -2.079241
179.850000 -2.092944
179.900000 -2.055260
179.950000 -1.973038
180.000000 -1.859984
180.050000 -1.709245
180.100000 -1.565357
180.150000 -1.472859
180.200000 -1.414618
180.250000 -1.335823
180.300000 -1.277583
180.350000 -1.270730
180.400000 -1.315267
180.450000 -1.383785
180.500000 -1.455729
180.550000 -1.524247
180.600000 -1.606468
180.650000 -1.688689
180.700000 -1.722948
180.750000 -1.692116
180.800000 -1.644153
180.850000 -1.630449
180.900000 -1.616746
180.950000 -1.565357
181.000000 -1.517395
181.050000 -1.517395
181.100000 -1.541376
181.150000 -1.555080
181.200000 -1.582487
181.250000 -1.627024
181.300000 -1.668134
181.350000 -1.729800
181.400000 -1.818873
181.450000 -1.883965
181.500000 -1.921650
181.550000 -1.966186
181.600000 -2.017575
181.650000 -2.038130
181.700000 -2.038130
181.750000 -2.010723
181.800000 -1.955909
181.850000 -1.894242
181.900000 -1.818873
181.950000 -1.722948
182.000000 -1.613320
182.050000 -1.534524
182.100000 -1.466006
182.150000 -1.380359
182.200000 -1.339248
182.250000 -1.339249
182.300000 -1.342674
182.350000 -1.356378
182.400000 -1.404341
182.450000 -1.455729
182.500000 -1.483136
182.550000 -1.527673
182.600000 -1.609894
182.650000 -1.688690
182.700000 -1.764059
182.750000 -1.846280
182.800000 -1.945631
182.850000 -2.048408
182.900000 -2.147758
182.950000 -2.216276
183.000000 -2.240258
183.050000 -2.236831
183.100000 -2.223128
183.150000 -2.154611
183.200000 -2.024427
183.250000 -1.883965
183.300000 -1.740078
183.350000 -1.572209
183.400000 -1.431748
183.450000 -1.349526
183.500000 -1.298138
183.550000 -1.270730
183.600000 -1.287860
183.650000 -1.349526
183.700000 -1.438599
183.750000 -1.534525
183.800000 -1.613320
183.850000 -1.688690
183.900000 -1.760633
183.950000 -1.784614
184.000000 -1.757207
184.050000 -1.712671
184.100000 -1.661282
184.150000 -1.561931
184.200000 -1.424896
184.250000 -1.301563
184.300000 -1.222768
184.350000 -1.188509
184.400000 -1.198787
184.450000 -1.212491
184.500000 -1.219343
184.550000 -1.239898
184.600000 -1.260453
184.650000 -1.267305
184.700000 -1.270731
184.750000 -1.277582
184.800000 -1.260453
184.850000 -1.226194
184.900000 -1.212491
184.950000 -1.222768
185.000000 -1.229620
185.050000 -1.267305
185.100000 -1.342675
185.150000 -1.428321
185.200000 -1.510544
185.250000 -1.589338
185.300000 -1.644153
185.350000 -1.671560
185.400000 -1.681837
185.450000 -1.671560
185.500000 -1.651004
185.550000 -1.633875
185.600000 -1.616745
185.650000 -1.599616
185.700000 -1.609894
185.750000 -1.627023
185.800000 -1.644153
185.850000 -1.685263
185.900000 -1.746930
185.950000 -1.781189
186.000000 -1.774337
186.050000 -1.750356
186.100000 -1.712671
186.150000 -1.661283
186.200000 -1.613320
186.250000 -1.548227
186.300000 -1.459155
186.350000 -1.414619
186.400000 -1.424896
186.450000 -1.431748
186.500000 -1.438600
186.550000 -1.486562
186.600000 -1.551654
186.650000 -1.589339
186.700000 -1.592765
186.750000 -1.575635
186.800000 -1.544802
186.850000 -1.507117
186.900000 -1.493414
186.950000 -1.513969
187.000000 -1.568783
187.050000 -1.647578
187.100000 -1.750355
187.150000 -1.897669
187.200000 -2.068963
187.250000 -2.216277
187.300000 -2.325905
187.350000 -2.414978
187.400000 -2.462941
187.450000 -2.438960
187.500000 -2.349886
187.550000 -2.223129
187.600000 -2.065537
187.650000 -1.901094
187.700000 -1.743504
187.750000 -1.582487
187.800000 -1.448877
187.850000 -1.387211
187.900000 -1.352952
187.950000 -1.322119
188.000000 -1.349527
188.050000 -1.418044
188.100000 -1.448877
188.150000 -1.462581
188.200000 -1.520821
188.250000 -1.592764
188.300000 -1.633876
188.350000 -1.681838
188.400000 -1.729800
188.450000 -1.757207
188.500000 -1.798317
188.550000 -1.836003
188.600000 -1.822300
188.650000 -1.791466
188.700000 -1.788040
188.750000 -1.743504
188.800000 -1.661282
188.850000 -1.592764
188.900000 -1.537950
